Sample:	'1
File name:	Default_20230110_085627.FD3
Run date:	'08:50:07, 01/10/2023
Operator:	user
Comment:	'

Instrument
Model:	F-2700 FL Spectrophotometer
Serial number:	2190-003
ROM Version:	4J14000 07

Instrument parameters
Measurement type:	3-D scan
Data mode:	Fluorescence
EX  Start WL:	220.0 nm
EX  End WL:	600.0 nm
EX Sampling interval:	5.0 nm
EM  Start WL:	230.0 nm
EM  End WL:	650.0 nm
EM Sampling interval:	5.0 nm
Scan speed:	12000 nm/min
EX Slit:	5.0 nm
EM Slit:	5.0 nm
PMT Voltage:	700 V
Response:	Auto 
Corrected spectra:	Off
Contour interval:	50.000

Peak integration
Integration method:	Rectangular
Sensitivity:	1
Threshold:	1.000

Peaks
No.	ApexEX/EM(nm)	Height(Data)
1	245.0/265.0	11.12
2	245.0/530.0	-88.56
3	250.0/270.0	78.80
4	250.0/370.0	843.0
5	250.0/545.0	-62.98
6	255.0/280.0	272.8
7	255.0/555.0	-73.81
8	260.0/285.0	544.0
9	265.0/290.0	871.7
10	270.0/295.0	 1368
11	270.0/435.0	238.8
12	270.0/590.0	19.89
13	275.0/305.0	 1430
14	275.0/440.0	242.9
15	275.0/600.0	14.24
16	280.0/370.0	296.6
17	280.0/615.0	-4.304
18	285.0/375.0	300.1
19	285.0/625.0	-19.99
20	290.0/320.0	577.7
21	290.0/385.0	283.9
22	290.0/425.0	238.1
23	290.0/640.0	-18.13
24	300.0/335.0	348.2
25	305.0/340.0	392.4
26	310.0/345.0	339.0
27	310.0/395.0	283.6
28	315.0/350.0	288.2
29	320.0/360.0	309.1
30	325.0/365.0	322.8
31	330.0/370.0	283.7
32	335.0/380.0	298.9
33	340.0/385.0	289.9
34	345.0/390.0	261.8
35	350.0/395.0	255.2
36	355.0/405.0	244.1
37	360.0/410.0	215.1
38	365.0/415.0	201.3
39	370.0/425.0	193.4
40	380.0/435.0	148.5
41	385.0/445.0	140.3
42	400.0/465.0	76.68
43	415.0/485.0	38.94
44	420.0/490.0	31.50
45	425.0/495.0	26.24
46	430.0/505.0	20.08
47	435.0/510.0	14.49
48	440.0/515.0	11.49
49	445.0/525.0	9.249
50	450.0/530.0	6.774
51	455.0/540.0	4.646
52	460.0/545.0	3.480
53	465.0/550.0	2.174
54	470.0/380.0	-4.041
55	470.0/560.0	-0.456
56	485.0/360.0	-4.180
57	490.0/365.0	-3.878
58	535.0/295.0	-3.494
59	545.0/300.0	-3.114
60	550.0/305.0	-3.832
61	565.0/315.0	-5.049
62	580.0/325.0	-5.346

Data points
	220.0	225.0	230.0	235.0	240.0	245.0	250.0	255.0	260.0	265.0	270.0	275.0	280.0	285.0	290.0	295.0	300.0	305.0	310.0	315.0	320.0	325.0	330.0	335.0	340.0	345.0	350.0	355.0	360.0	365.0	370.0	375.0	380.0	385.0	390.0	395.0	400.0	405.0	410.0	415.0	420.0	425.0	430.0	435.0	440.0	445.0	450.0	455.0	460.0	465.0	470.0	475.0	480.0	485.0	490.0	495.0	500.0	505.0	510.0	515.0	520.0	525.0	530.0	535.0	540.0	545.0	550.0	555.0	560.0	565.0	570.0	575.0	580.0	585.0	590.0	595.0	600.0
230.0	-612.1	-448.0	184.0	214.6	-225.8	-218.4	-185.9	-162.7	-144.3	-122.7	-111.2	-97.62	-80.76	-67.45	-55.55	-44.52	-37.56	-33.05	-28.76	-24.84	-23.01	-21.48	-19.33	-18.79	-17.22	-16.21	-15.44	-14.87	-14.85	-14.36	-13.82	-13.04	-12.65	-11.65	-10.69	-9.556	-9.782	-9.504	-8.781	-8.579	-8.830	-8.711	-8.562	-7.982	-7.923	-7.911	-6.836	-6.517	-5.393	-4.226	-4.897	-6.399	-6.406	-6.684	-6.512	-6.719	-6.888	-6.885	-7.003	-7.052	-7.129	-7.090	-7.254	-7.380	-7.334	-7.213	-7.342	-7.370	-7.287	-7.357	-7.364	-7.616	-7.464	-7.454	-7.811	-7.982	-8.151
235.0	-615.7	-466.6	-130.5	875.4	680.3	-150.6	-185.3	-157.1	-148.2	-125.9	-114.1	-100.1	-77.96	-66.63	-57.88	-45.44	-38.94	-34.06	-27.97	-25.16	-23.45	-20.60	-19.75	-18.95	-17.39	-15.79	-15.61	-14.85	-15.00	-14.37	-14.08	-12.74	-12.07	-11.15	-10.72	-9.384	-9.568	-9.509	-8.533	-8.986	-8.508	-8.329	-7.912	-8.069	-7.923	-7.691	-6.762	-6.906	-5.747	-4.309	-3.772	-4.428	-5.150	-6.537	-6.755	-6.757	-6.908	-6.900	-6.933	-6.957	-6.697	-7.164	-7.585	-7.403	-6.734	-7.259	-6.981	-7.748	-7.464	-7.266	-7.636	-7.382	-7.694	-7.156	-7.448	-7.827	-8.205
240.0	-652.6	-500.7	-316.5	341.2	 1656	669.3	-147.7	-165.7	-139.6	-122.4	-111.2	-95.55	-77.36	-65.98	-56.89	-44.20	-38.73	-32.23	-28.09	-26.01	-23.37	-20.85	-18.24	-17.98	-17.17	-15.75	-15.79	-15.04	-14.64	-14.05	-12.86	-12.72	-11.57	-10.98	-10.68	-9.905	-9.708	-9.362	-9.103	-9.134	-7.762	-8.730	-8.609	-7.786	-7.973	-7.601	-7.051	-7.133	-6.053	-5.094	-4.243	-3.988	-1.859	-3.964	-5.806	-6.611	-6.626	-6.604	-6.883	-7.001	-7.008	-7.103	-7.508	-7.392	-7.119	-7.609	-7.581	-7.590	-7.356	-7.548	-7.696	-7.661	-7.800	-7.636	-7.825	-7.962	-7.738
245.0	-591.3	-483.4	-354.0	-131.3	999.3	 2065	514.3	-146.6	-144.5	-123.0	-108.6	-95.62	-76.42	-68.71	-55.25	-42.32	-37.61	-34.10	-29.21	-24.86	-22.72	-20.25	-19.01	-17.65	-17.58	-15.33	-14.69	-15.12	-13.97	-14.49	-13.41	-12.76	-11.77	-11.39	-10.67	-9.869	-10.22	-9.541	-9.342	-8.631	-8.748	-8.600	-8.593	-7.625	-7.820	-7.570	-6.876	-7.114	-6.348	-5.391	-5.048	-5.440	-3.889	-2.070	-2.155	-4.825	-6.542	-6.847	-7.147	-6.876	-6.977	-7.053	-7.238	-7.075	-7.349	-7.093	-7.218	-6.936	-7.676	-7.655	-7.716	-7.391	-7.615	-7.532	-7.946	-7.696	-7.970
250.0	-622.7	-494.1	-328.9	-230.6	73.42	 1089	 1948	936.3	24.57	-115.9	-112.3	-95.84	-79.83	-67.35	-55.27	-43.80	-36.76	-32.22	-29.60	-25.10	-23.58	-21.27	-19.93	-18.46	-17.08	-15.73	-15.48	-14.42	-14.41	-14.87	-13.40	-12.71	-11.93	-11.31	-10.63	-10.29	-9.903	-9.403	-9.115	-8.567	-8.515	-8.339	-8.405	-8.383	-7.865	-7.641	-6.681	-6.871	-6.239	-5.359	-5.660	-6.559	-5.760	-5.533	-3.457	-2.514	-1.726	-2.277	-4.833	-6.861	-7.017	-7.142	-7.222	-7.150	-7.223	-7.074	-7.103	-7.101	-7.447	-7.409	-7.635	-7.440	-7.468	-7.586	-7.985	-7.828	-8.226
255.0	-624.5	-491.0	-338.6	-157.6	-88.35	89.94	684.6	 2804	 1439	55.47	-99.92	-91.88	-82.05	-62.06	-54.53	-43.76	-38.43	-32.47	-30.54	-26.92	-23.98	-20.29	-18.53	-18.76	-16.16	-15.67	-16.55	-14.79	-14.24	-14.14	-13.70	-12.93	-12.24	-11.48	-10.88	-10.02	-9.422	-9.776	-8.898	-9.246	-8.861	-8.814	-8.429	-8.142	-7.917	-8.149	-7.020	-6.784	-6.321	-5.310	-5.165	-6.237	-6.149	-6.368	-5.950	-5.572	-5.081	-1.836	1.738	1.057	-4.555	-6.667	-7.072	-7.528	-7.046	-7.239	-7.080	-7.347	-7.349	-7.464	-7.635	-7.748	-7.251	-7.176	-8.163	-7.873	-8.445
260.0	-635.3	-502.4	-354.0	-241.8	-29.81	-83.63	28.90	 1257	 3565	 1183	-30.39	-90.78	-81.93	-65.55	-54.61	-45.48	-36.18	-31.72	-29.46	-26.35	-22.75	-20.09	-17.96	-17.75	-16.89	-15.78	-16.24	-15.28	-13.67	-14.44	-13.54	-13.07	-11.88	-11.90	-11.30	-10.17	-9.377	-9.552	-9.024	-9.021	-8.785	-8.760	-8.217	-8.229	-7.743	-7.619	-6.800	-7.080	-6.066	-5.462	-5.511	-6.011	-5.893	-6.351	-6.345	-6.867	-6.883	-5.760	-2.677	1.857	4.740	-0.762	-5.394	-7.334	-7.205	-6.884	-7.316	-7.399	-7.295	-7.692	-7.556	-7.548	-7.761	-7.639	-8.208	-8.163	-8.542
265.0	-565.6	-526.3	-402.3	-306.2	-83.88	11.12	-97.92	204.6	 1931	 4164	903.5	-64.74	-75.87	-67.05	-52.51	-44.78	-34.71	-32.65	-29.65	-27.02	-23.39	-20.90	-19.10	-17.91	-17.09	-15.63	-15.52	-15.12	-13.88	-14.21	-13.58	-13.03	-12.26	-11.09	-10.95	-9.972	-9.443	-9.693	-9.058	-8.903	-8.350	-8.775	-8.321	-8.292	-7.848	-7.921	-6.772	-7.082	-6.273	-5.280	-5.721	-6.455	-5.984	-6.136	-6.074	-6.733	-6.418	-6.709	-5.551	-4.262	0.012	4.789	4.702	-2.067	-6.113	-7.037	-7.212	-7.066	-7.375	-7.437	-7.830	-7.228	-7.380	-7.933	-8.371	-7.887	-8.171
270.0	-608.9	-500.5	-402.4	-303.5	-187.6	-8.733	78.80	-15.79	376.9	 1990	 3973	 2622	156.0	-62.39	-50.57	-42.33	-36.44	-32.02	-28.63	-25.80	-22.83	-21.66	-19.81	-18.62	-16.94	-15.74	-16.16	-15.23	-14.13	-14.23	-13.09	-12.92	-11.98	-11.04	-10.86	-9.762	-9.952	-9.516	-9.259	-8.705	-8.747	-8.547	-8.632	-8.344	-7.654	-7.823	-6.762	-6.933	-6.304	-5.476	-5.544	-6.297	-6.506	-6.608	-6.257	-6.072	-6.525	-6.534	-6.472	-6.271	-5.415	-3.444	0.040	2.454	4.691	1.683	-3.295	-6.912	-7.322	-7.605	-7.691	-7.253	-7.594	-7.893	-7.962	-8.087	-7.969
275.0	-577.4	-484.5	-418.2	-307.5	-232.2	-133.2	55.72	196.6	59.03	423.5	 1344	 4914	 4090	182.6	-47.71	-41.15	-37.75	-32.54	-28.68	-26.25	-21.60	-20.40	-20.18	-17.86	-17.69	-14.99	-15.29	-15.59	-14.19	-13.84	-12.38	-12.31	-11.88	-11.47	-9.518	-9.850	-9.823	-9.307	-8.755	-8.303	-8.892	-8.492	-7.994	-8.165	-7.936	-7.438	-6.585	-6.703	-6.174	-5.340	-5.247	-6.443	-6.114	-6.928	-6.097	-6.644	-6.138	-6.070	-6.014	-6.814	-6.730	-6.108	-5.547	-4.791	-2.411	3.136	9.542	5.920	-3.457	-7.364	-7.361	-7.003	-7.735	-7.522	-7.647	-7.791	-7.892
280.0	-596.8	-509.7	-393.5	-298.3	-218.9	-168.7	-53.08	272.8	250.8	204.2	472.4	 2092	 6280	 3176	34.15	-39.57	-37.33	-31.37	-27.99	-24.27	-22.91	-20.97	-19.61	-17.89	-16.55	-15.47	-15.14	-15.12	-14.27	-13.65	-13.33	-13.19	-11.54	-11.05	-10.19	-9.621	-9.926	-9.095	-9.000	-8.322	-8.790	-8.322	-8.361	-8.113	-7.323	-7.133	-6.574	-6.560	-6.150	-5.249	-5.684	-6.614	-6.581	-6.939	-6.416	-6.478	-6.582	-6.287	-5.657	-5.495	-6.312	-6.408	-6.647	-6.089	-5.628	-4.059	0.603	8.857	11.62	3.284	-5.517	-7.499	-7.683	-7.655	-7.797	-7.871	-8.057
285.0	-647.9	-486.4	-398.0	-293.1	-218.2	-164.9	-82.59	143.5	544.0	397.9	443.9	810.6	 3068	 6452	568.8	-17.07	-35.35	-30.03	-27.27	-26.92	-23.80	-20.43	-19.53	-17.47	-16.98	-16.63	-15.55	-15.34	-14.20	-14.58	-13.27	-13.58	-12.16	-10.76	-11.03	-9.858	-9.591	-9.635	-9.477	-8.220	-8.701	-8.878	-8.165	-8.075	-7.740	-7.824	-6.682	-7.042	-6.317	-5.237	-5.548	-6.405	-6.739	-6.864	-6.378	-6.345	-6.624	-6.328	-6.324	-5.199	-5.424	-6.074	-5.969	-5.927	-6.025	-5.449	-4.595	-1.555	5.851	13.88	9.677	-1.929	-6.998	-7.877	-7.579	-7.781	-8.310
290.0	-584.7	-426.2	-357.2	-263.4	-194.5	-151.2	-60.69	97.07	470.3	871.7	847.9	746.0	 1076	 2731	 4222	 2166	111.5	-28.58	-27.26	-25.60	-22.73	-20.35	-19.73	-18.03	-17.49	-15.95	-15.07	-15.33	-14.26	-14.41	-13.63	-13.31	-11.87	-11.22	-10.97	-9.621	-9.337	-9.775	-9.495	-8.656	-8.812	-8.794	-8.089	-8.180	-7.998	-7.152	-6.895	-6.858	-5.827	-5.199	-5.116	-6.523	-6.430	-6.530	-6.272	-6.331	-6.789	-6.698	-6.181	-6.058	-5.229	-4.996	-4.678	-4.836	-5.651	-5.605	-5.458	-5.039	-4.230	-0.509	3.670	7.372	7.443	3.405	-3.689	-7.627	-8.100
295.0	-589.9	-459.6	-328.6	-240.1	-182.6	-120.5	-19.04	131.1	414.8	830.0	 1368	 1034	689.2	747.5	 1313	 4511	 3131	149.4	-24.39	-24.87	-20.31	-20.37	-19.53	-17.42	-17.17	-15.98	-15.12	-15.50	-14.31	-13.69	-12.93	-12.77	-11.16	-11.30	-10.53	-9.567	-9.298	-9.653	-9.326	-8.881	-8.481	-8.216	-8.463	-8.585	-8.163	-7.345	-6.673	-6.717	-6.095	-4.895	-5.451	-6.580	-6.224	-6.360	-6.275	-6.442	-6.398	-6.447	-6.048	-5.937	-5.627	-5.049	-4.909	-3.494	-4.348	-4.663	-5.247	-5.787	-6.108	-5.700	-4.525	-3.646	-0.948	6.839	14.73	7.255	-3.244
300.0	-638.9	-427.0	-305.2	-233.9	-163.8	-87.52	9.241	159.9	410.5	746.7	 1290	 1369	671.2	333.2	342.7	 1694	 5509	 2385	67.19	-22.40	-20.91	-20.41	-18.46	-17.77	-17.29	-16.00	-14.91	-14.90	-13.34	-13.96	-13.47	-12.16	-11.27	-10.82	-10.60	-9.386	-9.981	-9.601	-9.931	-8.804	-9.199	-7.861	-8.486	-8.325	-7.912	-7.923	-6.840	-6.723	-5.596	-5.148	-5.289	-6.365	-6.347	-6.442	-6.138	-6.665	-6.666	-6.575	-6.388	-5.703	-5.599	-5.157	-4.821	-4.218	-3.536	-3.114	-4.325	-5.340	-6.053	-6.889	-6.521	-6.456	-6.085	-3.448	2.840	14.15	15.19
305.0	-580.5	-415.3	-277.5	-209.2	-153.8	-83.29	31.67	171.4	393.6	669.4	 1075	 1430	908.8	282.2	149.2	417.6	 2488	 5672	 1665	5.800	-20.60	-19.44	-17.63	-16.45	-16.38	-15.42	-14.80	-14.99	-13.45	-14.55	-13.46	-12.90	-11.92	-10.98	-10.46	-9.712	-9.534	-9.196	-8.938	-8.903	-8.439	-8.131	-8.222	-7.988	-8.177	-7.858	-6.686	-7.111	-5.948	-4.975	-5.426	-6.464	-6.205	-6.080	-6.467	-6.577	-6.787	-6.175	-6.054	-5.631	-6.245	-4.793	-5.321	-4.641	-4.679	-3.993	-3.832	-4.378	-6.051	-6.548	-6.634	-6.771	-7.081	-6.267	-4.816	-0.365	8.761
310.0	-573.5	-445.7	-288.3	-208.2	-138.1	-92.12	18.56	156.8	348.9	578.3	867.6	 1011	 1001	524.6	162.5	139.3	607.3	 2393	 4331	 2251	82.61	-18.07	-17.29	-15.94	-16.06	-14.86	-15.26	-13.53	-14.36	-14.34	-13.56	-12.42	-11.23	-10.92	-10.35	-9.742	-9.189	-9.561	-9.222	-8.950	-8.425	-8.446	-8.600	-8.302	-8.123	-7.597	-6.457	-7.005	-5.920	-5.275	-5.136	-6.493	-6.191	-6.235	-6.194	-6.293	-6.386	-6.258	-6.068	-5.944	-5.614	-4.845	-5.481	-4.939	-5.233	-4.764	-4.900	-4.575	-5.085	-5.555	-6.604	-6.957	-7.124	-7.280	-6.508	-6.104	-4.010
315.0	-625.9	-438.8	-288.6	-222.4	-117.2	-67.74	2.706	115.2	290.9	484.2	710.7	738.4	649.0	692.1	380.1	110.9	171.2	551.6	 1293	 4310	 2092	119.5	-16.57	-16.01	-15.10	-14.75	-13.45	-13.40	-15.03	-13.45	-13.48	-12.14	-11.32	-10.81	-10.71	-9.174	-9.400	-9.152	-9.230	-8.691	-8.510	-8.025	-8.576	-8.417	-8.041	-7.892	-6.722	-6.755	-6.126	-5.419	-5.104	-6.221	-6.032	-5.911	-5.990	-6.012	-6.254	-6.334	-5.932	-6.070	-5.357	-5.721	-5.704	-5.500	-5.223	-5.526	-5.409	-5.356	-6.060	-5.049	-5.513	-5.943	-7.083	-7.030	-7.281	-6.827	-7.449
320.0	-558.3	-452.1	-272.0	-188.7	-139.5	-57.15	-16.63	117.9	232.2	429.9	584.9	606.3	499.1	497.3	577.7	206.3	86.86	148.3	303.3	 1678	 4786	 1708	54.13	-15.01	-14.10	-14.06	-12.97	-14.16	-13.73	-12.83	-12.88	-12.52	-11.31	-11.19	-10.50	-9.156	-9.244	-9.195	-8.935	-8.349	-8.295	-8.250	-8.274	-8.198	-7.869	-7.690	-6.807	-6.717	-6.084	-5.541	-5.432	-6.117	-6.064	-6.039	-6.199	-6.535	-6.310	-5.568	-6.144	-6.348	-5.748	-5.913	-5.736	-5.615	-6.013	-5.452	-5.923	-6.108	-6.672	-5.813	-6.174	-5.745	-6.047	-7.060	-7.458	-7.274	-7.756
325.0	-611.3	-433.6	-301.9	-164.2	-124.1	-41.22	38.06	107.2	212.1	377.0	506.0	552.4	451.7	372.3	494.9	424.0	115.7	68.61	85.28	403.2	 2351	 4800	 1241	10.75	-14.93	-14.39	-13.40	-12.88	-13.80	-12.95	-13.00	-12.22	-12.04	-10.63	-10.50	-9.248	-9.625	-8.359	-8.637	-9.137	-8.150	-8.849	-7.784	-7.839	-8.091	-7.985	-6.401	-6.886	-6.101	-5.273	-5.306	-6.300	-6.054	-6.666	-5.941	-5.969	-5.954	-5.927	-6.260	-6.581	-5.819	-6.201	-5.972	-5.590	-6.033	-5.865	-5.786	-6.107	-6.537	-5.657	-6.655	-5.972	-5.346	-6.169	-6.778	-7.703	-8.012
330.0	-616.5	-436.0	-249.8	-87.91	-5.794	66.65	121.7	170.9	241.0	342.1	462.7	479.0	411.6	332.7	316.7	411.9	324.9	106.7	56.53	110.1	565.0	 2096	 3693	 1951	69.83	-12.39	-13.78	-13.08	-13.22	-14.00	-12.89	-12.64	-11.25	-10.83	-9.926	-9.169	-9.271	-9.168	-8.661	-8.824	-8.712	-8.705	-8.183	-8.114	-7.795	-7.611	-6.537	-6.560	-6.010	-4.964	-5.254	-6.087	-5.949	-6.273	-6.175	-6.231	-5.764	-6.190	-6.091	-6.057	-6.110	-6.233	-5.874	-5.693	-5.828	-5.935	-5.972	-6.173	-6.385	-6.457	-6.697	-6.560	-6.669	-6.135	-6.161	-6.249	-7.302
335.0	-563.7	-401.5	-219.7	23.59	156.8	259.4	282.6	303.9	307.2	346.9	429.2	412.8	386.7	324.3	272.4	252.6	348.2	310.8	94.23	65.19	147.5	481.4	 1167	 3834	 1574	104.4	-10.89	-12.48	-12.93	-12.81	-12.53	-11.81	-11.56	-10.17	-10.67	-9.354	-9.572	-8.853	-8.985	-8.966	-8.780	-8.267	-8.293	-8.667	-8.184	-7.433	-6.635	-6.675	-5.790	-4.774	-4.945	-5.652	-5.355	-5.764	-5.817	-6.037	-5.517	-5.350	-6.248	-6.030	-5.927	-5.857	-6.018	-6.074	-5.773	-5.702	-6.076	-6.178	-6.159	-6.559	-6.033	-6.711	-6.820	-6.892	-7.269	-6.399	-6.244
340.0	-576.4	-340.0	-107.1	118.6	261.1	372.7	459.0	420.9	383.7	390.4	409.1	376.2	379.2	321.8	273.7	217.6	233.8	392.4	212.7	71.08	67.71	132.3	278.3	 1501	 4265	 1397	58.63	-11.29	-12.70	-12.30	-12.54	-12.22	-10.78	-10.67	-10.48	-9.963	-9.544	-9.152	-8.485	-8.683	-8.532	-8.118	-8.639	-7.911	-7.442	-7.280	-6.384	-6.405	-5.850	-4.685	-4.959	-5.511	-4.777	-5.708	-4.884	-5.576	-5.958	-5.614	-5.654	-6.270	-5.872	-6.047	-5.548	-6.068	-5.784	-5.938	-6.165	-6.226	-6.498	-6.521	-6.482	-6.663	-6.851	-6.905	-6.847	-7.072	-7.123
345.0	-550.8	-390.9	-103.4	177.0	378.1	513.0	567.3	478.8	408.9	418.1	379.3	359.1	352.9	321.9	273.2	228.4	189.0	287.1	339.0	129.9	62.85	60.09	84.02	361.8	 2104	 4422	 1093	13.93	-12.51	-12.29	-12.67	-12.67	-11.10	-10.69	-9.506	-9.344	-9.180	-9.015	-9.399	-8.648	-8.260	-8.165	-8.683	-7.985	-8.042	-7.257	-6.472	-6.016	-5.923	-4.319	-4.460	-5.657	-4.741	-5.433	-5.021	-5.785	-5.526	-5.677	-5.372	-5.509	-5.605	-5.432	-5.802	-5.819	-5.665	-6.098	-6.133	-6.389	-6.385	-6.416	-5.870	-6.571	-7.268	-7.094	-7.587	-7.248	-7.135
350.0	-585.1	-360.3	-61.09	285.0	501.3	622.1	684.4	571.5	484.9	461.1	388.9	337.4	332.9	306.6	277.5	234.9	195.9	202.8	283.3	288.2	134.9	69.04	58.10	108.9	511.5	 1981	 3415	 1737	58.33	-10.53	-11.68	-11.63	-10.94	-11.14	-10.06	-9.337	-9.212	-9.062	-8.774	-8.557	-8.423	-8.207	-8.452	-8.032	-7.935	-7.324	-6.228	-6.214	-5.765	-4.286	-4.462	-5.222	-4.965	-4.773	-4.510	-4.724	-5.183	-5.443	-5.480	-5.555	-5.693	-5.763	-5.939	-5.721	-6.034	-6.384	-6.457	-6.282	-6.306	-6.609	-6.631	-6.448	-6.537	-6.782	-6.803	-7.488	-7.399
355.0	-598.5	-320.9	-51.18	368.3	601.2	738.0	759.6	649.0	601.5	476.7	372.0	321.5	311.0	314.6	282.1	238.9	213.5	197.9	203.4	280.4	271.0	125.8	73.85	70.96	144.5	462.5	 1118	 3545	 1335	81.03	-10.92	-12.23	-10.92	-10.75	-10.07	-9.057	-8.919	-9.183	-8.653	-8.995	-8.602	-8.730	-8.408	-8.216	-7.489	-7.878	-6.112	-6.439	-5.788	-4.345	-4.467	-4.690	-4.631	-4.751	-4.513	-4.604	-4.776	-5.383	-4.981	-5.206	-5.730	-5.385	-5.875	-5.950	-6.102	-6.444	-6.153	-6.077	-7.327	-6.579	-6.659	-6.363	-6.566	-6.506	-6.776	-6.859	-7.795
360.0	-557.0	-402.5	-52.17	326.5	637.2	763.7	820.8	675.4	581.6	458.7	368.6	312.7	303.3	302.3	286.2	249.5	224.6	208.1	199.3	215.5	309.1	227.6	100.5	77.32	76.65	132.6	271.1	 1484	 3973	 1179	39.01	-10.43	-11.04	-10.53	-9.709	-8.647	-9.564	-9.094	-8.789	-8.388	-8.425	-8.352	-8.037	-7.868	-7.629	-7.360	-6.437	-6.801	-5.528	-4.414	-4.705	-4.536	-4.501	-4.180	-4.267	-4.192	-4.451	-5.464	-5.155	-5.447	-5.595	-5.414	-6.005	-5.919	-6.279	-6.572	-6.185	-6.569	-6.397	-6.572	-5.952	-6.215	-6.923	-6.748	-6.715	-6.896	-6.855
365.0	-589.5	-346.0	-56.31	375.5	633.5	810.9	814.2	731.9	557.1	469.5	372.8	279.4	293.7	297.7	284.4	263.9	237.9	219.2	203.2	198.6	247.5	322.8	173.4	91.28	73.63	69.65	85.88	365.1	 2103	 4054	914.7	3.956	-10.11	-9.414	-9.792	-8.996	-9.339	-8.821	-8.838	-8.782	-8.681	-8.404	-8.308	-7.829	-7.707	-7.580	-6.286	-6.195	-5.612	-4.459	-4.671	-4.774	-4.338	-4.394	-3.878	-3.893	-4.413	-5.125	-4.855	-5.430	-5.803	-5.557	-6.183	-5.618	-5.983	-6.010	-6.492	-6.217	-6.686	-6.376	-5.915	-6.239	-6.699	-6.583	-6.598	-7.193	-7.261
370.0	-562.6	-321.4	-50.98	353.7	637.1	822.7	843.0	692.1	541.5	474.7	352.7	285.9	296.6	286.6	290.0	270.6	248.6	242.1	228.8	215.4	213.7	270.0	283.7	168.0	96.24	77.04	60.30	110.4	519.5	 1962	 3307	 1538	44.28	-8.848	-9.573	-8.967	-9.193	-8.759	-8.820	-8.753	-7.778	-8.252	-8.500	-8.176	-8.197	-7.292	-6.567	-6.404	-5.822	-4.392	-4.366	-5.079	-4.654	-4.412	-4.440	-4.277	-4.523	-4.802	-5.220	-5.404	-5.577	-5.398	-6.084	-6.099	-6.196	-6.153	-6.220	-6.200	-6.658	-6.433	-6.328	-6.497	-6.870	-6.530	-6.444	-7.251	-7.050
375.0	-596.0	-346.1	-39.24	322.9	590.7	723.3	767.8	688.6	525.8	438.7	342.4	275.1	292.7	300.1	287.0	273.2	262.0	253.0	245.3	237.4	225.4	223.0	255.8	293.5	161.1	103.9	74.68	67.90	142.7	452.7	 1174	 3585	 1087	58.98	-8.142	-7.983	-8.636	-8.642	-8.257	-8.718	-8.418	-8.247	-8.693	-7.677	-7.907	-7.226	-6.993	-6.614	-5.740	-4.409	-4.275	-5.021	-4.369	-4.450	-4.718	-4.780	-4.834	-5.132	-5.256	-5.569	-5.741	-5.551	-6.140	-6.441	-6.087	-6.212	-6.317	-6.217	-6.530	-6.384	-6.604	-6.281	-6.556	-6.587	-6.704	-7.137	-7.293
380.0	-554.0	-386.9	-70.16	246.8	582.7	661.3	699.2	606.7	486.2	432.3	331.4	271.0	287.2	280.4	277.6	271.3	266.9	272.4	259.2	246.7	239.7	225.0	224.9	298.9	248.0	134.5	88.75	67.29	63.22	125.6	283.5	 1648	 3691	920.9	23.61	-6.892	-7.944	-8.245	-7.705	-8.904	-7.986	-8.262	-8.325	-7.657	-7.697	-7.440	-6.924	-6.348	-5.773	-4.675	-4.041	-5.115	-4.706	-4.197	-4.264	-4.337	-4.707	-5.273	-5.509	-5.682	-5.721	-5.851	-6.259	-6.356	-6.123	-6.437	-6.275	-6.478	-6.352	-6.391	-6.794	-6.418	-6.811	-6.737	-6.522	-7.017	-7.588
385.0	-566.8	-397.0	-117.8	236.6	513.0	641.5	640.6	583.6	468.3	380.9	314.9	270.6	270.1	283.3	283.9	275.0	272.0	269.1	274.5	258.8	251.7	234.7	219.5	243.6	289.9	188.2	108.5	76.34	58.32	56.49	81.59	409.7	 2171	 3516	653.4	-0.074	-7.397	-8.063	-8.463	-8.574	-7.966	-8.590	-8.302	-7.700	-7.678	-7.681	-6.634	-5.996	-5.603	-4.417	-4.155	-4.603	-5.327	-4.808	-4.454	-4.506	-4.989	-4.923	-5.541	-5.659	-5.826	-5.760	-6.161	-6.317	-6.288	-6.777	-6.451	-6.505	-6.889	-6.171	-6.597	-6.650	-6.114	-6.473	-6.723	-7.023	-7.111
