Sample:	'1
File name:	Default_20211222_144950.FD3
Run date:	'14:43:28, 12/22/2021
Operator:	user
Comment:	'

Instrument
Model:	F-2700 FL Spectrophotometer
Serial number:	2190-003
ROM Version:	4J14000 07

Instrument parameters
Measurement type:	3-D scan
Data mode:	Fluorescence
EX  Start WL:	220.0 nm
EX  End WL:	600.0 nm
EX Sampling interval:	5.0 nm
EM  Start WL:	230.0 nm
EM  End WL:	650.0 nm
EM Sampling interval:	5.0 nm
Scan speed:	12000 nm/min
EX Slit:	5.0 nm
EM Slit:	5.0 nm
PMT Voltage:	700 V
Response:	Auto 
Corrected spectra:	Off
Contour interval:	50.000

Peak integration
Integration method:	Rectangular
Sensitivity:	1
Threshold:	1.000

Peaks
No.	ApexEX/EM(nm)	Height(Data)
1	225.0/485.0	107.6
2	225.0/545.0	12.08
3	225.0/600.0	0.007
4	230.0/500.0	104.4
5	230.0/540.0	12.16
6	230.0/560.0	8.057
7	230.0/575.0	3.762
8	230.0/595.0	1.139
9	235.0/255.0	287.4
10	235.0/510.0	105.9
11	235.0/580.0	0.189
12	240.0/260.0	346.0
13	240.0/520.0	107.3
14	240.0/565.0	2.844
15	240.0/600.0	0.700
16	245.0/265.0	341.2
17	245.0/530.0	92.16
18	250.0/270.0	342.6
19	250.0/545.0	101.0
20	255.0/280.0	462.3
21	255.0/460.0	14.05
22	255.0/555.0	83.89
23	260.0/285.0	548.6
24	260.0/565.0	76.50
25	265.0/290.0	504.6
26	265.0/580.0	78.27
27	270.0/295.0	601.4
28	270.0/590.0	61.40
29	275.0/305.0	633.7
30	275.0/335.0	 6579
31	275.0/605.0	56.66
32	280.0/460.0	14.37
33	280.0/495.0	14.51
34	280.0/520.0	10.50
35	280.0/615.0	45.85
36	320.0/355.0	435.7
37	335.0/380.0	134.8
38	340.0/385.0	125.9
39	345.0/390.0	95.95
40	350.0/395.0	92.68
41	355.0/405.0	88.06
42	360.0/410.0	73.82
43	365.0/415.0	70.90
44	370.0/425.0	66.10
45	375.0/430.0	52.79
46	375.0/495.0	7.031
47	380.0/435.0	50.80
48	380.0/500.0	6.993
49	385.0/445.0	46.80
50	390.0/450.0	38.00
51	395.0/455.0	34.77
52	400.0/465.0	31.91
53	405.0/470.0	25.47
54	410.0/475.0	22.11
55	415.0/485.0	21.45
56	420.0/490.0	17.15
57	425.0/495.0	15.16
58	430.0/505.0	13.55
59	435.0/510.0	10.71
60	440.0/515.0	9.745
61	445.0/525.0	8.621
62	450.0/530.0	6.746
63	455.0/335.0	117.7
64	455.0/540.0	5.734
65	460.0/545.0	4.569
66	465.0/555.0	3.370
67	470.0/560.0	2.892
68	480.0/575.0	1.553
69	485.0/265.0	1.702
70	490.0/590.0	1.151
71	495.0/270.0	1.681
72	505.0/275.0	2.331
73	510.0/280.0	2.991
74	515.0/285.0	2.988
75	525.0/290.0	2.516
76	535.0/295.0	3.053
77	540.0/300.0	2.955
78	545.0/335.0	28.68
79	550.0/305.0	3.331

Data points
	220.0	225.0	230.0	235.0	240.0	245.0	250.0	255.0	260.0	265.0	270.0	275.0	280.0	285.0	290.0	295.0	300.0	305.0	310.0	315.0	320.0	325.0	330.0	335.0	340.0	345.0	350.0	355.0	360.0	365.0	370.0	375.0	380.0	385.0	390.0	395.0	400.0	405.0	410.0	415.0	420.0	425.0	430.0	435.0	440.0	445.0	450.0	455.0	460.0	465.0	470.0	475.0	480.0	485.0	490.0	495.0	500.0	505.0	510.0	515.0	520.0	525.0	530.0	535.0	540.0	545.0	550.0	555.0	560.0	565.0	570.0	575.0	580.0	585.0	590.0	595.0	600.0
230.0	44.53	273.6	 2157	 1488	89.38	-0.220	-0.653	-0.749	-0.402	-0.264	-0.450	0.270	-0.264	0.186	-0.139	0.018	-0.264	-0.354	-0.241	-0.181	-0.108	-0.158	-0.268	-0.196	-0.246	-0.145	-0.189	-0.325	-0.229	-0.255	-0.222	-0.169	-0.172	-0.119	-0.104	-0.160	-0.092	-0.153	-0.070	-0.108	-0.030	0.201	0.231	0.114	-0.036	-0.023	0.294	3.011	6.710	5.422	1.846	0.056	-0.112	-0.104	-0.068	-0.085	-0.121	-0.094	-0.134	-0.145	-0.149	-0.120	-0.170	-0.142	-0.163	-0.169	-0.164	-0.243	-0.189	-0.194	-0.224	-0.211	-0.235	-0.196	-0.209	-0.176	-0.237
235.0	135.9	94.63	771.1	 2049	636.6	95.99	-0.244	0.072	-1.109	-0.187	-0.750	0.082	0.438	-0.022	-0.229	-0.637	-0.440	-0.284	-0.356	0.007	-0.201	-0.294	-0.273	-0.176	0.109	-0.332	-0.093	-0.139	-0.214	-0.068	-0.176	-0.246	-0.048	-0.223	-0.155	-0.021	-0.118	-0.069	-0.120	-0.082	-0.081	0.001	0.143	0.152	0.340	0.072	0.146	0.652	1.937	3.851	5.898	5.345	1.783	0.100	-0.047	-0.214	-0.132	-0.099	-0.209	-0.152	-0.174	-0.022	-0.130	-0.246	-0.235	-0.163	-0.163	-0.273	-0.116	-0.204	-0.075	-0.200	-0.248	-0.116	-0.202	-0.171	-0.177
240.0	143.1	147.3	203.6	945.9	 1926	511.7	41.80	0.795	0.088	0.634	-0.162	0.805	0.173	0.622	-0.085	-0.301	-0.370	-0.458	-0.332	-0.153	-0.337	0.007	-0.139	-0.444	0.074	-0.294	-0.180	-0.191	-0.048	-0.155	-0.173	-0.163	-0.149	-0.152	-0.100	-0.160	-0.011	-0.025	-0.202	-0.112	-0.219	0.020	-0.045	-0.038	0.234	0.347	0.241	0.234	0.465	0.939	2.756	6.443	6.927	4.201	0.810	-0.052	-0.142	-0.085	-0.259	-0.113	-0.054	-0.165	-0.109	-0.193	-0.153	-0.257	-0.206	-0.161	-0.257	-0.078	-0.124	-0.240	-0.229	-0.103	-0.104	-0.281	-0.302
245.0	53.70	189.4	147.3	246.5	 1156	 1969	390.4	15.90	-0.004	-0.567	0.447	-0.217	0.110	0.782	-0.124	0.449	-0.157	-0.037	0.113	-0.262	-0.162	-0.153	-0.227	-0.218	-0.030	-0.393	-0.202	-0.300	-0.107	-0.192	-0.339	-0.206	-0.217	-0.053	-0.081	-0.112	-0.034	-0.034	-0.160	-0.151	-0.064	-0.064	-0.077	0.052	0.172	0.315	0.484	0.380	0.221	0.104	0.648	2.023	4.431	7.854	6.992	3.034	0.281	-0.035	-0.188	-0.076	-0.109	-0.115	-0.153	-0.143	-0.130	-0.199	-0.207	-0.222	-0.184	-0.115	-0.076	-0.240	-0.202	-0.230	-0.065	-0.150	-0.238
250.0	6.955	79.02	218.4	191.2	309.7	 1024	 1717	 1039	100.7	1.864	0.649	0.275	0.185	0.648	0.028	-0.105	-0.205	-0.027	-0.089	-0.269	-0.107	-0.062	-0.121	-0.216	-0.106	-0.354	-0.398	-0.116	-0.214	-0.257	-0.170	-0.122	-0.158	-0.168	-0.220	-0.095	-0.191	-0.081	-0.152	-0.070	-0.079	-0.072	-0.120	-0.056	0.031	0.017	0.180	0.309	0.769	0.494	0.506	0.470	0.963	2.454	4.315	6.781	7.848	6.015	2.373	0.358	-0.134	-0.167	-0.093	-0.168	-0.174	-0.167	-0.173	-0.150	-0.090	-0.188	-0.103	-0.240	-0.142	-0.277	-0.239	-0.190	-0.200
255.0	-3.589	17.48	88.32	287.4	240.7	248.5	652.8	 2108	 1631	116.0	2.097	0.866	0.930	0.969	0.226	0.091	0.196	-0.251	-0.130	-0.378	-0.078	-0.368	-0.221	-0.200	-0.096	-0.094	-0.249	-0.183	-0.150	-0.170	-0.113	-0.445	-0.207	-0.173	-0.148	-0.130	-0.141	-0.081	-0.173	-0.032	-0.129	-0.086	-0.080	-0.136	-0.011	-0.125	-0.040	0.067	0.227	0.454	1.141	1.128	0.367	0.528	0.900	1.569	3.229	7.956	11.99	9.664	2.875	0.100	-0.044	-0.198	-0.115	-0.197	-0.112	-0.275	-0.207	-0.228	-0.276	-0.155	-0.228	-0.308	-0.227	-0.169	-0.220
260.0	-5.674	5.021	23.38	163.0	346.0	163.9	167.1	968.2	 2592	 1348	57.65	2.469	2.111	1.462	0.673	-0.035	0.105	-0.133	0.022	-0.142	0.057	-0.273	-0.248	-0.194	-0.081	-0.095	-0.276	-0.137	-0.185	-0.323	-0.217	-0.300	-0.092	-0.112	-0.208	-0.042	-0.245	-0.142	-0.130	-0.059	0.023	-0.055	-0.016	-0.032	-0.048	-0.059	0.021	-0.072	0.019	0.096	0.531	1.329	1.299	0.603	0.204	0.329	0.793	2.277	6.600	12.55	13.89	8.030	1.376	-0.162	-0.131	-0.177	-0.092	-0.215	-0.172	-0.131	-0.258	-0.178	-0.210	-0.215	-0.257	-0.261	-0.311
265.0	3.303	6.180	7.726	51.06	261.8	341.2	92.67	255.1	 1383	 2900	 1000	19.70	2.786	2.243	0.939	0.360	-0.230	0.041	-0.005	0.235	0.258	-0.276	0.022	-0.271	-0.239	-0.021	-0.299	-0.196	0.065	-0.340	-0.182	-0.246	-0.062	-0.189	-0.116	-0.042	-0.190	-0.142	-0.058	-0.135	-0.038	-0.175	-0.094	-0.088	0.139	-0.103	-0.042	-0.036	-0.034	-0.112	0.138	0.375	1.462	1.702	1.036	0.204	0.108	0.505	1.572	4.291	9.912	15.68	13.89	4.811	0.332	-0.168	-0.232	-0.135	-0.033	-0.084	-0.207	-0.164	-0.252	-0.225	-0.189	-0.197	-0.031
270.0	-4.935	7.217	10.60	13.04	78.99	276.6	342.6	145.7	358.4	 1371	 2590	 1456	66.79	3.059	1.496	0.979	0.106	-0.077	-0.055	-0.081	0.008	-0.181	-0.005	-0.152	-0.146	-0.028	-0.149	-0.054	-0.112	-0.144	-0.132	-0.135	-0.129	-0.130	-0.097	-0.040	-0.099	-0.202	-0.152	-0.133	-0.123	-0.154	-0.113	-0.164	-0.032	-0.113	-0.035	-0.053	-0.041	-0.101	0.017	0.040	0.378	0.691	1.395	1.681	1.141	0.385	0.327	0.899	2.430	5.322	9.247	12.78	13.12	8.956	3.144	0.195	-0.105	-0.138	-0.180	-0.179	-0.144	-0.183	-0.270	-0.201	-0.128
275.0	3.686	9.160	9.881	3.307	19.48	76.90	298.7	391.2	149.5	328.6	901.5	 2909	 1387	66.63	2.065	1.200	0.944	0.390	0.169	0.062	-0.073	-0.018	-0.043	-0.075	-0.187	-0.161	0.034	-0.177	-0.327	-0.147	-0.332	-0.131	-0.155	-0.059	0.013	0.047	-0.075	-0.085	-0.262	-0.087	-0.020	-0.145	-0.192	-0.176	-0.048	0.032	0.075	-0.071	-0.019	-0.092	-0.007	-0.104	-0.016	0.057	0.407	0.721	1.906	2.331	1.224	0.282	0.496	1.184	2.024	3.068	5.821	12.47	18.18	12.44	3.023	0.071	-0.212	-0.224	-0.221	-0.226	-0.257	-0.099	-0.221
280.0	14.86	13.84	12.46	5.016	5.690	20.99	113.5	462.3	305.9	109.5	232.8	 1228	 3240	992.0	28.77	1.907	0.951	0.397	0.278	0.358	0.154	-0.008	0.033	-0.226	-0.092	-0.154	0.100	-0.219	-0.377	0.012	-0.065	-0.150	-0.041	-0.104	-0.039	0.044	-0.007	0.115	-0.168	-0.111	-0.040	-0.062	-0.189	-0.135	0.008	0.102	0.044	-0.074	-0.023	-0.121	-0.057	-0.062	-0.120	-0.103	0.032	0.144	0.589	1.697	2.991	1.997	0.664	0.280	0.444	0.609	1.399	3.489	8.916	17.03	17.30	8.562	1.168	-0.012	-0.138	-0.169	-0.205	-0.216	-0.166
285.0	14.84	14.48	12.23	1.577	5.007	8.644	32.98	221.3	548.6	202.3	78.00	323.8	 1662	 3189	135.8	7.281	1.764	0.822	0.770	0.495	0.335	0.057	-0.137	0.006	0.095	-0.153	-0.108	-0.096	-0.077	-0.288	-0.181	-0.171	-0.154	-0.013	0.052	0.051	0.034	0.088	-0.114	-0.144	-0.167	-0.074	-0.136	-0.019	0.022	0.143	0.146	-0.008	0.004	-0.076	-0.065	-0.072	-0.063	-0.063	0.002	0.045	0.074	0.368	1.417	2.988	2.679	0.705	0.284	0.149	0.371	0.755	2.137	5.610	12.35	19.24	14.52	4.981	0.212	-0.094	-0.276	-0.180	-0.142
290.0	21.64	22.90	14.95	4.654	4.629	9.369	14.41	63.11	272.4	504.6	174.1	102.9	428.0	 1541	 2292	 1066	33.66	1.842	1.089	0.656	0.518	0.113	0.014	-0.172	-0.017	-0.025	-0.156	0.034	-0.094	-0.152	0.048	-0.134	-0.009	-0.020	0.083	0.111	0.055	0.032	-0.034	-0.092	-0.055	-0.138	-0.135	-0.035	0.005	0.052	0.105	0.037	0.021	-0.108	-0.026	-0.107	-0.038	-0.079	-0.078	-0.055	-0.033	0.093	0.287	0.984	1.827	2.516	2.315	1.165	0.317	0.186	0.470	1.349	3.053	6.352	10.38	13.22	12.68	8.586	2.728	0.250	-0.090
295.0	18.36	30.71	22.08	3.052	4.115	9.511	10.49	25.95	77.61	256.3	601.4	179.9	122.0	370.1	846.5	 2589	748.0	37.27	2.097	0.862	0.641	0.166	-0.110	0.191	0.023	-0.191	0.133	0.022	-0.013	-0.232	-0.022	-0.046	0.021	-0.025	0.127	0.071	0.129	0.028	-0.040	0.076	-0.058	-0.121	-0.152	-0.098	0.015	0.061	-0.042	0.089	-0.063	-0.022	0.017	-0.128	-0.057	0.033	-0.054	-0.051	-0.070	-0.033	0.043	0.238	0.361	0.798	1.952	3.053	2.401	0.771	0.108	0.257	0.762	1.422	2.244	3.192	5.789	12.63	17.40	11.48	2.760
300.0	27.97	29.36	21.85	6.913	6.702	11.88	15.08	21.86	34.30	93.56	451.2	550.2	100.1	105.8	219.5	 1202	 2672	574.5	16.45	1.459	0.769	0.635	0.175	0.066	0.238	-0.056	0.165	0.012	-0.119	-0.400	0.011	-0.165	0.158	0.012	0.079	0.063	0.072	-0.017	-0.014	0.076	0.050	-0.150	-0.052	-0.031	-0.108	-0.078	-0.044	-0.036	-0.028	-0.048	0.053	-0.096	-0.050	-0.077	-0.135	-0.011	0.034	-0.068	0.013	-0.001	0.124	0.138	0.606	1.458	2.955	2.779	1.176	0.135	0.357	0.353	0.446	0.624	1.373	3.640	9.217	17.39	16.78
305.0	44.99	47.81	41.27	14.04	9.986	15.47	18.16	24.29	29.45	49.09	184.9	633.7	200.1	57.42	73.52	320.4	 1627	 2490	81.00	5.318	1.491	0.869	0.775	0.111	0.210	-0.012	0.399	0.090	-0.218	-0.099	0.124	-0.188	0.086	-0.026	0.127	0.152	0.133	0.140	0.031	0.085	0.111	-0.055	0.008	0.059	0.029	0.153	0.056	0.053	0.018	0.074	-0.051	-0.122	-0.023	0.002	-0.080	0.101	0.016	-0.070	-0.012	-0.077	0.138	0.085	0.183	0.463	1.115	2.719	3.331	1.730	0.440	0.156	0.142	0.250	0.428	0.778	2.183	6.243	13.58
310.0	214.9	321.6	250.3	57.34	26.83	28.58	35.68	46.14	60.00	75.37	117.2	310.3	522.8	291.2	70.26	99.56	426.4	 1386	 1887	762.3	25.92	3.199	1.070	0.352	0.327	0.076	0.264	0.046	-0.013	-0.022	0.097	-0.080	0.041	0.091	0.115	0.103	0.107	0.088	0.148	0.081	0.213	0.113	0.245	0.287	0.483	0.680	0.790	1.057	0.621	0.229	0.046	0.011	0.044	-0.053	0.027	0.085	0.000	0.065	0.088	0.175	0.242	0.159	0.381	0.372	0.505	1.085	1.778	2.564	2.601	1.726	0.723	0.282	0.223	0.204	0.469	1.408	3.362
315.0	 1773	 1580	 1140	544.0	173.5	185.2	241.5	278.4	288.3	281.0	265.5	811.2	811.8	956.9	519.9	119.3	167.7	377.4	841.2	 2191	521.4	39.32	3.730	1.339	0.457	0.344	0.403	0.218	0.166	-0.105	0.160	-0.040	0.041	0.097	0.314	0.433	0.679	0.833	0.997	1.266	1.757	2.222	2.997	4.917	6.690	8.798	10.64	12.22	7.201	2.381	0.732	0.623	0.434	0.390	0.653	0.881	1.024	1.226	1.590	2.045	2.145	2.777	2.762	3.114	3.186	3.061	3.631	3.468	3.557	4.881	4.589	3.193	1.494	0.802	0.715	0.692	1.207
320.0	9999.9	9999.9	 8886	 2932	618.5	547.9	 1085	 1510	 2026	 2108	 1951	 3384	 2937	 2566	 1855	702.3	386.2	407.5	492.4	 1340	 2356	447.6	22.82	3.172	1.062	0.477	0.484	0.441	0.328	0.090	0.296	0.166	0.380	0.606	1.277	2.057	2.835	3.688	4.620	6.243	7.898	11.20	15.19	22.18	27.71	30.03	52.39	57.66	24.74	11.17	3.553	2.784	2.197	2.471	3.014	3.812	4.979	6.014	7.338	8.535	9.998	12.11	12.74	13.36	14.11	14.51	14.23	13.19	12.02	12.36	12.75	10.61	7.586	4.128	2.829	2.134	2.035
325.0	9999.9	9999.9	9999.9	 4950	 1217	 1218	 1783	 2519	 3418	 4317	 4906	 5561	 4788	 3882	 2797	 1361	625.2	572.7	541.3	700.0	 1868	 2063	317.6	6.563	1.882	1.055	0.882	0.764	0.235	0.371	0.455	0.393	0.576	0.898	2.139	3.357	5.017	6.574	8.665	11.40	14.90	19.53	26.11	37.20	52.45	69.77	86.99	96.66	55.42	19.04	6.605	4.554	3.669	4.633	5.134	6.466	8.027	10.24	12.13	14.20	16.40	20.16	21.17	22.77	23.56	24.21	23.44	21.76	19.35	19.32	17.97	15.16	11.91	8.407	4.817	3.701	3.175
330.0	9999.9	9999.9	9999.9	 5116	 1258	 1268	 1802	 2545	 3443	 4461	 5146	 5618	 4819	 3853	 2565	 1424	794.0	591.0	517.6	496.5	870.2	 1325	 1609	632.7	20.63	1.704	1.106	0.793	0.541	0.541	0.559	0.318	0.454	1.204	2.334	3.674	5.026	6.853	9.007	11.90	14.94	19.99	27.18	37.97	54.72	73.75	88.61	100.6	58.51	19.47	6.978	4.459	3.857	4.420	5.237	6.569	8.135	9.943	12.00	14.46	17.24	20.01	21.64	22.71	23.83	24.50	23.97	21.83	20.21	18.73	17.46	13.85	10.55	8.319	6.532	4.903	3.941
335.0	9999.9	9999.9	9999.9	 6016	 1482	 1505	 2125	 2980	 4056	 5261	 6062	 6579	 5621	 4476	 2873	 1411	986.4	796.4	602.2	517.1	691.2	490.3	725.5	 1874	423.4	25.37	1.732	1.193	0.753	0.722	0.761	0.502	0.685	1.412	2.764	3.974	5.751	7.884	10.62	13.87	17.15	23.21	31.62	45.51	64.47	87.51	104.7	117.7	68.60	23.15	7.721	5.452	4.473	4.964	5.903	7.693	9.192	11.59	14.14	17.04	19.81	23.38	25.84	26.47	27.94	28.68	27.97	25.54	23.47	22.13	20.25	16.43	11.57	8.307	5.875	5.486	5.953
340.0	9999.9	9999.9	9999.9	 5854	 1445	 1479	 2073	 2926	 3975	 5166	 5951	 6420	 5512	 4380	 2787	 1322	830.4	916.2	656.7	499.1	616.0	288.4	197.4	995.6	 1838	358.1	14.33	1.302	1.350	0.932	0.608	0.511	0.630	1.384	2.699	4.095	5.588	8.059	10.24	13.23	17.14	23.02	31.94	44.30	63.63	86.19	101.9	117.4	68.40	22.75	8.073	5.343	4.348	5.047	6.054	7.506	9.103	11.32	13.55	16.44	19.66	22.66	25.32	25.90	27.04	28.59	27.38	25.20	23.51	21.84	19.60	16.35	11.37	8.058	5.274	4.770	5.089
345.0	9999.9	9999.9	9999.9	 4834	 1184	 1203	 1665	 2363	 3222	 4191	 4839	 5190	 4448	 3538	 2257	 1056	607.1	732.5	673.9	426.5	490.8	201.8	64.49	263.0	 1231	 1676	273.6	4.438	1.039	0.930	0.565	0.432	0.757	1.189	2.231	3.199	4.866	6.677	8.733	11.25	14.23	19.18	26.37	36.49	52.26	69.54	83.34	94.97	55.81	18.57	6.255	4.172	3.460	4.032	4.605	6.179	7.543	9.341	11.52	13.45	16.15	18.21	20.32	20.91	22.16	23.03	21.80	21.11	18.10	18.08	15.97	12.59	9.207	6.474	4.105	3.860	3.481
350.0	9999.9	9999.9	9999.9	 3766	940.6	946.3	 1318	 1855	 2528	 3262	 3751	 4024	 3461	 2761	 1748	814.8	449.9	474.9	545.0	458.6	411.1	150.9	30.20	66.08	322.4	 1002	 1374	563.0	19.12	1.157	0.763	0.565	0.554	0.973	1.896	2.512	3.808	5.272	6.884	8.890	11.33	14.96	20.29	28.92	41.59	55.20	65.95	73.98	43.86	14.49	5.118	3.311	2.665	3.199	3.630	4.967	5.982	7.220	8.865	10.25	12.62	14.28	15.70	16.35	17.43	17.50	17.09	15.72	13.97	13.86	12.35	9.878	7.010	4.790	3.329	2.840	2.288
355.0	9999.9	9999.9	9999.9	 2969	742.0	743.7	 1030	 1440	 1962	 2531	 2894	 3122	 2682	 2130	 1349	628.6	341.1	338.7	341.8	402.8	435.7	131.7	19.53	21.05	77.41	232.1	601.5	 1591	382.4	23.79	1.130	0.681	0.685	0.972	1.534	2.070	3.151	4.417	5.355	6.998	8.603	11.58	15.54	22.55	32.67	42.98	51.95	58.62	33.89	10.98	3.739	2.551	2.142	2.560	2.723	3.833	4.396	5.704	7.060	8.116	9.489	11.08	12.16	12.67	13.60	13.73	13.49	12.11	11.05	10.54	9.182	7.703	5.149	3.470	2.673	2.229	1.661
360.0	 8848	9999.9	 9870	 2191	531.5	542.8	757.4	 1064	 1461	 1870	 2146	 2295	 1967	 1571	996.5	469.5	253.3	242.3	227.0	254.1	403.5	162.3	19.96	10.74	22.98	57.35	149.2	842.9	 1637	334.9	13.96	1.004	0.531	0.876	1.041	1.574	2.099	3.314	3.967	5.297	6.368	8.484	12.11	16.98	23.94	32.01	38.01	42.61	25.06	7.962	2.867	1.848	1.629	1.765	2.108	2.832	3.461	4.107	5.050	5.820	7.146	8.172	8.932	9.277	9.873	10.22	9.724	9.066	8.571	7.852	6.996	5.910	3.887	2.666	1.923	1.498	1.270
365.0	 7022	 9768	 7912	 1624	392.7	409.1	557.1	769.0	 1086	 1376	 1578	 1682	 1444	 1158	736.5	344.5	186.2	180.4	163.4	154.9	278.0	220.4	47.74	9.007	10.14	18.06	38.56	218.8	 1083	 1605	266.5	4.147	1.171	0.875	0.997	1.495	1.692	2.296	3.077	3.801	5.022	6.349	9.001	12.06	17.71	23.73	28.19	30.91	18.43	6.010	2.191	1.328	1.024	1.280	1.485	2.019	2.397	3.155	3.671	4.129	5.407	5.821	6.588	6.778	7.094	7.444	7.002	6.349	5.756	5.600	5.166	3.979	3.083	1.966	1.436	1.146	0.793
370.0	 5176	 7474	 5747	 1152	290.7	297.9	400.7	547.2	756.5	965.5	 1111	 1186	 1016	821.0	515.7	242.9	134.6	128.9	117.1	104.3	153.8	158.8	130.7	35.07	8.406	8.493	12.83	53.07	278.2	935.3	 1362	558.6	17.26	1.108	1.044	1.199	1.298	1.728	2.276	2.816	3.598	4.622	6.172	8.755	12.39	16.31	20.02	22.35	13.05	4.230	1.453	0.952	0.773	0.926	1.045	1.383	1.706	2.085	2.619	2.785	3.522	4.020	4.483	4.671	5.075	5.023	4.863	4.501	4.112	3.855	3.420	2.720	2.076	1.392	0.950	0.777	0.600
375.0	 3387	 5117	 3796	762.1	195.3	193.6	272.4	361.9	494.6	635.2	731.6	782.1	670.4	546.1	339.8	165.7	94.13	89.47	80.08	71.32	90.69	65.68	109.7	122.3	29.66	6.201	6.773	15.94	65.58	215.3	574.5	 1536	332.9	20.96	1.085	1.083	1.026	1.414	1.625	2.060	2.491	2.961	4.295	5.827	8.349	11.02	13.10	14.77	8.615	2.847	0.897	0.670	0.498	0.565	0.907	0.935	1.172	1.281	1.622	1.858	2.339	2.503	2.799	3.137	3.280	3.293	3.144	3.019	2.689	2.528	2.301	1.581	1.253	0.838	0.429	0.538	0.270
380.0	 2392	 3549	 2636	519.1	139.2	130.0	191.9	253.4	348.6	437.6	491.7	538.3	466.4	372.1	236.0	117.6	67.19	63.97	57.80	51.05	61.96	34.86	50.21	134.8	84.23	12.44	5.078	6.732	18.28	51.44	139.7	792.8	 1487	292.8	12.10	0.900	0.980	1.093	0.984	1.327	1.582	2.132	3.084	4.012	5.837	7.608	9.050	10.51	5.816	2.009	0.643	0.471	0.318	0.326	0.478	0.644	0.748	0.963	1.136	1.306	1.545	1.717	1.857	2.108	1.992	2.344	2.041	1.928	1.985	1.744	1.572	1.137	0.870	0.559	0.316	0.255	0.200
385.0	 1703	 2493	 1877	377.8	100.3	93.42	135.2	187.3	244.1	308.9	351.4	385.3	332.4	265.4	172.5	83.61	51.27	48.85	44.55	39.47	46.66	24.06	20.75	76.38	125.9	42.03	5.733	4.039	7.243	14.55	34.52	203.2	970.9	 1405	224.0	3.673	1.025	0.975	0.791	1.118	0.973	1.703	2.090	2.677	4.282	5.477	6.606	6.925	4.196	1.416	0.488	0.248	0.080	0.203	0.265	0.362	0.516	0.586	0.713	0.955	0.946	1.153	1.346	1.410	1.531	1.655	1.509	1.426	1.232	1.219	1.124	0.803	0.618	0.251	0.192	0.129	0.176
390.0	 1120	 1658	 1245	258.2	71.26	66.79	91.68	128.3	161.0	205.7	232.6	255.8	220.1	178.0	116.0	58.08	37.11	35.88	33.54	29.38	34.23	18.47	11.90	27.24	76.82	95.95	33.13	5.734	3.920	6.089	10.52	48.37	247.8	804.7	 1154	467.8	14.26	1.154	0.889	0.879	0.853	1.013	1.427	1.902	2.759	3.684	3.994	4.556	2.785	0.873	0.296	0.250	0.127	0.155	0.184	0.225	0.274	0.387	0.457	0.572	0.590	0.660	0.837	0.923	0.997	1.032	0.846	0.779	0.839	0.778	0.686	0.419	0.439	0.173	0.127	-0.020	0.033
395.0	713.1	 1041	776.8	165.3	45.13	43.82	60.55	81.96	101.9	127.6	151.3	162.8	136.4	112.4	73.68	39.18	26.28	25.58	25.37	21.80	24.59	14.63	9.490	11.98	24.98	67.37	92.68	28.16	3.950	3.519	4.829	13.08	57.58	183.7	496.4	 1309	675.7	17.56	0.924	0.779	0.700	0.652	0.940	1.252	1.721	2.457	2.473	3.032	1.740	0.658	0.215	0.082	0.040	0.064	0.003	0.194	0.186	0.105	0.393	0.317	0.361	0.362	0.458	0.405	0.625	0.757	0.490	0.650	0.472	0.375	0.395	0.284	0.195	0.044	0.044	0.114	-0.011
400.0	478.7	709.7	529.3	110.6	39.03	33.70	45.35	49.18	73.62	87.21	102.7	109.8	97.24	79.95	52.90	29.22	20.62	21.01	19.20	17.90	19.34	12.38	8.458	8.307	10.55	28.43	85.57	54.47	12.63	2.643	3.004	4.984	14.65	43.55	120.1	685.5	 1381	246.6	9.288	1.049	0.560	0.666	0.842	0.881	1.141	1.717	1.632	2.042	1.143	0.430	0.120	0.022	0.023	-0.024	0.061	0.103	0.063	0.107	0.335	0.243	0.241	0.139	0.290	0.216	0.458	0.389	0.290	0.312	0.189	0.188	0.389	0.077	0.027	-0.016	0.103	0.001	-0.141
