Sample:	'1
File name:	Default_20230713_145757.FD3
Run date:	'14:51:36, 07/13/2023
Operator:	user
Comment:	'

Instrument
Model:	F-2700 FL Spectrophotometer
Serial number:	2190-003
ROM Version:	4J14000 07

Instrument parameters
Measurement type:	3-D scan
Data mode:	Fluorescence
EX  Start WL:	220.0 nm
EX  End WL:	600.0 nm
EX Sampling interval:	5.0 nm
EM  Start WL:	230.0 nm
EM  End WL:	650.0 nm
EM Sampling interval:	5.0 nm
Scan speed:	12000 nm/min
EX Slit:	5.0 nm
EM Slit:	5.0 nm
PMT Voltage:	700 V
Response:	Auto 
Corrected spectra:	Off
Contour interval:	50.000

Peak integration
Integration method:	Rectangular
Sensitivity:	1
Threshold:	1.000

Peaks
No.	ApexEX/EM(nm)	Height(Data)
1	230.0/300.0	4.770
2	245.0/530.0	0.046
3	250.0/365.0	 9145
4	250.0/545.0	6.298
5	255.0/280.0	269.6
6	255.0/555.0	15.44
7	260.0/285.0	361.3
8	260.0/570.0	21.33
9	265.0/290.0	396.7
10	265.0/580.0	30.37
11	270.0/295.0	586.4
12	270.0/590.0	33.48
13	270.0/640.0	-12.73
14	275.0/305.0	717.1
15	275.0/600.0	33.76
16	280.0/310.0	638.5
17	280.0/615.0	28.09
18	285.0/260.0	-15.26
19	285.0/315.0	570.6
20	285.0/490.0	7.754
21	285.0/630.0	13.02
22	290.0/320.0	495.9
23	290.0/520.0	-1.725
24	290.0/640.0	10.80
25	295.0/330.0	382.4
26	300.0/335.0	418.2
27	305.0/340.0	483.8
28	310.0/345.0	438.9
29	315.0/290.0	-5.678
30	315.0/355.0	341.8
31	315.0/595.0	-6.298
32	320.0/240.0	-6.476
33	320.0/360.0	322.1
34	325.0/365.0	247.7
35	330.0/280.0	-5.959
36	330.0/370.0	177.9
37	335.0/305.0	-4.552
38	335.0/375.0	174.6
39	335.0/625.0	-5.151
40	335.0/640.0	-4.920
41	340.0/385.0	173.9
42	345.0/390.0	139.0
43	345.0/575.0	-3.444
44	350.0/395.0	134.9
45	350.0/460.0	19.24
46	355.0/405.0	126.6
47	355.0/545.0	-0.603
48	355.0/615.0	-3.939
49	360.0/410.0	106.2
50	365.0/280.0	-3.768
51	365.0/415.0	103.3
52	365.0/535.0	0.505
53	370.0/305.0	-2.684
54	370.0/425.0	90.09
55	375.0/430.0	73.54
56	380.0/435.0	72.31
57	385.0/440.0	59.88
58	390.0/450.0	48.31
59	390.0/545.0	-0.762
60	395.0/455.0	44.57
61	400.0/460.0	38.63
62	405.0/470.0	30.67
63	410.0/475.0	24.53
64	415.0/480.0	22.11
65	420.0/490.0	18.72
66	425.0/495.0	15.99
67	430.0/505.0	13.60
68	435.0/510.0	10.76
69	440.0/515.0	9.867
70	445.0/525.0	8.488
71	450.0/530.0	6.410
72	455.0/535.0	6.120
73	460.0/545.0	4.120
74	465.0/555.0	3.078
75	470.0/560.0	2.282
76	480.0/575.0	0.022
77	485.0/585.0	-0.364
78	490.0/590.0	-0.831
79	495.0/365.0	23.92
80	495.0/600.0	-1.120
81	500.0/360.0	24.22
82	500.0/605.0	-1.095
83	510.0/280.0	-0.201
84	515.0/285.0	-0.863
85	530.0/290.0	-0.822
86	535.0/295.0	-0.052
87	545.0/300.0	-0.398
88	550.0/305.0	0.191
89	560.0/310.0	-0.691
90	570.0/315.0	-0.576
91	575.0/320.0	-0.544
92	580.0/360.0	-0.466

Data points
	220.0	225.0	230.0	235.0	240.0	245.0	250.0	255.0	260.0	265.0	270.0	275.0	280.0	285.0	290.0	295.0	300.0	305.0	310.0	315.0	320.0	325.0	330.0	335.0	340.0	345.0	350.0	355.0	360.0	365.0	370.0	375.0	380.0	385.0	390.0	395.0	400.0	405.0	410.0	415.0	420.0	425.0	430.0	435.0	440.0	445.0	450.0	455.0	460.0	465.0	470.0	475.0	480.0	485.0	490.0	495.0	500.0	505.0	510.0	515.0	520.0	525.0	530.0	535.0	540.0	545.0	550.0	555.0	560.0	565.0	570.0	575.0	580.0	585.0	590.0	595.0	600.0
230.0	-148.9	-51.44	 1609	 1682	69.02	-49.69	-53.40	-44.14	-41.31	-34.49	-32.42	-27.25	-23.49	-19.98	-18.34	-12.71	-11.59	-10.82	-10.81	-9.041	-7.750	-7.163	-6.897	-6.769	-5.421	-5.982	-5.350	-4.858	-5.020	-5.143	-4.801	-4.659	-4.563	-3.675	-3.435	-3.098	-3.268	-3.256	-2.649	-2.982	-2.654	-2.887	-2.625	-2.737	-2.748	-2.363	-2.154	-0.992	1.392	1.423	-0.553	-2.183	-2.133	-2.291	-2.096	-2.356	-2.441	-2.260	-2.369	-2.240	-2.104	-2.265	-2.215	-2.220	-2.404	-2.444	-2.329	-2.496	-2.444	-2.427	-2.381	-2.376	-2.335	-2.258	-2.429	-2.550	-2.801
235.0	-138.6	-100.0	474.4	 2315	 1849	126.2	-55.87	-41.96	-41.60	-34.87	-29.18	-26.57	-26.31	-19.65	-14.90	-14.06	-12.26	-9.992	-10.07	-9.058	-6.916	-6.883	-7.441	-6.386	-5.343	-5.694	-5.052	-4.330	-4.774	-4.204	-5.496	-3.566	-4.023	-4.389	-3.334	-3.603	-2.611	-3.012	-3.079	-2.948	-2.839	-2.825	-2.894	-2.552	-2.313	-2.168	-2.288	-1.759	-1.351	0.385	1.609	2.012	-0.362	-1.832	-2.345	-2.151	-2.202	-2.608	-2.281	-2.527	-2.199	-2.299	-2.099	-2.396	-2.123	-2.590	-2.014	-2.224	-2.292	-2.790	-2.910	-2.527	-2.123	-2.447	-2.711	-2.292	-2.221
240.0	-133.9	-120.0	8.447	943.3	 3131	 1724	47.58	-36.94	-37.34	-33.03	-32.08	-26.85	-24.55	-14.98	-15.39	-15.18	-11.66	-10.61	-9.931	-9.385	-6.476	-7.821	-7.175	-6.041	-5.864	-5.089	-4.776	-4.356	-5.741	-5.349	-5.176	-4.803	-3.549	-4.363	-3.579	-3.321	-3.360	-3.188	-2.828	-2.941	-2.786	-2.805	-2.951	-2.541	-2.498	-2.435	-2.173	-2.412	-1.933	-1.315	0.085	2.280	3.883	1.779	-1.117	-1.955	-2.229	-2.333	-2.421	-2.271	-2.427	-2.334	-2.234	-2.793	-2.057	-2.636	-2.338	-1.956	-2.635	-2.558	-2.761	-2.557	-2.370	-2.591	-2.251	-2.555	-2.280
245.0	-171.8	-101.1	-58.52	172.0	 1626	 3754	 1404	3.746	-35.81	-32.05	-35.80	-23.52	-25.92	-17.24	-16.91	-16.00	-15.07	-10.60	-9.598	-9.201	-7.349	-7.114	-5.979	-5.790	-6.609	-5.902	-4.749	-5.085	-5.376	-4.615	-5.048	-4.305	-4.119	-4.109	-3.681	-3.719	-3.187	-3.216	-3.061	-3.061	-3.127	-2.769	-2.869	-3.071	-2.761	-2.444	-2.094	-1.973	-2.131	-1.431	-1.433	-0.849	1.902	4.810	4.238	1.473	-1.737	-2.315	-2.089	-2.348	-2.660	-2.262	-2.579	-2.692	-2.397	-2.765	-2.155	-2.324	-2.603	-1.943	-2.596	-2.217	-1.805	-2.397	-2.264	-2.541	-2.205
250.0	-160.7	-122.9	-64.08	21.69	343.1	 1812	 3905	 2736	302.4	-31.09	-27.88	-24.36	-23.82	-19.11	-16.99	-15.54	-10.94	-9.773	-8.422	-8.545	-7.398	-5.970	-6.082	-6.039	-5.917	-6.040	-5.024	-5.474	-4.955	-5.410	-4.720	-4.910	-4.291	-3.809	-3.701	-3.494	-3.786	-3.165	-3.096	-2.564	-3.088	-2.566	-3.064	-2.336	-2.529	-2.391	-2.139	-2.286	-1.944	-1.689	-1.493	-1.877	-0.896	-0.123	1.860	4.365	4.344	2.521	0.358	-2.238	-2.553	-2.413	-2.627	-2.741	-2.567	-2.572	-2.228	-2.331	-2.625	-2.467	-2.783	-2.499	-2.086	-2.486	-2.427	-2.647	-2.357
255.0	-157.7	-149.3	-81.67	5.898	88.42	358.4	 1351	 5276	 4136	270.4	-21.79	-28.01	-23.17	-16.77	-17.63	-15.66	-12.25	-8.936	-8.148	-8.442	-7.143	-6.788	-6.787	-5.538	-6.096	-6.609	-5.991	-5.296	-5.299	-4.847	-4.794	-4.998	-4.471	-3.587	-4.001	-4.116	-3.351	-3.615	-3.183	-2.922	-2.810	-2.917	-2.877	-2.689	-2.386	-2.723	-2.208	-2.437	-2.110	-1.804	-1.278	-1.825	-1.672	-1.854	-1.224	-0.552	0.076	2.981	6.809	3.415	0.186	-2.407	-2.575	-2.377	-2.462	-2.209	-2.240	-2.488	-2.504	-2.605	-2.335	-2.471	-1.883	-2.498	-2.808	-2.687	-2.506
260.0	-153.8	-131.4	-102.7	-47.06	69.42	87.69	288.8	 2374	 6686	 1559	76.12	-23.55	-20.94	-15.26	-16.96	-13.75	-10.91	-9.299	-9.220	-8.341	-7.928	-7.174	-6.491	-6.296	-5.909	-5.363	-4.980	-5.018	-5.008	-4.207	-4.633	-4.196	-4.360	-3.220	-4.154	-3.987	-3.522	-3.635	-2.864	-3.461	-3.171	-2.947	-2.757	-2.701	-2.636	-2.779	-2.126	-2.471	-2.216	-1.780	-1.422	-1.884	-1.959	-1.833	-1.634	-1.870	-2.034	-0.550	2.095	5.301	7.671	3.451	-1.652	-2.299	-2.617	-2.241	-2.377	-2.246	-2.362	-2.482	-2.086	-2.171	-2.495	-2.276	-2.712	-2.915	-2.506
265.0	-148.2	-123.3	-96.99	-91.95	26.70	113.6	57.81	539.3	 3489	 5760	 1162	2.575	-23.12	-17.14	-16.28	-12.38	-12.32	-8.318	-8.566	-7.322	-8.005	-6.430	-6.037	-5.930	-6.300	-5.106	-5.316	-5.737	-5.051	-4.832	-4.678	-3.625	-3.693	-3.495	-4.263	-3.397	-3.454	-3.262	-3.308	-3.171	-2.656	-3.117	-2.491	-2.521	-2.737	-2.550	-2.057	-2.271	-1.903	-1.725	-1.957	-2.051	-1.639	-1.917	-1.576	-2.020	-2.088	-1.539	-1.315	0.365	3.209	7.820	5.618	1.349	-1.858	-2.222	-2.351	-2.193	-2.122	-2.664	-1.803	-1.934	-2.757	-1.984	-2.773	-2.541	-2.797
270.0	-136.6	-126.9	-112.1	-102.6	-48.72	59.25	154.2	144.8	822.1	 2652	 3942	 2135	184.9	-16.27	-15.67	-11.48	-9.610	-9.848	-9.929	-7.572	-7.424	-6.639	-7.389	-6.323	-6.513	-5.399	-5.120	-5.277	-4.064	-4.900	-4.855	-4.113	-4.530	-4.198	-3.978	-3.420	-3.408	-3.370	-3.366	-3.340	-2.755	-2.819	-2.625	-2.695	-2.589	-2.345	-2.152	-2.332	-1.897	-1.711	-1.938	-2.151	-1.903	-1.804	-1.380	-1.300	-1.511	-2.123	-2.027	-1.813	-1.072	0.827	2.560	4.600	6.165	4.347	0.732	-1.797	-2.280	-2.531	-2.488	-2.310	-2.497	-2.187	-2.356	-2.432	-2.439
275.0	-161.2	-132.2	-129.4	-90.42	-71.83	-26.43	121.9	255.6	207.8	590.4	 1311	 3797	 2706	141.9	-13.58	-9.685	-9.985	-8.822	-9.456	-7.830	-8.482	-5.797	-6.594	-5.703	-7.081	-5.869	-5.287	-5.272	-5.614	-4.880	-5.149	-4.894	-4.694	-3.623	-3.525	-3.262	-3.481	-2.554	-2.937	-2.921	-2.662	-2.428	-3.098	-2.986	-2.462	-2.642	-2.256	-2.330	-1.911	-1.761	-1.568	-1.890	-2.158	-1.940	-1.930	-1.631	-1.560	-1.561	-1.330	-2.292	-1.738	-1.837	-0.835	-0.990	0.704	4.978	10.34	6.897	1.884	-1.873	-2.736	-2.360	-2.381	-2.336	-2.793	-2.914	-2.974
280.0	-132.4	-130.1	-114.1	-93.60	-61.35	-46.98	11.52	269.6	240.9	144.3	303.8	 1561	 4169	880.1	44.20	-10.09	-9.476	-7.932	-8.230	-8.532	-8.401	-6.243	-5.959	-6.375	-6.980	-6.066	-5.141	-5.752	-5.054	-3.768	-5.570	-4.612	-4.455	-3.935	-3.801	-3.178	-3.525	-3.189	-2.493	-3.271	-2.704	-2.948	-3.009	-3.109	-2.126	-2.616	-2.026	-1.934	-2.106	-1.979	-1.753	-2.331	-2.569	-1.909	-1.929	-2.218	-2.167	-1.634	-0.201	-1.284	-1.892	-1.906	-2.036	-2.232	-1.702	0.052	3.161	7.922	10.35	5.384	-0.978	-2.565	-2.621	-2.599	-2.897	-2.501	-2.522
285.0	-142.9	-118.0	-111.0	-96.15	-62.63	-52.41	-20.77	110.9	361.3	152.2	87.55	410.3	 2062	 3897	646.2	3.055	-9.117	-9.199	-7.299	-7.412	-6.978	-6.192	-7.376	-6.581	-6.034	-6.694	-5.078	-5.192	-5.327	-4.580	-5.214	-4.425	-4.576	-3.867	-4.052	-3.405	-3.335	-3.516	-2.711	-3.066	-3.003	-2.777	-2.968	-3.328	-2.594	-2.670	-1.932	-2.204	-2.246	-1.853	-2.006	-2.472	-2.462	-2.097	-2.113	-2.636	-2.388	-1.922	-1.440	-0.863	-0.960	-1.273	-1.817	-2.155	-2.155	-1.671	-0.699	0.974	5.662	10.75	8.558	2.343	-1.660	-2.445	-1.790	-2.740	-2.308
290.0	-146.5	-96.15	-77.48	-80.74	-62.81	-46.23	-30.24	15.10	190.7	396.7	241.8	173.2	568.8	 1848	 3043	 1612	127.8	-6.833	-8.003	-5.678	-7.652	-6.675	-6.976	-6.165	-5.333	-6.085	-5.067	-4.962	-4.990	-4.495	-5.007	-4.696	-4.445	-3.890	-3.630	-3.331	-2.889	-2.885	-2.896	-3.087	-3.114	-2.936	-3.172	-2.678	-2.565	-2.439	-1.933	-1.927	-1.906	-1.499	-1.753	-2.355	-2.324	-2.224	-1.995	-2.322	-1.863	-2.163	-1.855	-1.675	-1.557	-0.996	-0.822	-1.797	-1.732	-1.531	-1.868	-1.257	-0.186	1.650	4.452	6.559	7.404	4.652	0.717	-2.014	-2.336
295.0	-125.0	-87.91	-49.64	-63.55	-49.92	-50.97	-29.05	12.81	68.79	241.6	586.4	297.4	242.8	493.3	 1014	 3125	 2179	102.7	-7.490	-7.851	-6.707	-7.447	-6.336	-5.806	-5.305	-6.740	-5.664	-4.563	-5.030	-5.368	-4.817	-4.315	-4.262	-3.978	-3.436	-3.113	-2.881	-3.148	-2.797	-3.152	-2.203	-2.822	-2.820	-3.308	-2.831	-2.857	-1.559	-2.310	-2.147	-1.570	-1.519	-2.423	-2.082	-2.320	-1.695	-2.064	-2.182	-2.476	-1.838	-1.632	-1.535	-1.905	-1.240	-0.052	-0.544	-1.526	-2.136	-1.538	-1.880	-1.201	-0.478	-0.471	0.642	6.097	10.15	6.651	0.062
300.0	-126.6	-47.46	4.770	-44.63	-55.57	-45.47	-18.19	7.889	41.79	137.6	477.3	630.2	252.3	197.0	267.5	 1295	 3562	500.5	37.37	-5.850	-4.646	-6.792	-5.748	-4.723	-5.575	-6.425	-5.758	-5.626	-6.017	-4.527	-4.164	-4.908	-4.076	-3.988	-3.401	-3.300	-3.325	-3.149	-3.045	-3.547	-2.855	-3.611	-2.438	-2.576	-2.596	-2.713	-2.194	-2.070	-1.412	-1.170	-1.606	-2.261	-1.857	-2.014	-2.128	-1.701	-2.427	-2.043	-2.032	-2.021	-1.894	-2.203	-1.843	-1.030	-0.436	-0.398	-1.405	-1.475	-1.609	-1.973	-1.842	-1.936	-1.428	0.149	2.947	8.903	11.24
305.0	-111.4	-55.21	-34.28	-26.62	-46.39	-51.13	-16.85	5.722	45.46	106.2	279.3	717.1	478.0	156.2	99.12	318.2	 1774	 3164	402.9	6.432	-4.808	-6.574	-5.098	-4.552	-5.644	-6.054	-4.955	-5.292	-4.896	-4.970	-2.684	-4.264	-5.041	-3.957	-3.432	-2.754	-3.416	-2.966	-2.958	-2.731	-2.656	-3.201	-2.531	-2.324	-2.673	-2.779	-2.348	-2.231	-1.927	-1.438	-1.687	-2.020	-1.721	-1.456	-2.096	-1.772	-1.939	-1.915	-2.338	-1.930	-1.879	-2.102	-1.437	-1.673	-1.235	-0.437	0.191	-0.677	-1.204	-2.200	-1.993	-2.030	-2.342	-1.918	-1.057	1.283	6.723
310.0	-110.8	-71.97	-14.67	-17.16	-34.89	-26.42	4.505	30.21	59.05	109.4	206.1	398.4	638.5	370.2	81.99	86.84	436.6	 1521	 2447	 1327	94.34	-3.728	-4.875	-5.817	-5.763	-4.552	-5.260	-4.742	-5.105	-5.488	-3.919	-3.984	-4.289	-3.869	-3.637	-3.339	-3.347	-3.301	-2.977	-2.875	-2.401	-2.840	-2.815	-2.810	-2.541	-2.378	-1.945	-2.147	-1.965	-1.677	-1.696	-1.695	-2.024	-1.732	-1.888	-1.923	-2.096	-1.600	-1.750	-2.249	-2.035	-2.191	-1.589	-1.830	-1.425	-1.496	-0.913	-1.048	-0.691	-1.385	-1.596	-2.191	-2.306	-2.208	-2.028	-1.442	-0.250
315.0	-81.98	-52.55	15.75	24.15	24.17	54.52	38.03	76.49	102.8	139.3	199.4	240.5	340.5	570.6	256.8	47.43	112.5	351.2	828.7	 2799	 1787	96.93	-2.922	-5.163	-5.265	-4.005	-5.341	-4.965	-5.689	-4.713	-4.537	-3.802	-4.248	-2.871	-3.617	-3.732	-2.379	-3.280	-3.058	-2.931	-2.880	-2.603	-3.155	-3.217	-2.279	-2.450	-1.760	-1.746	-1.897	-1.294	-1.501	-1.736	-1.979	-1.936	-1.768	-1.926	-1.700	-1.772	-1.883	-2.022	-2.240	-1.615	-1.975	-1.924	-1.831	-1.682	-1.782	-1.805	-1.550	-0.760	-0.576	-1.666	-2.101	-2.103	-2.695	-2.534	-2.015
320.0	-96.65	0.632	64.28	125.9	166.4	226.3	202.8	217.1	213.1	213.7	213.5	196.1	224.4	382.6	495.9	130.5	48.60	94.29	202.9	 1193	 3002	 1182	32.90	-4.336	-5.321	-4.623	-4.890	-4.820	-4.208	-5.117	-3.986	-4.452	-4.121	-3.517	-3.516	-3.414	-2.584	-3.480	-3.504	-3.082	-3.267	-2.933	-2.736	-3.021	-2.459	-2.089	-2.079	-1.698	-1.798	-1.601	-1.624	-1.483	-1.529	-1.371	-0.903	-0.993	-0.998	-1.257	-1.305	-1.645	-1.728	-0.930	-1.480	-1.359	-1.772	-1.746	-2.269	-2.197	-1.857	-1.706	-0.681	-0.544	-1.338	-1.737	-2.361	-2.516	-2.781
325.0	-44.75	98.06	208.3	362.3	435.0	554.5	597.6	527.6	427.7	380.9	297.4	204.5	200.2	226.0	444.6	337.2	71.83	45.79	67.72	301.5	 1559	 2717	294.7	6.846	-4.636	-4.398	-4.838	-5.272	-4.945	-4.746	-4.000	-3.755	-4.256	-3.705	-2.761	-3.449	-2.689	-2.843	-3.171	-3.138	-2.961	-2.489	-2.694	-2.650	-2.614	-2.053	-1.622	-1.544	-1.872	-1.387	-0.804	-0.713	-0.732	-0.309	-0.116	-0.338	-0.368	-0.317	-0.515	-0.767	-1.227	-0.731	-1.061	-1.526	-1.471	-1.739	-2.100	-2.330	-2.244	-1.875	-1.763	-0.806	-1.039	-0.955	-1.310	-2.138	-2.595
330.0	102.5	367.8	633.2	982.5	 1288	 1612	 1648	 1427	 1105	893.8	532.5	277.9	223.9	198.6	246.2	382.4	298.4	105.9	63.90	103.8	394.9	 1300	 1979	983.5	72.50	-3.550	-3.655	-5.337	-4.300	-4.789	-4.021	-4.561	-4.295	-4.178	-3.268	-3.519	-3.074	-2.970	-3.169	-3.130	-2.479	-2.790	-2.682	-2.283	-1.901	-2.065	-1.141	-1.166	-0.685	-0.101	0.639	1.191	1.329	2.173	2.825	2.121	2.748	2.332	2.217	1.233	1.161	0.761	-0.046	-0.678	-1.351	-1.114	-1.644	-1.414	-1.685	-1.709	-1.820	-1.628	-1.365	-1.038	-0.992	-1.317	-2.093
335.0	302.7	779.2	 1323	 1987	 2557	 3044	 3276	 2742	 1978	 1627	931.1	411.8	280.3	250.6	224.7	251.8	418.2	335.9	115.7	80.44	123.1	307.2	695.6	 2163	 1395	90.30	-2.994	-4.004	-4.266	-4.542	-4.625	-3.786	-4.142	-3.584	-3.556	-2.607	-3.099	-2.633	-2.880	-2.690	-2.337	-2.409	-2.018	-1.945	-1.044	-0.991	-0.538	0.363	1.019	1.323	2.589	4.366	5.394	7.267	7.279	7.581	6.842	7.527	5.575	4.429	4.188	3.508	2.020	0.795	-0.610	-0.808	-1.153	-1.797	-1.653	-1.753	-1.773	-1.865	-2.114	-1.538	-1.357	-1.718	-1.040
340.0	493.7	 1146	 1986	 2886	 3686	 4482	 4613	 3965	 3027	 2256	 1300	526.1	305.1	278.3	249.5	230.8	318.7	483.8	253.8	97.30	74.41	92.52	168.6	958.4	 2435	 1119	32.68	-3.176	-3.086	-4.181	-4.282	-3.829	-3.680	-2.987	-3.167	-3.000	-3.409	-2.715	-2.794	-2.421	-2.457	-2.123	-1.821	-1.436	-1.134	-0.004	0.815	0.894	2.352	3.315	5.106	7.741	8.963	10.58	11.32	11.36	12.93	10.54	8.679	7.321	5.890	5.063	3.517	1.027	0.019	-0.795	-1.246	-1.345	-1.304	-1.723	-1.581	-1.714	-1.845	-1.673	-1.533	-1.996	-1.602
345.0	676.5	 1401	 2385	 3676	 4848	 5809	 5968	 5188	 3912	 2856	 1621	612.4	357.6	319.1	293.7	267.3	279.5	416.8	438.9	157.3	73.65	49.06	48.28	237.6	 1302	 2636	238.0	7.324	-3.336	-3.725	-3.820	-3.210	-3.561	-3.671	-3.000	-2.695	-2.995	-2.738	-2.908	-2.294	-2.009	-1.900	-1.944	-0.874	-0.189	0.433	2.064	2.418	3.989	5.174	7.379	10.25	11.91	14.64	14.29	15.78	15.98	14.83	11.42	9.703	8.338	6.290	4.556	2.274	1.133	-0.381	-1.096	-1.108	-1.235	-1.563	-1.331	-1.214	-1.867	-1.698	-1.408	-1.708	-1.664
350.0	876.6	 1791	 2956	 4530	 5987	 7191	 7392	 6415	 4832	 3570	 1890	716.1	403.4	372.6	347.9	314.0	306.1	331.6	404.2	336.0	129.4	44.72	25.73	61.15	321.5	 1272	 1675	881.7	72.06	-3.313	-3.468	-3.161	-3.808	-3.178	-3.496	-3.167	-2.554	-2.814	-2.492	-2.135	-2.106	-1.821	-1.681	-0.695	0.413	1.244	2.795	3.725	5.550	6.343	9.389	12.87	14.64	18.39	18.40	19.79	20.77	18.84	15.21	12.53	10.80	9.000	7.014	3.703	1.323	-0.135	-0.964	-0.686	-1.320	-1.132	-1.332	-1.069	-1.671	-1.601	-1.541	-1.390	-1.392
355.0	 1100	 2093	 3481	 5174	 6875	 8309	 8366	 7226	 5522	 4010	 2119	801.8	450.0	395.1	372.0	356.8	339.2	322.6	312.9	341.8	281.1	73.90	23.85	22.37	78.36	291.1	610.9	 2008	 1371	86.82	-2.593	-2.737	-3.575	-3.485	-2.935	-2.732	-2.442	-3.017	-2.181	-2.148	-2.533	-1.990	-1.495	-0.614	0.723	1.870	3.429	4.481	5.756	8.352	11.02	15.36	17.59	20.11	20.89	23.18	23.40	21.07	17.56	15.28	12.59	9.812	8.849	4.407	2.046	0.541	-0.537	-1.131	-1.299	-1.716	-1.247	-1.489	-1.221	-1.054	-1.765	-1.392	-1.717
360.0	 1163	 2255	 3811	 5382	 7167	 8772	 8952	 7542	 5685	 4217	 2172	792.4	483.2	410.8	377.9	360.4	343.0	329.1	286.0	259.0	322.1	163.0	34.68	15.30	26.67	72.36	146.5	900.4	 2407	 1012	35.57	-2.918	-3.618	-3.571	-3.214	-3.057	-2.778	-2.880	-2.536	-2.166	-1.710	-1.806	-1.827	-0.562	1.104	1.566	3.616	4.668	5.888	8.360	11.28	16.68	18.33	22.41	22.81	23.66	24.22	21.67	17.93	15.12	12.82	10.13	8.414	4.889	1.770	0.300	-0.433	-1.164	-1.025	-1.564	-1.447	-1.509	-0.466	-1.066	-1.671	-0.825	-1.199
365.0	 1271	 2253	 3793	 5470	 7312	 8790	 9145	 7611	 5673	 4289	 2219	815.6	453.1	407.7	389.2	370.8	364.3	321.6	284.3	211.6	229.5	247.7	81.08	17.56	14.80	24.48	37.40	221.4	 1271	 2306	216.1	7.510	-2.992	-2.932	-2.830	-3.229	-2.768	-2.993	-2.221	-2.114	-1.430	-1.320	-1.138	-0.795	0.827	1.972	3.869	4.588	6.139	8.073	11.05	16.22	19.22	22.77	23.37	23.92	23.22	21.78	18.47	15.02	12.88	11.23	8.369	4.883	1.832	0.321	0.082	-1.388	-1.203	-0.991	-1.195	-0.962	-0.838	-1.187	-1.830	-1.054	-1.497
370.0	 1087	 2165	 3727	 5343	 6999	 8518	 8771	 7473	 5534	 4155	 2114	781.8	425.3	386.0	375.7	357.6	349.3	323.1	269.7	189.8	141.6	172.4	177.9	68.58	17.69	13.51	15.89	55.39	310.7	 1105	 1578	794.7	61.69	-2.183	-2.826	-2.676	-2.174	-2.535	-2.239	-2.075	-1.971	-1.521	-1.213	-0.319	0.449	2.598	2.941	4.510	5.974	8.645	10.76	15.63	17.81	21.63	22.05	23.57	24.15	20.91	18.43	14.99	12.07	11.02	7.937	4.755	1.877	0.136	-0.535	-1.360	-1.158	-1.052	-1.325	-1.062	-1.203	-1.102	-1.289	-0.955	-1.377
375.0	 1058	 2005	 3527	 5048	 6402	 7785	 7937	 6808	 5176	 3829	 1919	742.8	402.9	348.4	349.9	338.6	320.2	308.5	251.9	175.6	118.4	87.76	140.3	174.6	55.75	15.59	12.73	19.42	73.21	251.2	588.7	 1879	 1141	67.57	-1.980	-2.198	-1.861	-2.477	-2.349	-1.959	-2.233	-1.554	-1.434	-0.691	0.618	2.333	2.415	4.056	6.353	7.923	9.921	14.22	17.01	19.29	20.16	21.20	21.92	18.28	16.30	12.99	10.33	9.916	7.002	4.142	1.238	-0.030	-1.012	-1.284	-1.401	-1.513	-1.264	-1.283	-1.195	-1.675	-1.703	-1.819	-1.518
380.0	964.5	 1966	 3161	 4515	 6031	 7179	 7365	 6270	 4665	 3533	 1779	663.4	376.0	323.6	326.8	304.8	292.9	291.9	229.6	164.6	102.1	66.34	76.35	166.5	126.2	29.27	11.82	9.765	22.16	61.17	137.8	843.8	 2036	829.3	22.39	-2.483	-2.374	-2.240	-2.373	-1.728	-1.955	-1.805	-1.871	-0.942	-0.317	1.325	2.843	3.390	5.306	6.861	9.552	13.03	15.33	18.29	18.20	18.83	18.81	17.69	14.88	11.89	10.23	8.592	6.676	3.776	0.785	-0.575	-1.040	-1.481	-1.497	-1.206	-1.662	-1.270	-1.487	-1.332	-1.404	-1.606	-1.356
385.0	903.5	 1722	 2862	 4051	 5448	 6517	 6682	 5673	 4300	 3149	 1653	593.3	343.8	293.4	301.0	279.9	278.3	268.0	220.6	153.7	92.80	57.20	48.00	99.27	173.9	75.62	15.88	10.63	11.16	17.28	34.62	205.2	 1102	 1919	165.8	3.592	-1.741	-2.224	-2.412	-2.656	-1.842	-1.799	-1.354	-1.097	-0.094	1.465	2.351	3.365	4.315	5.542	8.254	12.26	12.88	16.43	15.35	17.96	16.12	14.56	12.70	10.35	9.544	6.384	5.212	2.556	0.597	-0.486	-1.244	-1.334	-1.062	-1.394	-1.354	-1.376	-1.635	-0.821	-1.035	-1.823	-1.449
