Sample:	'1
File name:	T2025041711 颜家村东南桥.FD3
Run date:	'11:07:07, 04/21/2025
Operator:	Administrator
Comment:	'

Instrument
Model:	F-2700 FL Spectrophotometer
Serial number:	23B8-004
ROM Version:	4J14000 07

Instrument parameters
Measurement type:	3-D scan
Data mode:	Fluorescence
EX  Start WL:	220.0 nm
EX  End WL:	600.0 nm
EX Sampling interval:	5.0 nm
EM  Start WL:	230.0 nm
EM  End WL:	650.0 nm
EM Sampling interval:	5.0 nm
Scan speed:	12000 nm/min
EX Slit:	5.0 nm
EM Slit:	5.0 nm
PMT Voltage:	700 V
Response:	Auto 
Corrected spectra:	Off
Contour interval:	50.000

Peak integration
Integration method:	Rectangular
Sensitivity:	1
Threshold:	1.000

Peaks
No.	ApexEX/EM(nm)	Height(Data)
1	225.0/635.0	34.09
2	230.0/345.0	839.2
3	230.0/500.0	294.4
4	230.0/570.0	51.35
5	235.0/510.0	250.1
6	240.0/265.0	359.5
7	240.0/405.0	612.3
8	240.0/525.0	218.7
9	245.0/270.0	358.5
10	245.0/535.0	188.8
11	250.0/275.0	435.1
12	250.0/545.0	151.8
13	255.0/280.0	560.8
14	255.0/560.0	130.7
15	260.0/285.0	554.7
16	260.0/570.0	104.5
17	265.0/290.0	582.2
18	265.0/585.0	100.7
19	270.0/300.0	854.7
20	270.0/595.0	85.06
21	275.0/305.0	999.6
22	275.0/335.0	583.6
23	275.0/610.0	76.68
24	280.0/310.0	866.4
25	280.0/340.0	583.6
26	280.0/625.0	62.11
27	285.0/315.0	796.1
28	285.0/635.0	45.88
29	290.0/325.0	703.0
30	295.0/330.0	547.5
31	300.0/335.0	502.1
32	305.0/345.0	435.5
33	310.0/350.0	369.5
34	315.0/355.0	348.6
35	320.0/360.0	334.2
36	325.0/370.0	311.4
37	330.0/375.0	305.1
38	335.0/380.0	303.4
39	340.0/390.0	276.4
40	345.0/395.0	261.6
41	350.0/400.0	262.5
42	360.0/415.0	221.2
43	365.0/420.0	216.1
44	415.0/485.0	45.32
45	430.0/505.0	28.17
46	440.0/515.0	20.47
47	445.0/525.0	17.05
48	495.0/270.0	1.927
49	505.0/275.0	2.991
50	510.0/280.0	3.236
51	520.0/285.0	3.603
52	530.0/290.0	3.330
53	540.0/295.0	4.780
54	545.0/300.0	5.032
55	550.0/305.0	4.861
56	560.0/310.0	4.553
57	570.0/315.0	4.645
58	585.0/325.0	4.285

Data points
	220.0	225.0	230.0	235.0	240.0	245.0	250.0	255.0	260.0	265.0	270.0	275.0	280.0	285.0	290.0	295.0	300.0	305.0	310.0	315.0	320.0	325.0	330.0	335.0	340.0	345.0	350.0	355.0	360.0	365.0	370.0	375.0	380.0	385.0	390.0	395.0	400.0	405.0	410.0	415.0	420.0	425.0	430.0	435.0	440.0	445.0	450.0	455.0	460.0	465.0	470.0	475.0	480.0	485.0	490.0	495.0	500.0	505.0	510.0	515.0	520.0	525.0	530.0	535.0	540.0	545.0	550.0	555.0	560.0	565.0	570.0	575.0	580.0	585.0	590.0	595.0	600.0
230.0	43.87	536.9	1691	648.9	35.46	5.427	4.241	3.888	3.222	2.871	2.662	2.192	1.985	1.899	1.534	1.423	1.045	1.033	0.768	0.858	0.736	0.726	0.609	0.580	0.580	0.521	0.495	0.457	0.466	0.439	0.432	0.391	0.403	0.418	0.346	0.341	0.375	0.324	0.319	0.326	0.319	0.468	0.436	0.373	0.288	0.291	0.647	3.039	7.716	5.055	2.059	0.529	0.264	0.205	0.215	0.200	0.231	0.267	0.221	0.225	0.218	0.228	0.230	0.260	0.249	0.192	0.212	0.215	0.206	0.219	0.216	0.217	0.221	0.213	0.209	0.213	0.206
235.0	100.9	169.5	949.3	1859	548.2	59.03	4.133	4.643	3.575	3.389	2.687	2.352	2.078	2.115	1.562	1.295	1.210	0.871	0.886	0.806	0.690	0.773	0.775	0.664	0.564	0.644	0.533	0.439	0.520	0.555	0.513	0.323	0.354	0.384	0.333	0.312	0.304	0.359	0.310	0.269	0.306	0.347	0.444	0.521	0.543	0.426	0.367	0.955	2.690	4.095	5.961	6.571	3.680	0.989	0.239	0.231	0.209	0.247	0.219	0.237	0.226	0.227	0.220	0.281	0.257	0.213	0.197	0.237	0.217	0.239	0.212	0.212	0.222	0.202	0.190	0.246	0.246
240.0	144.2	141.4	279.5	1411	2126	449.2	34.00	5.216	3.819	3.814	3.376	2.800	2.383	1.822	1.715	1.401	1.045	0.793	0.923	0.857	0.775	0.866	0.636	0.624	0.551	0.639	0.436	0.545	0.499	0.491	0.519	0.408	0.310	0.369	0.405	0.299	0.283	0.335	0.383	0.292	0.314	0.266	0.310	0.526	0.472	0.658	0.458	0.485	0.827	1.257	2.820	7.545	10.57	8.022	3.414	0.653	0.254	0.267	0.221	0.230	0.247	0.232	0.201	0.235	0.271	0.222	0.187	0.216	0.208	0.221	0.208	0.254	0.235	0.252	0.208	0.269	0.222
245.0	113.9	216.9	132.9	446.6	1943	2301	344.6	16.98	5.086	4.441	3.548	3.415	2.602	1.922	1.568	1.660	1.160	1.020	0.914	0.810	0.827	0.839	0.620	0.631	0.551	0.645	0.437	0.580	0.508	0.601	0.581	0.396	0.498	0.389	0.369	0.305	0.283	0.382	0.359	0.340	0.344	0.261	0.248	0.338	0.394	0.636	0.749	0.802	0.521	0.509	0.824	2.332	6.241	11.22	13.21	7.366	2.559	0.403	0.289	0.272	0.249	0.198	0.228	0.274	0.193	0.258	0.215	0.201	0.215	0.219	0.212	0.211	0.240	0.217	0.213	0.227	0.192
250.0	48.11	140.3	238.9	214.6	580.8	1843	2748	1145	82.00	5.773	4.399	3.634	3.162	2.417	1.906	1.668	1.315	1.252	1.150	0.868	0.809	0.810	0.654	0.730	0.704	0.650	0.620	0.608	0.532	0.508	0.479	0.439	0.458	0.410	0.398	0.357	0.350	0.352	0.356	0.340	0.352	0.325	0.324	0.329	0.308	0.346	0.484	0.787	0.940	0.901	0.659	0.827	1.671	3.444	6.848	10.37	14.38	13.55	8.249	2.751	0.447	0.280	0.233	0.253	0.218	0.219	0.247	0.220	0.228	0.215	0.215	0.301	0.282	0.207	0.217	0.214	0.231
255.0	28.90	52.61	142.1	317.8	244.6	460.6	1669	3941	1667	98.01	5.964	4.701	3.629	2.857	2.418	1.874	1.490	1.149	1.220	0.913	0.935	0.819	0.668	0.724	0.713	0.611	0.530	0.562	0.583	0.537	0.562	0.480	0.460	0.434	0.419	0.308	0.424	0.320	0.310	0.323	0.369	0.369	0.350	0.333	0.376	0.344	0.326	0.426	0.466	0.808	1.232	1.414	1.006	0.990	1.760	2.676	4.845	10.59	20.62	24.98	13.58	3.330	0.456	0.244	0.342	0.239	0.217	0.275	0.206	0.224	0.255	0.218	0.263	0.201	0.227	0.249	0.266
260.0	33.02	27.34	54.46	239.5	341.5	175.0	472.2	2596	4749	1339	48.40	7.791	4.944	3.055	2.517	2.256	1.620	1.326	1.331	1.027	0.878	0.902	0.762	0.700	0.652	0.649	0.516	0.530	0.555	0.551	0.546	0.613	0.536	0.389	0.392	0.392	0.369	0.334	0.283	0.315	0.354	0.352	0.310	0.351	0.352	0.284	0.314	0.356	0.335	0.420	0.692	1.524	1.820	1.247	0.777	0.855	1.419	2.890	7.722	19.08	28.45	25.04	11.40	1.783	0.360	0.328	0.304	0.241	0.233	0.227	0.291	0.225	0.238	0.202	0.259	0.216	0.274
265.0	32.72	23.13	27.70	103.1	359.5	280.6	146.8	778.4	3791	5121	228.4	20.24	6.067	3.829	3.220	2.489	2.030	1.593	1.641	1.129	0.961	0.989	0.843	0.912	0.665	0.623	0.658	0.606	0.641	0.515	0.578	0.537	0.507	0.412	0.461	0.415	0.422	0.391	0.402	0.317	0.363	0.320	0.328	0.354	0.356	0.311	0.281	0.331	0.350	0.277	0.366	0.753	1.517	1.981	1.594	0.719	0.575	0.954	2.067	5.374	12.68	27.61	32.55	22.32	7.366	0.737	0.307	0.268	0.316	0.269	0.254	0.221	0.260	0.294	0.273	0.282	0.261
270.0	47.34	35.73	37.10	44.62	148.2	358.5	301.8	233.8	1086	3599	5365	2166	63.25	6.550	4.320	3.279	2.342	1.987	1.662	1.302	1.036	1.155	0.957	0.837	0.787	0.724	0.652	0.610	0.653	0.613	0.656	0.572	0.535	0.505	0.461	0.506	0.478	0.443	0.396	0.350	0.358	0.402	0.325	0.380	0.390	0.385	0.350	0.330	0.344	0.290	0.277	0.404	0.622	0.973	1.653	1.927	1.870	1.126	0.904	1.525	3.166	7.501	13.89	23.19	27.44	29.37	15.55	6.239	0.902	0.287	0.342	0.263	0.285	0.314	0.292	0.282	0.303
275.0	77.48	83.52	85.56	47.44	56.44	145.8	435.1	345.6	298.1	869.0	2727	7578	1256	69.50	6.578	4.700	3.121	2.363	1.855	1.677	1.180	1.176	1.219	0.949	0.887	0.722	0.719	0.726	0.694	0.731	0.584	0.593	0.584	0.541	0.487	0.490	0.463	0.381	0.435	0.388	0.404	0.427	0.385	0.375	0.446	0.434	0.466	0.519	0.491	0.390	0.346	0.392	0.375	0.512	0.666	0.923	1.741	2.991	2.600	1.196	1.066	2.085	3.453	5.658	7.679	16.66	33.35	46.13	23.98	7.001	0.636	0.378	0.307	0.313	0.291	0.288	0.382
280.0	115.4	129.8	139.5	80.51	46.33	62.03	241.8	560.8	272.5	253.9	741.0	4248	7694	941.9	31.88	5.621	3.801	2.830	2.281	1.648	1.643	1.416	1.098	0.964	0.849	0.873	0.719	0.767	0.625	0.652	0.610	0.537	0.529	0.591	0.550	0.600	0.537	0.500	0.438	0.395	0.513	0.392	0.519	0.423	0.469	0.564	0.587	0.543	0.621	0.456	0.392	0.414	0.361	0.332	0.434	0.522	0.766	1.746	3.236	3.146	1.671	0.958	1.224	1.672	2.168	4.290	10.70	26.66	43.88	32.90	19.32	3.738	0.468	0.364	0.337	0.295	0.486
285.0	173.3	205.1	199.2	105.5	56.81	45.79	108.7	401.4	554.7	197.6	249.3	1209	5564	6871	615.1	13.06	5.846	3.568	2.770	2.022	1.723	1.449	1.132	0.947	0.993	1.009	0.791	0.770	0.723	0.692	0.801	0.685	0.695	0.650	0.693	0.690	0.536	0.502	0.510	0.472	0.484	0.530	0.585	0.540	0.556	0.758	0.779	0.807	0.835	0.633	0.567	0.487	0.451	0.360	0.376	0.439	0.507	0.809	1.535	2.833	3.603	2.402	1.183	0.915	1.092	1.532	3.017	6.962	15.97	32.00	50.29	30.78	12.68	1.496	0.344	0.311	0.363
290.0	220.0	285.3	269.6	158.6	83.71	65.28	81.18	181.4	461.5	582.2	233.7	415.6	1544	4443	5784	1880	34.54	5.243	3.506	2.677	2.044	1.596	1.287	1.103	1.020	1.076	0.872	0.917	0.713	0.725	0.759	0.653	0.704	0.743	0.690	0.772	0.695	0.629	0.566	0.560	0.532	0.495	0.677	0.588	0.748	0.806	0.887	0.977	0.986	0.799	0.664	0.602	0.627	0.454	0.483	0.459	0.564	0.588	0.815	1.232	2.097	3.063	3.330	2.766	1.829	1.410	1.499	2.324	4.411	8.355	17.11	28.33	35.32	34.38	19.97	9.545	1.676
295.0	265.9	337.8	336.6	215.7	116.7	88.29	103.6	135.8	239.6	554.9	745.0	375.0	535.7	1129	2616	6889	709.2	34.45	5.236	3.336	2.553	2.022	1.449	1.258	1.136	1.262	1.095	0.892	0.804	0.773	0.821	0.654	0.757	0.772	0.731	0.800	0.723	0.722	0.646	0.649	0.544	0.582	0.685	0.731	0.837	0.888	1.004	1.173	1.083	0.981	0.788	0.744	0.693	0.634	0.631	0.557	0.732	0.759	0.705	0.926	1.111	1.399	1.875	3.535	4.780	3.460	1.782	1.686	2.024	2.967	4.793	7.106	8.982	14.69	30.23	48.80	30.81
300.0	288.9	387.0	382.8	243.9	142.7	118.7	129.7	154.0	211.4	382.1	854.7	674.8	384.1	417.2	734.8	3782	5762	549.6	16.47	4.591	2.926	2.373	1.973	1.547	1.217	1.328	1.143	1.048	0.811	0.897	0.858	0.672	0.738	0.790	0.801	0.862	0.843	0.747	0.774	0.641	0.608	0.687	0.686	0.744	0.944	1.027	1.033	1.229	1.191	0.980	0.768	0.853	0.794	0.772	0.763	0.650	0.787	0.780	0.931	1.011	1.168	1.280	1.403	2.031	3.559	5.032	4.306	2.563	2.070	1.929	2.289	2.545	2.738	4.010	8.729	22.87	41.48
305.0	324.5	413.8	401.6	267.9	174.6	147.3	166.5	198.8	246.0	348.1	637.3	999.6	544.1	315.2	301.8	1056	4492	4852	77.04	7.587	3.845	2.964	2.248	1.885	1.304	1.415	1.045	0.990	1.053	0.876	0.709	0.816	0.779	0.694	0.868	0.826	0.896	0.829	0.775	0.779	0.705	0.690	0.745	0.765	1.000	1.102	1.024	1.176	1.285	1.043	0.976	0.946	0.750	0.892	0.827	0.776	0.858	0.977	1.085	1.184	1.481	1.340	1.716	1.993	2.376	3.400	4.861	4.436	3.458	2.291	1.841	1.727	1.540	1.780	2.632	5.989	13.12
310.0	345.4	410.9	412.1	287.3	197.9	172.8	197.7	231.7	284.9	365.3	499.9	764.1	866.4	476.5	247.8	338.8	1235	3578	4184	1255	21.46	4.138	2.864	2.235	1.790	1.572	1.249	1.098	1.034	0.941	0.869	0.812	0.852	0.838	0.930	0.921	0.898	0.797	0.786	0.814	0.700	0.675	0.755	0.830	0.998	1.063	1.125	1.329	1.310	1.079	1.032	1.042	0.909	0.899	0.966	0.757	0.953	1.030	1.148	1.289	1.548	1.524	1.731	1.965	2.060	2.543	3.204	3.662	4.553	4.533	3.395	2.224	1.574	1.522	1.515	2.057	3.613
315.0	356.2	435.1	418.1	302.4	217.2	200.2	223.8	260.0	315.9	386.6	483.7	580.9	706.5	796.1	364.4	210.7	362.4	870.5	2181	5185	496.9	19.76	4.073	2.734	2.086	1.832	1.456	1.249	1.123	0.964	0.968	0.799	0.865	0.774	0.885	0.928	0.880	0.816	0.745	0.841	0.765	0.771	0.749	0.805	0.931	1.094	1.091	1.392	1.357	1.168	1.037	1.066	0.962	0.982	0.902	0.924	1.163	1.024	1.338	1.401	1.623	1.599	1.831	1.966	2.197	2.494	2.782	2.709	2.977	3.657	4.645	4.606	2.827	1.760	1.309	1.562	1.636
320.0	397.9	487.7	487.1	339.1	233.2	223.5	242.0	275.8	333.8	410.7	497.6	544.4	585.5	737.9	605.3	237.7	193.7	269.9	584.3	3200	4066	384.1	8.851	3.460	2.385	1.982	1.599	1.339	1.167	0.998	1.109	0.881	0.991	0.772	0.910	0.927	0.839	0.822	0.842	0.820	0.756	0.754	0.843	0.934	1.108	1.297	1.233	1.530	1.511	1.324	1.019	1.172	1.070	1.069	0.939	1.120	1.229	1.265	1.371	1.406	1.588	1.791	1.701	2.203	2.274	2.386	2.680	2.619	2.607	2.952	3.413	4.330	4.251	3.291	1.786	1.446	1.364
325.0	423.0	567.0	559.9	406.7	266.9	242.6	260.1	287.2	347.9	427.4	503.0	564.2	557.7	574.8	703.0	396.2	185.8	149.2	187.2	899.9	3730	3436	56.77	5.507	3.241	2.523	1.798	1.461	1.366	1.255	1.104	0.858	0.830	0.937	0.845	0.959	0.856	0.850	0.806	0.746	0.773	0.771	0.826	0.912	1.066	1.356	1.376	1.658	1.881	1.558	1.236	1.347	1.089	1.074	1.057	1.134	1.178	1.296	1.377	1.516	1.681	1.975	1.875	2.175	2.235	2.446	2.695	2.503	2.752	2.912	2.729	3.144	3.816	4.285	3.428	2.169	1.639
330.0	449.5	647.0	698.8	526.5	334.0	268.5	281.1	308.7	360.9	436.0	514.8	578.2	573.3	521.5	534.2	547.5	329.5	158.4	117.6	254.1	1051	2880	3198	858.9	15.62	3.380	2.233	1.808	1.622	1.219	1.122	0.999	1.035	0.881	0.828	0.849	0.921	0.829	0.761	0.796	0.745	0.727	0.878	0.920	1.151	1.412	1.595	1.865	2.028	1.941	1.569	1.564	1.439	1.218	1.201	1.212	1.279	1.358	1.503	1.544	1.715	1.904	1.872	2.332	2.318	2.571	2.527	2.656	2.824	2.793	2.694	2.758	2.778	3.078	3.177	3.554	3.092
335.0	484.3	696.6	787.9	624.2	410.6	312.9	304.1	330.9	373.3	447.4	527.4	583.6	583.0	533.8	473.7	439.2	502.1	280.6	133.5	129.9	283.4	693.7	1975	3725	393.9	14.18	3.133	2.346	1.820	1.621	1.317	0.970	1.098	0.851	0.914	0.815	0.835	0.858	0.792	0.855	0.670	0.775	0.919	0.969	1.205	1.463	1.738	2.164	2.426	2.010	1.867	1.747	1.601	1.582	1.446	1.328	1.496	1.417	1.579	1.680	1.635	1.885	2.059	2.322	2.425	2.418	2.712	2.820	2.863	2.693	2.928	2.643	2.632	2.627	2.406	2.673	3.180
340.0	471.6	701.4	836.3	681.4	445.2	340.9	316.8	339.8	384.8	449.3	532.3	582.9	583.6	544.6	470.1	388.9	431.5	426.4	188.5	119.7	123.7	197.5	531.9	2784	3266	305.8	5.972	2.803	2.007	1.652	1.307	1.086	1.028	0.982	0.982	0.801	0.801	0.871	0.796	0.887	0.740	0.946	0.847	0.956	1.236	1.492	1.694	2.146	2.427	2.348	2.064	1.876	1.789	1.605	1.515	1.354	1.477	1.455	1.815	1.819	1.929	1.953	2.113	2.341	2.358	2.501	2.678	2.658	2.671	2.827	2.857	2.827	2.609	2.607	2.416	2.311	2.455
345.0	474.4	701.4	839.2	701.8	488.0	369.3	337.4	353.9	390.6	453.3	521.9	564.6	580.7	544.7	473.7	385.5	350.2	435.5	309.2	141.6	100.5	98.45	156.6	819.7	3348	2714	47.02	4.554	2.674	2.146	1.550	1.297	1.052	0.997	1.005	0.886	0.868	0.776	0.745	0.840	0.773	0.807	0.878	0.939	1.264	1.359	1.598	2.190	2.343	2.193	2.075	1.931	1.997	1.679	1.599	1.447	1.610	1.508	1.778	1.852	1.879	1.899	2.044	2.316	2.429	2.445	2.598	2.616	2.685	2.833	2.820	2.848	2.684	2.690	2.531	2.301	2.369
350.0	466.2	674.2	795.4	698.9	521.5	402.9	363.3	363.9	397.4	450.1	506.4	549.5	555.8	525.1	472.2	391.6	333.0	330.8	369.5	263.4	131.7	96.23	89.05	222.0	980.6	2430	2518	213.1	12.65	2.599	1.876	1.524	1.144	0.999	0.998	0.921	0.858	0.749	0.831	0.755	0.736	0.849	0.848	0.953	1.140	1.388	1.576	2.155	2.106	2.075	1.985	2.177	2.002	1.826	1.714	1.526	1.589	1.651	1.701	1.884	1.857	1.873	2.151	2.272	2.301	2.392	2.476	2.626	2.722	2.754	2.729	2.731	2.704	2.692	2.369	2.393	2.528
355.0	430.5	629.0	738.5	695.4	531.2	437.0	391.4	391.1	416.9	450.4	499.8	529.4	540.6	520.9	473.6	400.4	344.6	304.6	294.4	348.6	239.0	125.1	95.18	103.7	257.4	588.9	1719	3058	342.4	11.46	2.782	1.993	1.616	1.113	1.095	1.101	0.836	0.862	0.732	0.750	0.707	0.792	0.796	1.117	1.016	1.465	1.540	2.181	2.053	1.931	1.930	2.221	1.976	1.937	1.776	1.656	1.719	1.751	1.812	1.808	1.962	2.016	1.991	2.114	2.289	2.569	2.574	2.575	2.659	2.539	2.653	2.626	2.841	2.796	2.731	2.422	2.504
360.0	449.0	614.4	690.8	671.9	545.5	454.9	416.3	402.4	420.0	456.8	484.9	519.8	529.1	512.0	474.6	408.8	361.5	313.0	274.9	306.0	334.2	184.4	115.4	94.81	107.7	165.6	472.2	2382	2783	268.7	5.428	2.506	1.774	1.285	1.133	1.005	0.975	0.919	0.729	0.756	0.767	0.794	0.836	0.966	0.967	1.303	1.480	1.872	2.064	1.894	1.758	2.218	1.918	1.958	1.947	1.865	1.751	1.714	1.899	1.924	2.026	1.971	2.215	2.316	2.500	2.439	2.432	2.458	2.678	2.648	2.626	2.678	2.645	2.616	2.715	2.454	2.508
365.0	401.2	580.6	706.2	658.6	553.0	484.8	435.0	417.9	435.4	461.7	487.7	507.3	521.1	503.6	469.4	409.9	369.6	328.3	287.7	271.2	327.6	282.1	149.2	107.5	88.63	83.00	137.2	726.5	2879	2340	43.25	3.652	2.088	1.506	1.283	1.094	0.968	0.784	0.772	0.837	0.738	0.783	0.814	0.946	0.998	1.368	1.346	1.770	2.072	1.860	1.811	2.204	2.054	2.291	1.963	1.778	1.898	1.721	1.922	1.832	1.935	1.841	2.180	2.333	2.174	2.342	2.454	2.464	2.542	2.493	2.626	2.577	2.753	2.616	2.403	2.605	2.609
370.0	396.2	555.9	661.9	636.1	561.0	501.4	455.3	438.8	452.4	464.8	491.6	507.4	512.0	495.1	468.6	420.6	384.1	350.3	312.1	280.7	278.5	311.4	253.2	149.9	106.3	83.15	75.70	195.1	862.9	2233	2318	191.9	11.29	2.389	1.722	1.249	1.142	0.917	0.828	0.927	0.794	0.854	0.772	0.942	0.944	1.331	1.358	1.657	1.954	1.813	1.848	2.141	2.051	2.136	1.949	1.827	2.059	1.913	2.011	2.088	2.035	2.064	2.189	2.241	2.368	2.460	2.403	2.438	2.531	2.581	2.504	2.563	2.645	2.718	2.534	2.621	2.620
375.0	386.9	504.9	642.9	625.0	581.0	526.0	490.0	470.8	472.1	478.1	494.1	502.2	504.2	484.4	464.3	424.5	393.8	363.1	338.4	305.2	277.0	271.1	305.1	245.1	140.8	104.5	79.74	89.79	224.5	545.7	1725	2734	292.2	9.797	2.267	1.531	1.273	0.973	0.863	0.935	0.822	0.811	0.899	0.947	0.869	1.186	1.315	1.607	1.917	1.603	1.622	2.173	2.235	1.955	2.028	1.880	2.001	2.082	2.061	2.005	2.117	2.157	2.278	2.241	2.440	2.478	2.259	2.232	2.689	2.591	2.417	2.440	2.675	2.532	2.443	2.434	2.562
380.0	391.9	509.2	617.5	623.5	590.5	544.3	505.9	485.5	477.4	486.4	501.1	499.9	504.1	479.3	458.7	425.7	396.4	373.7	350.2	321.3	286.7	267.6	274.8	303.4	193.1	124.2	93.02	79.39	91.22	151.1	482.1	2188	2318	218.2	4.463	2.043	1.560	1.193	1.005	1.024	0.852	0.832	0.953	0.930	0.911	1.185	1.255	1.628	1.926	1.555	1.648	2.168	2.262	2.080	2.202	1.976	2.090	2.178	2.201	2.247	1.955	2.338	2.112	2.237	2.261	2.295	2.422	2.203	2.472	2.593	2.552	2.380	2.376	2.564	2.540	2.448	2.542
385.0	379.7	506.8	604.3	623.2	597.5	560.6	513.3	496.1	489.8	499.8	500.8	493.2	493.8	472.7	456.5	424.1	399.6	381.8	356.1	331.7	302.6	277.4	259.1	287.6	264.5	159.2	111.9	89.13	72.45	70.71	134.7	666.0	2355	1823	36.20	3.267	1.688	1.379	1.118	1.004	0.981	0.953	0.960	1.007	1.079	1.111	1.307	1.520	1.714	1.604	1.729	2.212	2.131	1.915	2.256	1.900	2.197	2.225	2.222	2.302	2.118	2.282	2.228	2.443	2.279	2.455	2.506	2.531	2.336	2.463	2.510	2.469	2.581	2.742	2.659	2.353	2.481
390.0	371.0	481.5	597.1	619.1	602.9	568.6	520.8	516.3	498.7	493.6	494.9	494.8	484.2	469.1	447.1	418.8	400.8	383.4	364.4	340.5	314.9	291.6	268.3	259.3	276.4	236.4	152.8	109.6	85.32	68.90	67.82	175.4	691.2	1666	1763	555.8	10.24	1.929	1.541	1.095	0.925	0.941	0.901	0.982	1.088	1.235	1.245	1.512	1.817	1.582	1.733	2.067	2.183	2.115	2.251	2.048	2.184	2.275	2.261	2.259	2.242	2.350	2.384	2.347	2.348	2.254	2.309	2.352	2.313	2.377	2.484	2.448	2.408	2.567	2.590	2.514	2.540
395.0	366.2	476.3	586.4	615.0	604.6	575.8	550.0	524.8	510.3	503.7	490.9	492.3	483.2	462.2	440.3	415.6	399.8	382.5	369.0	345.1	327.1	306.6	279.4	259.7	247.0	261.6	227.7	144.0	106.6	84.62	68.13	75.38	178.7	403.8	1204	2374	255.4	10.73	1.873	1.429	1.006	1.056	1.019	1.024	1.038	1.121	1.276	1.522	1.776	1.689	1.630	2.066	2.218	2.111	2.479	2.068	2.258	2.281	2.379	2.292	2.168	2.189	2.184	2.302	2.489	2.286	2.185	2.173	2.406	2.285	2.359	2.410	2.189	2.508	2.470	2.520	2.705
400.0	374.2	480.3	581.8	610.9	607.8	583.3	549.6	531.0	514.8	505.3	500.3	493.7	481.3	462.4	434.7	407.7	399.3	376.2	364.7	347.3	333.1	313.9	292.5	268.8	245.9	240.3	262.5	191.9	128.8	100.9	79.06	60.97	69.91	110.6	325.2	1776	1844	204.5	4.944	2.009	1.251	1.050	1.084	1.013	1.043	1.233	1.278	1.530	1.660	1.628	1.639	2.058	2.168	2.078	2.168	2.254	2.358	2.340	2.511	2.393	2.330	2.314	2.275	2.250	2.748	2.419	2.234	2.173	2.611	2.428	2.291	2.501	2.540	2.361	2.577	2.608	2.428
405.0	354.2	503.9	577.3	598.3	612.3	584.1	557.2	531.3	521.9	511.7	498.9	486.4	472.4	452.6	429.3	404.9	388.8	373.5	362.1	345.6	331.6	314.0	296.5	276.0	252.0	233.4	246.8	240.7	159.5	118.0	91.39	68.98	53.64	50.47	91.27	506.1	1685	1516	33.82	3.438	1.612	1.252	1.189	1.113	1.050	1.197	1.261	1.604	1.560	1.655	1.630	2.021	2.323	2.177	2.087	2.144	2.374	2.384	2.445	2.506	2.418	2.294	2.421	2.225	2.423	2.165	2.412	2.383	2.337	2.293	2.444	2.225	2.442	2.396	2.396	2.355	2.602
410.0	347.5	490.0	568.9	598.1	589.9	579.9	558.7	543.3	530.2	510.1	498.8	479.8	467.1	442.9	423.7	395.6	378.5	367.1	354.0	340.6	328.8	314.3	298.3	279.4	260.7	240.8	228.9	238.4	217.2	151.5	106.8	81.36	60.43	46.03	44.61	130.2	471.7	1230	1380	497.4	10.41	1.700	1.433	1.227	1.213	1.347	1.292	1.590	1.706	1.730	1.632	1.943	2.235	2.131	2.150	2.225	2.331	2.389	2.441	2.554	2.420	2.400	2.477	2.449	2.370	2.282	2.347	2.254	2.269	2.345	2.281	2.399	2.533	2.204	2.340	2.386	2.522
