Sample:	'1
File name:	G2025070116ºêÊ¤ÊÂ¹Ê³Ø 250±¶.FD3
Run date:	'16:28:36, 07/03/2025
Operator:	Administrator
Comment:	'

Instrument
Model:	F-2700 FL Spectrophotometer
Serial number:	23B8-004
ROM Version:	4J14000 07

Instrument parameters
Measurement type:	3-D scan
Data mode:	Fluorescence
EX  Start WL:	220.0 nm
EX  End WL:	600.0 nm
EX Sampling interval:	5.0 nm
EM  Start WL:	230.0 nm
EM  End WL:	650.0 nm
EM Sampling interval:	5.0 nm
Scan speed:	12000 nm/min
EX Slit:	5.0 nm
EM Slit:	5.0 nm
PMT Voltage:	700 V
Response:	Auto 
Corrected spectra:	Off
Contour interval:	50.000

Peak integration
Integration method:	Rectangular
Sensitivity:	1
Threshold:	1.000

Peaks
No.	ApexEX/EM(nm)	Height(Data)
1	225.0/340.0	3591
2	240.0/395.0	2294
3	240.0/525.0	267.4
4	245.0/535.0	216.3
5	250.0/275.0	656.6
6	250.0/550.0	168.3
7	255.0/280.0	655.5
8	255.0/565.0	133.1
9	260.0/290.0	566.4
10	260.0/575.0	105.8
11	265.0/295.0	678.1
12	265.0/585.0	94.63
13	270.0/300.0	861.2
14	270.0/600.0	78.54
15	275.0/305.0	784.7
16	275.0/340.0	800.7
17	275.0/610.0	63.42
18	280.0/420.0	1738
19	280.0/625.0	53.65
20	285.0/320.0	678.8
21	285.0/640.0	38.17
22	290.0/325.0	641.6
23	305.0/345.0	456.5
24	310.0/350.0	370.2
25	425.0/500.0	23.10
26	440.0/520.0	11.04
27	445.0/525.0	9.502
28	455.0/340.0	10.64
29	455.0/540.0	6.630
30	465.0/555.0	3.690
31	470.0/560.0	3.024
32	480.0/385.0	8.644
33	485.0/265.0	2.814
34	485.0/390.0	9.072
35	485.0/580.0	1.861
36	495.0/270.0	2.817
37	505.0/275.0	4.107
38	510.0/280.0	4.558
39	520.0/285.0	4.511
40	530.0/290.0	3.904
41	535.0/270.0	68.39
42	540.0/295.0	5.015
43	545.0/300.0	5.455
44	550.0/305.0	5.272
45	555.0/340.0	4.511
46	560.0/310.0	4.322
47	570.0/315.0	4.445
48	580.0/320.0	4.350
49	585.0/325.0	4.560

Data points
	220.0	225.0	230.0	235.0	240.0	245.0	250.0	255.0	260.0	265.0	270.0	275.0	280.0	285.0	290.0	295.0	300.0	305.0	310.0	315.0	320.0	325.0	330.0	335.0	340.0	345.0	350.0	355.0	360.0	365.0	370.0	375.0	380.0	385.0	390.0	395.0	400.0	405.0	410.0	415.0	420.0	425.0	430.0	435.0	440.0	445.0	450.0	455.0	460.0	465.0	470.0	475.0	480.0	485.0	490.0	495.0	500.0	505.0	510.0	515.0	520.0	525.0	530.0	535.0	540.0	545.0	550.0	555.0	560.0	565.0	570.0	575.0	580.0	585.0	590.0	595.0	600.0
230.0	149.6	3488	7324	1617	58.48	11.78	9.476	7.205	6.170	5.972	5.018	5.120	4.128	4.007	3.341	2.946	2.568	2.461	1.953	2.223	1.635	1.570	1.554	1.530	1.197	1.122	0.986	1.159	1.030	0.857	0.828	0.785	0.822	0.693	0.631	0.599	0.646	0.547	0.527	0.559	0.782	1.116	0.989	0.658	0.490	0.522	3.112	14.20	20.33	12.19	3.799	0.775	0.381	0.349	0.356	0.372	0.382	0.353	0.347	0.349	0.332	0.342	0.296	0.323	0.315	0.331	0.314	0.348	0.334	0.314	0.305	0.308	0.314	0.350	0.340	0.346	0.375
235.0	222.3	966.7	4825	5801	572.8	68.92	11.48	9.931	7.193	6.060	6.112	4.968	4.985	3.683	3.543	3.159	2.873	2.588	2.061	2.252	1.803	1.645	1.693	1.579	1.356	1.066	1.065	1.122	1.004	0.930	0.802	0.955	0.830	0.672	0.712	0.589	0.611	0.524	0.530	0.592	0.639	0.805	1.026	1.194	0.902	0.618	1.111	3.783	8.181	13.49	17.15	16.14	6.875	1.258	0.401	0.455	0.397	0.344	0.377	0.293	0.320	0.390	0.326	0.405	0.307	0.292	0.356	0.391	0.344	0.354	0.308	0.345	0.321	0.283	0.385	0.334	0.343
240.0	304.8	367.3	1508	5861	4526	448.2	32.13	10.61	8.988	7.720	7.054	5.537	5.114	4.282	3.603	3.326	2.589	2.611	2.246	2.341	1.938	1.674	1.585	1.712	1.324	1.176	1.112	1.150	1.012	0.889	0.829	1.034	0.754	0.751	0.686	0.600	0.570	0.594	0.582	0.563	0.491	0.583	0.670	0.951	1.045	1.198	0.978	1.205	2.176	4.218	9.847	22.80	26.24	15.89	4.880	0.838	0.412	0.349	0.391	0.396	0.337	0.379	0.370	0.436	0.334	0.324	0.345	0.389	0.392	0.370	0.365	0.309	0.332	0.308	0.404	0.302	0.443
245.0	251.9	361.2	425.6	2153	8162	3709	330.7	17.41	9.839	8.925	7.473	5.385	5.517	5.047	4.048	3.456	2.753	2.494	2.013	2.242	1.800	1.548	1.498	1.787	1.371	1.374	1.020	1.219	1.034	0.968	0.927	0.969	0.774	0.818	0.752	0.659	0.657	0.521	0.616	0.535	0.576	0.567	0.531	0.546	0.754	1.204	1.534	1.176	0.950	1.239	2.590	8.311	20.16	33.54	25.98	13.33	3.373	0.539	0.428	0.395	0.385	0.368	0.450	0.405	0.423	0.345	0.329	0.387	0.361	0.346	0.357	0.350	0.365	0.406	0.350	0.342	0.419
250.0	110.7	263.5	363.7	592.1	2911	7502	7461	1271	66.99	14.37	9.441	7.250	6.460	5.570	4.415	3.792	2.915	3.047	2.232	2.555	1.946	1.817	1.769	1.797	1.414	1.357	1.103	1.377	1.173	1.015	0.868	0.844	0.813	0.768	0.653	0.636	0.698	0.592	0.602	0.571	0.591	0.593	0.586	0.476	0.527	0.688	0.915	1.333	1.391	1.147	1.085	2.258	5.171	11.64	19.95	30.54	35.78	19.87	11.65	3.528	0.595	0.383	0.429	0.401	0.469	0.404	0.371	0.380	0.412	0.359	0.409	0.364	0.378	0.348	0.361	0.352	0.441
255.0	60.65	107.8	279.6	447.0	756.2	2096	8759	9999.9	1648	86.48	13.19	10.27	8.531	6.483	6.167	4.275	3.682	3.252	2.773	2.987	2.111	1.948	1.711	1.779	1.605	1.270	1.180	1.524	1.308	1.197	0.903	0.819	0.881	0.719	0.628	0.641	0.755	0.567	0.632	0.643	0.593	0.674	0.549	0.505	0.477	0.620	0.577	0.741	0.907	1.248	1.645	1.851	1.779	3.055	4.860	7.803	16.26	33.45	54.89	30.15	19.39	3.508	0.526	0.475	0.471	0.422	0.407	0.366	0.441	0.403	0.360	0.385	0.330	0.379	0.396	0.336	0.435
260.0	52.43	67.02	118.1	405.9	449.5	535.1	2982	9999.9	9999.9	1418	34.30	13.25	10.99	8.976	6.974	5.132	4.025	3.721	2.693	2.965	2.264	1.952	1.997	1.755	1.473	1.275	1.258	1.547	1.348	1.038	1.132	0.939	1.003	0.805	0.725	0.664	0.725	0.604	0.661	0.572	0.599	0.666	0.611	0.545	0.550	0.552	0.572	0.602	0.607	0.694	1.357	2.365	2.138	1.498	1.591	2.205	4.155	9.986	27.55	55.36	78.02	28.74	13.86	1.663	0.593	0.478	0.478	0.519	0.456	0.418	0.382	0.390	0.396	0.428	0.418	0.328	0.420
265.0	57.90	60.80	58.75	214.0	506.5	324.9	745.9	3998	9999.9	9999.9	205.5	18.59	14.48	11.76	7.835	6.239	4.323	3.916	3.068	3.028	2.512	2.167	2.091	1.771	1.684	1.313	1.295	1.549	1.337	1.050	1.041	0.919	1.103	0.784	0.793	0.663	0.707	0.581	0.647	0.593	0.713	0.757	0.648	0.507	0.632	0.515	0.476	0.545	0.457	0.451	0.676	1.430	2.261	2.814	1.757	1.230	1.457	2.752	7.034	18.11	50.58	84.61	79.44	25.32	7.478	0.793	0.479	0.503	0.454	0.432	0.462	0.424	0.407	0.435	0.405	0.441	0.454
270.0	84.10	79.40	53.28	87.63	293.5	504.7	402.3	989.2	4011	9999.9	9999.9	793.4	57.46	16.21	11.46	8.343	5.892	5.033	3.656	3.635	2.676	2.462	2.505	2.033	1.764	1.629	1.395	1.892	1.408	1.224	1.131	1.089	1.224	1.035	0.909	0.790	0.852	0.726	0.654	0.770	0.780	0.729	0.671	0.582	0.690	0.549	0.605	0.590	0.545	0.452	0.459	0.687	1.074	1.939	2.381	2.817	2.554	1.735	2.227	4.604	12.44	26.34	45.96	68.39	54.68	52.54	16.89	7.094	0.884	0.509	0.475	0.454	0.436	0.412	0.522	0.441	0.485
275.0	128.0	135.1	84.72	65.22	127.4	309.0	656.6	458.3	952.5	2901	9999.9	9999.9	1190	62.70	17.49	11.78	8.082	6.525	4.679	4.227	3.675	3.097	3.172	2.561	1.691	1.776	1.490	2.095	1.321	1.410	1.310	1.028	1.212	1.174	1.106	1.157	0.976	0.917	0.822	0.888	0.774	0.771	0.693	0.716	0.719	0.675	0.645	0.775	0.688	0.482	0.419	0.600	0.713	0.960	1.170	1.781	3.310	4.107	2.785	1.940	3.370	6.392	10.87	16.48	21.26	51.34	106.8	113.0	26.34	6.434	0.717	0.660	0.489	0.517	0.479	0.448	0.587
280.0	189.1	191.9	115.2	68.14	86.31	163.0	486.2	655.5	346.9	720.2	3323	9999.9	9999.9	897.1	34.21	15.90	9.980	7.775	5.332	4.961	3.835	3.197	3.091	2.727	2.144	1.973	1.628	2.406	1.569	1.395	1.358	1.167	1.438	1.447	1.403	1.217	1.115	0.894	0.959	0.938	0.835	0.830	0.807	0.828	0.822	0.865	0.779	0.839	0.811	0.553	0.489	0.551	0.686	0.712	0.841	1.088	1.815	3.303	4.558	3.550	2.051	2.028	3.008	4.239	5.466	13.57	42.28	102.3	140.0	34.35	20.35	2.867	0.700	0.624	0.532	0.515	0.582
285.0	237.4	224.3	144.3	76.80	73.89	113.3	235.9	647.1	342.0	250.8	821.6	4310	9999.9	8844	122.3	23.11	14.01	10.08	6.412	6.346	4.763	3.689	3.295	2.900	2.539	1.978	2.001	2.422	1.654	1.375	1.436	1.204	1.550	1.405	1.631	1.404	1.167	0.963	0.984	1.087	0.883	0.964	0.870	0.829	0.822	0.922	0.983	1.079	0.932	0.685	0.525	0.572	0.663	0.706	0.800	0.855	1.125	1.589	2.752	4.396	4.511	2.291	1.439	1.627	1.915	3.677	10.36	28.69	68.16	112.4	120.9	31.77	14.58	1.248	0.562	0.550	0.580
290.0	278.8	268.8	168.0	81.96	68.92	87.74	120.9	285.5	566.4	473.3	307.9	1081	4766	9999.9	9999.9	2338	40.02	14.30	8.661	8.046	5.632	4.348	4.081	3.351	2.604	2.091	1.942	2.826	1.732	1.610	1.605	1.476	1.546	1.670	1.778	1.588	1.314	1.222	1.051	1.083	1.090	1.078	1.016	1.025	1.139	1.096	1.044	1.158	1.030	0.765	0.626	0.649	0.638	0.698	0.778	0.757	0.865	0.971	1.255	1.922	3.157	3.652	3.904	2.826	1.659	1.664	3.139	7.222	16.41	31.63	53.92	76.24	99.21	79.30	59.36	10.18	1.636
295.0	311.2	312.5	190.3	85.49	63.85	78.21	87.90	135.6	258.5	678.1	569.2	390.3	1183	2786	9999.9	9999.9	705.3	37.37	12.92	10.91	7.006	5.462	4.783	4.000	2.703	2.621	2.239	3.054	1.951	1.628	1.760	1.568	1.732	1.733	1.858	1.603	1.541	1.260	1.131	1.092	1.214	1.143	1.135	1.143	1.251	1.187	1.183	1.238	1.125	0.740	0.711	0.623	0.663	0.642	0.712	0.736	0.747	0.790	0.991	1.028	1.499	1.665	2.655	4.697	5.015	3.078	1.920	2.571	4.633	7.939	12.92	18.11	27.91	53.55	133.7	139.4	33.39
300.0	329.1	313.6	186.8	92.99	61.71	75.95	81.23	105.1	154.4	403.2	861.2	437.2	406.3	725.3	3197	9999.9	9999.9	535.6	19.31	14.62	8.430	6.548	5.403	4.858	3.362	2.828	2.312	3.375	2.249	1.813	1.868	1.789	1.763	1.859	1.792	1.546	1.500	1.334	1.333	1.284	1.173	1.226	1.258	1.048	1.252	1.294	1.214	1.260	1.165	0.713	0.695	0.694	0.641	0.633	0.642	0.709	0.760	0.892	0.806	0.891	1.098	1.142	1.545	2.683	4.634	5.455	4.148	2.133	2.236	2.890	3.919	4.928	6.950	13.36	43.19	94.21	130.2
305.0	341.5	324.9	192.7	104.2	68.02	73.63	83.48	107.1	138.1	245.5	637.8	784.7	305.8	271.4	792.7	4333	9999.9	9999.9	74.59	20.63	11.22	8.098	7.119	5.598	3.765	3.221	2.692	3.957	2.327	1.957	1.894	1.856	1.911	1.929	1.654	1.752	1.654	1.386	1.339	1.291	1.243	1.168	1.142	1.124	1.165	1.329	1.247	1.272	1.085	0.825	0.720	0.635	0.732	0.759	0.665	0.827	0.782	0.947	0.812	0.862	1.111	1.118	1.288	1.634	2.448	3.740	5.272	4.662	2.719	1.940	1.927	1.999	2.325	3.588	10.53	23.91	53.23
310.0	340.8	319.6	209.4	109.4	73.99	75.15	84.98	116.4	144.3	201.7	344.6	647.3	630.0	255.7	248.3	1035	4197	9999.9	9999.9	1884	29.11	11.63	9.129	6.681	4.269	3.488	3.030	4.340	2.505	1.983	1.956	1.915	1.981	1.875	1.839	1.916	1.759	1.247	1.355	1.280	1.293	1.216	1.167	1.150	1.216	1.315	1.276	1.300	1.084	0.781	0.723	0.758	0.712	0.773	0.724	0.893	0.764	0.875	0.816	0.957	1.044	1.261	1.329	1.464	1.702	2.060	2.842	3.794	4.322	4.045	2.808	1.747	1.370	1.552	3.059	5.992	12.63
315.0	469.3	475.0	283.6	142.7	90.00	89.52	99.74	137.5	165.9	219.6	278.0	375.8	572.7	576.8	167.4	290.0	982.7	2539	9999.9	9999.9	521.1	28.51	13.01	9.644	5.520	4.622	3.502	4.688	2.844	2.260	2.429	1.851	1.974	1.892	1.920	1.900	1.722	1.427	1.512	1.435	1.351	1.454	1.547	1.404	1.441	1.830	1.574	1.901	1.314	0.817	0.870	0.860	0.836	0.879	0.807	0.840	0.901	0.903	0.895	1.128	1.065	1.372	1.461	1.708	1.766	1.857	2.210	2.229	2.513	3.421	4.445	4.237	2.260	1.236	1.441	2.068	3.548
320.0	1083	1251	733.8	256.4	140.5	127.3	154.9	197.2	256.0	282.5	374.1	409.3	464.7	678.8	416.5	158.2	284.6	619.5	2797	9999.9	9999.9	416.9	22.67	12.74	6.716	5.167	4.061	5.890	3.420	2.759	2.615	2.012	2.110	2.121	2.068	2.033	1.746	1.523	1.700	1.727	1.742	1.757	2.169	2.411	2.659	3.554	3.731	3.890	2.837	1.709	1.200	1.033	0.969	0.932	0.944	0.963	1.151	1.174	1.136	1.342	1.590	1.696	1.950	2.157	2.260	2.171	2.205	2.507	2.493	2.697	3.106	4.334	4.350	2.980	1.714	1.357	1.581
325.0	1842	2223	1447	510.2	228.6	188.0	227.2	283.7	360.4	431.9	515.1	541.2	517.8	573.0	641.6	274.2	150.6	206.1	681.8	3794	9999.9	9999.9	62.93	18.37	8.791	6.148	4.802	6.612	3.654	2.814	2.795	2.305	2.154	2.041	2.105	2.125	1.937	1.818	2.000	2.066	2.332	2.577	2.780	3.279	4.484	5.584	6.321	6.918	5.015	2.928	1.992	1.631	1.287	1.328	1.174	1.278	1.414	1.505	1.568	1.997	2.095	2.342	2.468	2.630	2.983	2.989	3.054	3.079	3.040	2.935	2.620	3.375	4.094	4.560	3.780	2.218	1.427
330.0	2213	2749	1977	924.7	483.5	338.8	311.4	352.1	429.3	527.1	612.5	641.9	603.1	542.9	545.7	516.7	274.3	155.6	233.5	923.3	3506	9999.9	9999.9	1610	23.90	8.026	5.983	8.485	4.271	3.281	3.059	2.454	2.516	2.157	2.246	2.181	2.095	2.004	2.215	2.420	2.455	2.932	3.319	4.000	5.170	6.560	7.532	8.269	6.778	4.438	3.321	2.957	2.438	2.044	1.865	1.714	1.828	1.863	1.992	2.191	2.323	2.541	2.786	3.077	3.286	3.235	3.568	3.591	3.531	3.373	3.259	3.044	3.333	3.539	3.802	4.243	3.549
335.0	2738	3410	2626	1378	849.1	553.7	425.8	440.5	524.5	632.3	725.1	770.4	718.1	636.4	521.2	484.4	520.1	269.8	172.2	301.2	858.7	2473	9999.9	9999.9	433.8	24.86	8.227	12.01	5.317	3.554	3.842	2.656	2.815	2.305	2.506	2.519	2.370	2.445	2.268	2.688	2.814	3.421	3.924	4.741	6.524	8.249	8.773	10.17	8.612	5.974	4.849	4.704	3.756	3.436	2.725	2.458	2.389	2.299	2.420	2.591	2.844	2.959	3.521	3.511	3.679	3.982	4.183	4.336	4.101	3.938	3.978	4.013	3.442	3.460	3.252	3.513	4.093
340.0	2915	3591	2850	1606	1008	635.5	476.2	481.6	559.7	661.3	754.5	800.7	757.3	666.0	528.9	428.6	483.2	425.4	193.9	168.2	275.4	615.3	2766	9999.9	9999.9	378.6	14.88	15.06	6.469	4.513	4.160	2.876	2.805	2.626	2.575	2.746	2.546	2.657	2.383	2.721	3.150	3.670	4.085	5.066	6.518	8.207	9.472	10.64	9.611	6.702	5.559	5.138	4.489	3.964	3.344	2.764	2.598	2.473	2.676	2.773	3.050	3.260	3.597	3.627	3.775	4.261	4.233	4.511	4.349	4.216	4.055	3.853	3.830	3.535	3.190	3.333	3.249
345.0	2660	3363	2765	1671	1041	670.9	480.5	467.0	530.0	627.3	721.0	759.5	730.1	650.1	523.2	398.1	372.3	456.5	290.3	148.7	146.7	204.0	672.4	3260	9999.9	8763	53.68	22.68	8.045	5.188	4.493	3.453	3.029	2.681	2.423	2.443	2.424	2.586	2.651	2.650	2.877	3.347	4.045	4.808	6.263	7.512	8.644	10.33	9.157	6.816	5.480	5.513	4.494	4.246	3.573	2.739	2.658	2.500	2.605	2.721	2.944	3.014	3.411	3.536	3.590	4.142	3.982	4.240	4.201	4.108	3.994	3.885	3.918	3.571	3.097	2.923	2.784
350.0	2372	2958	2519	1645	1094	705.4	489.4	444.2	487.5	568.2	651.7	689.1	673.4	616.9	509.1	401.0	335.2	339.6	370.2	255.1	144.8	130.8	219.1	776.5	3039	8250	6654	1597	24.76	6.975	5.838	3.889	3.669	2.798	2.576	2.423	2.536	2.630	2.607	2.660	2.955	3.231	3.817	4.415	5.549	6.893	7.771	9.010	8.191	6.304	5.471	5.604	4.789	4.333	3.812	2.926	2.750	2.578	2.448	2.539	2.570	2.947	3.058	3.080	3.368	3.520	3.717	3.976	3.977	3.859	3.695	3.532	3.751	3.440	3.153	3.005	2.817
355.0	2145	2587	2267	1589	1131	745.5	527.1	432.7	446.0	504.1	570.8	615.6	620.5	578.9	496.4	416.2	354.6	314.6	306.5	364.2	254.5	149.7	141.1	235.8	721.9	1934	5075	9999.9	2395	27.17	7.973	5.054	4.241	3.246	2.868	2.950	2.943	2.723	3.011	3.081	3.087	3.222	3.783	4.018	5.231	6.179	7.028	7.562	7.156	5.626	5.239	5.370	5.122	4.606	4.019	3.156	2.933	2.678	2.641	2.671	2.491	2.739	2.799	3.142	3.060	3.061	3.130	3.517	3.628	3.420	3.380	3.653	3.412	3.151	3.221	2.906	3.090
360.0	1973	2285	2104	1533	1181	828.1	571.2	446.7	421.9	462.4	522.2	554.1	582.4	556.1	508.8	453.4	403.5	358.3	323.0	358.1	380.2	222.4	154.3	137.7	221.6	478.2	1334	9999.9	9999.9	381.7	19.73	6.277	5.096	3.725	3.154	2.979	3.247	3.073	3.425	3.446	3.487	3.658	3.762	4.115	4.818	5.780	6.432	6.828	6.796	5.340	4.971	5.398	5.270	4.548	4.098	3.649	3.174	2.766	2.436	2.494	2.570	2.488	2.542	2.609	2.881	2.797	3.028	3.140	3.401	3.384	3.311	3.385	3.463	3.372	3.312	3.328	3.542
365.0	1970	2146	2008	1566	1267	952.0	678.0	495.3	412.2	430.6	481.0	521.5	570.7	567.0	550.6	524.0	495.5	454.4	409.4	390.4	433.4	370.2	213.8	149.0	132.6	167.4	338.1	3373	9999.9	8694	326.9	9.883	6.117	4.617	3.820	3.452	3.495	3.640	4.045	4.187	4.138	4.253	4.339	4.438	4.707	5.554	6.004	6.315	6.118	5.136	5.024	5.817	5.349	5.101	4.642	4.159	3.838	3.252	2.778	2.668	2.519	2.432	2.496	2.739	2.456	2.954	2.731	2.976	3.270	3.394	3.398	3.586	3.434	3.488	3.907	3.661	3.792
370.0	2203	2213	2034	1750	1556	1244	893.1	592.1	436.9	410.0	452.9	520.0	593.1	634.3	659.6	672.3	665.5	646.8	597.2	545.4	501.4	489.6	385.7	231.9	157.0	126.9	129.6	794.5	2774	7126	9999.9	1339	21.16	6.351	5.149	4.641	4.750	4.732	5.263	5.318	5.469	5.509	5.436	5.276	5.452	5.697	5.791	6.484	6.366	5.476	5.335	6.452	6.401	6.159	5.847	5.302	4.846	4.213	3.698	2.982	2.702	2.474	2.356	2.457	2.528	2.821	2.754	3.059	3.257	3.442	3.610	3.888	3.876	4.260	4.526	4.731	4.809
375.0	2534	2336	2118	1975	1855	1573	1132	719.6	466.6	404.9	447.4	530.6	629.4	718.6	783.8	835.6	850.3	853.2	809.0	735.8	642.3	555.3	508.6	380.4	215.4	143.0	98.96	219.7	641.9	1640	5864	9730	2139	24.77	7.005	6.423	6.315	5.982	6.782	6.796	6.699	6.931	6.914	6.308	6.224	6.221	5.997	6.567	6.142	5.944	6.053	7.567	7.387	7.348	7.175	6.332	6.270	5.014	4.189	3.480	3.037	2.596	2.325	2.252	2.603	2.397	2.581	2.795	3.313	3.404	3.861	4.083	4.621	5.081	5.242	5.725	5.775
380.0	2737	2400	2168	2103	2051	1752	1302	803.2	488.6	403.1	444.4	540.0	651.4	770.8	871.5	943.1	989.4	980.8	948.8	861.2	741.3	615.4	526.1	465.0	285.4	165.7	101.4	97.77	170.4	382.9	1463	6423	9775	324.3	16.84	7.809	7.253	7.059	7.576	7.704	7.659	8.044	7.847	6.648	6.645	6.385	6.269	6.767	6.372	6.056	5.918	8.006	7.912	8.208	7.674	7.074	6.971	5.679	4.998	3.783	3.015	2.650	2.433	2.241	2.623	2.498	2.811	3.001	3.596	3.553	4.184	4.557	4.972	5.389	6.031	6.194	6.552
385.0	2864	2447	2201	2170	2184	1909	1395	861.3	512.6	417.0	451.7	550.7	688.4	818.6	926.7	1013	1072	1078	1040	944.6	814.2	673.1	540.1	466.7	365.9	200.6	114.0	77.89	69.73	106.3	345.0	1731	8111	7065	268.8	12.19	8.946	7.787	8.530	8.838	8.765	8.079	8.318	6.832	6.814	6.391	6.300	6.856	6.535	6.020	6.283	8.297	8.644	8.545	8.465	7.808	6.952	6.169	5.038	4.109	3.286	2.651	2.474	2.327	2.542	2.490	3.092	3.252	3.510	3.445	4.193	4.916	5.315	5.665	6.332	6.745	6.930
390.0	2892	2396	2208	2254	2255	2017	1497	938.0	569.6	465.0	515.0	632.5	760.6	894.8	1008	1087	1138	1151	1113	1015	887.7	736.7	589.9	467.1	389.2	294.6	163.8	96.25	67.04	60.10	107.5	411.3	2178	5557	6214	1110	22.12	10.12	9.566	9.604	8.997	9.113	8.510	7.538	7.049	6.829	6.392	6.924	6.614	6.023	6.614	8.551	8.634	9.072	8.559	8.146	7.661	6.437	5.244	4.294	3.418	2.723	2.497	2.414	2.665	2.669	3.008	3.402	3.568	3.873	4.693	5.123	5.479	6.008	6.546	7.211	7.612
395.0	2836	2306	2167	2216	2294	2077	1569	1026	680.7	618.2	698.7	811.4	934.8	1047	1135	1164	1198	1203	1159	1081	958.8	812.6	669.8	529.3	423.6	363.4	284.8	166.7	114.5	92.55	87.70	136.0	524.7	1302	3554	7745	1849	25.18	11.75	10.49	9.559	9.329	9.088	7.769	7.434	6.821	6.097	6.511	6.328	5.849	6.297	8.132	8.388	8.887	8.538	8.379	7.857	6.475	5.417	4.340	3.712	2.885	2.730	2.661	2.947	2.997	3.389	3.583	3.994	4.184	4.564	5.108	5.854	6.328	6.604	7.352	8.029
400.0	2842	2280	2125	2174	2288	2098	1616	1122	837.3	817.7	916.2	1051	1149	1237	1269	1257	1252	1231	1200	1121	1014	887.6	752.5	617.9	495.8	414.6	378.0	275.5	181.9	147.0	124.3	114.3	186.4	346.8	925.4	4928	7914	279.1	21.25	11.97	10.58	9.816	8.965	7.646	7.026	6.334	6.059	6.436	6.317	5.717	6.320	7.814	8.393	8.963	8.467	8.167	7.800	6.747	5.856	4.728	4.299	3.309	3.135	3.223	3.191	3.308	3.924	3.818	4.576	4.922	5.190	5.399	5.951	6.754	6.903	7.180	8.202
405.0	2657	2191	2037	2124	2232	2061	1652	1224	1012	1038	1182	1316	1406	1441	1412	1344	1287	1257	1226	1156	1064	955.3	850.2	715.5	601.0	490.3	440.8	398.2	274.5	215.1	180.0	151.1	141.7	159.1	272.4	1363	6397	4807	246.6	15.83	11.22	9.543	8.780	7.455	7.026	6.379	6.072	6.408	6.177	5.695	6.199	7.627	8.271	8.598	8.119	8.054	7.810	6.830	5.765	4.787	4.456	3.965	3.930	4.052	3.900	4.132	4.428	4.623	4.876	5.380	5.608	6.109	6.346	7.099	7.040	7.226	7.768
410.0	2441	2004	1868	1988	2103	2003	1661	1309	1161	1268	1456	1601	1649	1649	1549	1404	1287	1234	1209	1162	1092	1009	917.9	807.1	695.7	589.2	500.7	471.0	392.7	300.2	240.5	198.9	163.4	141.6	146.2	369.1	1733	3740	5423	1031	21.56	9.756	8.431	7.229	6.681	5.954	5.766	6.129	5.778	5.371	5.826	7.290	7.918	7.875	7.758	7.608	7.557	6.719	5.823	4.989	4.495	4.345	4.398	4.529	4.665	4.573	5.020	5.153	5.440	5.697	5.998	6.418	6.706	7.047	7.150	7.064	7.360
415.0	2188	1768	1693	1825	1927	1854	1591	1310	1228	1380	1583	1716	1735	1694	1560	1366	1216	1152	1131	1101	1053	992.7	922.2	831.9	728.4	627.7	528.2	477.8	416.5	368.9	277.4	220.5	177.2	144.0	121.0	149.2	431.1	878.5	2918	6949	1597	23.42	8.690	6.838	6.027	5.733	5.251	5.410	5.144	4.841	5.226	6.815	7.390	7.279	7.561	7.000	6.787	6.052	5.567	5.056	4.700	4.407	4.595	4.544	4.792	5.012	4.959	5.304	5.623	5.583	5.717	6.496	6.481	6.263	6.702	6.840	6.943
