Sample:	'1
File name:	Default_20230213_104721.FD3
Run date:	'10:41:00, 02/13/2023
Operator:	user
Comment:	'

Instrument
Model:	F-2700 FL Spectrophotometer
Serial number:	2190-003
ROM Version:	4J14000 07

Instrument parameters
Measurement type:	3-D scan
Data mode:	Fluorescence
EX  Start WL:	220.0 nm
EX  End WL:	600.0 nm
EX Sampling interval:	5.0 nm
EM  Start WL:	230.0 nm
EM  End WL:	650.0 nm
EM Sampling interval:	5.0 nm
Scan speed:	12000 nm/min
EX Slit:	5.0 nm
EM Slit:	5.0 nm
PMT Voltage:	700 V
Response:	Auto 
Corrected spectra:	Off
Contour interval:	50.000

Peak integration
Integration method:	Rectangular
Sensitivity:	1
Threshold:	1.000

Peaks
No.	ApexEX/EM(nm)	Height(Data)
1	240.0/260.0	71.28
2	245.0/265.0	118.7
3	245.0/365.0	 1079
4	245.0/530.0	-12.58
5	250.0/270.0	150.4
6	250.0/370.0	 1029
7	250.0/545.0	2.314
8	260.0/565.0	46.70
9	265.0/435.0	278.5
10	265.0/580.0	109.5
11	270.0/295.0	 2240
12	270.0/590.0	131.7
13	275.0/300.0	 2218
14	275.0/600.0	101.2
15	275.0/635.0	-9.705
16	285.0/395.0	297.8
17	285.0/410.0	280.6
18	290.0/640.0	1.666
19	300.0/335.0	376.5
20	305.0/340.0	414.2
21	310.0/345.0	363.9
22	320.0/360.0	313.4
23	325.0/365.0	310.4
24	330.0/370.0	269.5
25	335.0/375.0	278.7
26	340.0/385.0	280.4
27	345.0/390.0	252.3
28	350.0/395.0	244.0
29	355.0/405.0	244.2
30	360.0/410.0	216.0
31	365.0/415.0	207.4
32	370.0/425.0	196.9
33	375.0/430.0	174.0
34	380.0/435.0	159.1
35	385.0/445.0	144.4
36	400.0/465.0	90.80
37	415.0/485.0	52.33
38	425.0/495.0	37.01
39	430.0/505.0	27.78
40	435.0/510.0	20.87
41	445.0/525.0	12.94
42	450.0/530.0	10.66
43	455.0/535.0	7.851
44	460.0/545.0	6.504
45	465.0/550.0	4.009
46	470.0/560.0	2.110
47	490.0/370.0	-1.702
48	495.0/360.0	-1.416
49	500.0/365.0	-1.642
50	520.0/285.0	-1.653
51	535.0/295.0	0.448
52	540.0/300.0	0.434
53	550.0/305.0	0.365

Data points
	220.0	225.0	230.0	235.0	240.0	245.0	250.0	255.0	260.0	265.0	270.0	275.0	280.0	285.0	290.0	295.0	300.0	305.0	310.0	315.0	320.0	325.0	330.0	335.0	340.0	345.0	350.0	355.0	360.0	365.0	370.0	375.0	380.0	385.0	390.0	395.0	400.0	405.0	410.0	415.0	420.0	425.0	430.0	435.0	440.0	445.0	450.0	455.0	460.0	465.0	470.0	475.0	480.0	485.0	490.0	495.0	500.0	505.0	510.0	515.0	520.0	525.0	530.0	535.0	540.0	545.0	550.0	555.0	560.0	565.0	570.0	575.0	580.0	585.0	590.0	595.0	600.0
230.0	-439.0	-325.3	428.2	393.5	-134.3	-147.2	-126.3	-109.4	-96.89	-85.81	-74.37	-64.70	-53.88	-45.33	-36.49	-29.87	-24.58	-21.19	-18.50	-16.82	-15.22	-13.55	-12.48	-11.49	-10.70	-10.42	-9.830	-9.190	-9.243	-9.131	-8.614	-7.953	-7.542	-7.051	-6.613	-6.112	-5.756	-5.603	-5.512	-5.434	-5.120	-5.059	-5.169	-4.951	-4.786	-4.851	-4.254	-3.704	-2.646	-1.816	-2.728	-3.849	-3.736	-4.080	-4.033	-3.951	-4.193	-4.262	-4.075	-4.181	-4.373	-4.261	-4.275	-4.350	-4.237	-4.343	-4.415	-4.488	-4.504	-4.530	-4.525	-4.647	-4.644	-4.516	-4.642	-4.799	-4.750
235.0	-455.3	-338.9	14.27	 1028	827.8	-74.25	-128.3	-105.2	-95.92	-86.64	-75.50	-67.09	-51.60	-45.10	-34.86	-30.56	-26.08	-20.59	-17.79	-16.51	-15.39	-13.66	-12.72	-11.36	-11.28	-10.60	-9.736	-9.364	-9.397	-8.869	-8.934	-8.066	-7.644	-6.914	-6.695	-5.942	-5.467	-5.732	-5.256	-5.290	-5.073	-5.059	-5.123	-5.130	-4.400	-4.546	-3.997	-4.083	-3.602	-1.818	-1.139	-1.504	-2.854	-3.907	-3.914	-4.028	-4.332	-4.037	-4.247	-4.137	-4.242	-4.463	-4.387	-4.335	-4.359	-4.481	-4.460	-4.505	-4.578	-4.384	-4.553	-4.490	-4.702	-4.466	-4.554	-4.745	-4.800
240.0	-436.0	-343.4	-214.5	459.3	 1898	822.0	-85.18	-112.5	-99.88	-85.43	-75.21	-61.51	-51.62	-45.61	-35.91	-28.84	-24.54	-21.47	-18.41	-17.39	-15.33	-14.13	-12.13	-11.44	-10.99	-10.31	-9.909	-9.300	-9.057	-8.447	-9.083	-7.933	-7.479	-6.757	-6.671	-5.956	-5.999	-5.340	-5.621	-5.293	-5.161	-5.273	-5.262	-4.900	-4.663	-4.737	-4.141	-3.898	-3.824	-2.832	-2.517	-0.968	-0.020	-1.306	-3.436	-3.668	-4.030	-4.300	-4.175	-4.062	-4.261	-4.309	-4.136	-4.302	-4.338	-4.389	-4.433	-4.423	-4.479	-4.243	-4.601	-4.580	-4.309	-4.396	-4.589	-4.749	-4.793
245.0	-440.9	-340.7	-215.6	-36.41	 1134	 2306	659.8	-98.70	-97.26	-78.78	-75.09	-62.09	-53.82	-43.99	-37.83	-29.70	-24.84	-21.58	-19.32	-16.23	-15.15	-13.66	-12.57	-11.72	-10.75	-9.795	-9.823	-9.116	-9.601	-8.714	-8.956	-8.154	-7.412	-6.779	-6.716	-5.836	-5.571	-5.579	-5.178	-5.066	-5.233	-5.354	-5.124	-4.631	-4.763	-4.538	-4.124	-3.991	-4.032	-3.205	-3.079	-3.010	-1.348	1.334	0.551	-1.600	-3.809	-4.302	-4.138	-4.267	-4.510	-4.409	-4.074	-4.382	-4.564	-4.406	-4.484	-4.400	-4.420	-4.392	-4.511	-4.285	-4.426	-4.451	-4.533	-4.685	-4.773
250.0	-440.6	-328.7	-211.6	-108.5	161.8	 1182	 2260	 1173	102.2	-81.16	-74.87	-64.24	-51.68	-44.07	-35.46	-28.61	-24.26	-21.09	-18.42	-16.12	-14.68	-13.52	-12.20	-11.30	-10.39	-9.954	-9.446	-9.380	-9.314	-8.803	-8.465	-8.158	-7.631	-7.007	-6.565	-6.029	-5.745	-5.673	-5.304	-5.206	-5.080	-5.394	-5.222	-4.493	-4.631	-4.708	-4.101	-3.913	-3.751	-3.246	-3.294	-3.753	-3.146	-2.469	-0.955	0.895	1.588	0.965	-1.861	-3.764	-4.201	-4.451	-4.115	-4.398	-4.477	-4.351	-4.469	-4.533	-4.462	-4.451	-4.554	-4.380	-4.678	-4.502	-4.287	-4.858	-4.849
255.0	-462.0	-323.4	-246.7	-58.55	8.143	164.1	827.8	 3168	 1693	128.5	-72.03	-60.83	-48.62	-42.66	-35.97	-27.84	-25.41	-21.50	-17.61	-16.75	-14.65	-13.33	-12.00	-11.19	-10.29	-10.52	-9.275	-9.632	-9.508	-8.259	-8.623	-8.356	-7.337	-7.471	-6.490	-5.971	-5.984	-5.862	-5.667	-5.351	-5.280	-5.301	-5.089	-4.765	-4.930	-4.607	-4.242	-4.155	-3.702	-3.145	-3.181	-3.601	-3.636	-3.606	-3.150	-2.903	-2.330	1.184	4.972	4.459	-0.460	-4.485	-4.291	-4.490	-4.394	-4.453	-4.365	-4.421	-4.327	-4.544	-4.703	-4.011	-4.693	-4.296	-4.459	-4.831	-4.809
260.0	-432.5	-356.7	-274.8	-120.1	71.28	-14.33	110.2	 1415	 4141	 1441	37.98	-56.86	-48.69	-42.46	-35.07	-29.48	-25.00	-21.52	-18.16	-16.03	-15.02	-13.82	-12.20	-11.45	-10.65	-10.29	-9.585	-9.691	-8.270	-8.797	-8.682	-8.252	-7.398	-7.434	-6.991	-6.288	-5.744	-5.581	-5.825	-5.239	-5.121	-5.090	-4.954	-4.703	-4.670	-4.739	-4.163	-4.145	-3.618	-2.982	-3.310	-3.381	-3.357	-3.569	-3.662	-3.613	-4.008	-2.776	-0.099	5.066	7.472	3.416	-2.071	-4.167	-4.426	-4.310	-4.617	-4.303	-4.408	-4.536	-4.634	-4.512	-4.726	-4.334	-4.599	-4.863	-4.731
265.0	-421.3	-361.2	-287.8	-196.2	20.31	118.7	-37.94	280.2	 2169	 4828	 1155	-26.12	-47.56	-44.58	-35.87	-29.78	-24.46	-21.80	-17.26	-16.40	-14.39	-13.18	-12.71	-11.64	-10.78	-10.64	-9.481	-8.565	-8.965	-9.127	-8.067	-7.635	-7.694	-7.212	-6.571	-6.086	-5.789	-5.848	-5.686	-5.419	-5.230	-5.002	-5.172	-4.514	-4.769	-5.035	-4.110	-4.192	-3.657	-3.251	-3.344	-3.806	-3.499	-3.230	-3.486	-3.776	-4.343	-3.885	-3.019	-1.685	3.173	7.357	8.648	1.467	-3.297	-4.110	-4.579	-4.371	-4.283	-4.503	-4.513	-4.427	-4.543	-4.394	-4.716	-4.709	-4.902
270.0	-429.4	-367.0	-276.2	-208.8	-120.2	66.14	150.4	47.19	488.8	 2179	 4780	 3218	244.9	-37.11	-34.48	-28.45	-23.53	-20.93	-17.10	-15.98	-14.32	-12.85	-12.31	-11.88	-10.94	-10.19	-9.116	-9.060	-8.809	-9.237	-8.367	-7.737	-7.163	-7.140	-6.677	-6.007	-5.907	-5.730	-5.682	-5.377	-4.950	-5.231	-5.131	-4.717	-5.002	-4.779	-4.110	-4.059	-3.634	-3.276	-3.348	-3.953	-3.777	-3.626	-3.361	-3.094	-3.655	-3.868	-3.944	-3.761	-2.360	-0.539	3.215	6.277	8.498	6.054	-0.192	-3.725	-4.467	-4.383	-4.537	-4.440	-4.734	-4.590	-4.773	-4.708	-4.921
275.0	-425.1	-339.0	-255.6	-209.5	-149.0	-83.67	142.5	283.5	176.0	555.5	 1648	 5775	 5050	270.3	-28.81	-28.36	-23.61	-20.36	-18.00	-15.32	-14.48	-13.15	-12.41	-11.92	-10.31	-10.68	-9.178	-9.632	-9.027	-9.042	-8.259	-7.720	-7.225	-7.091	-6.686	-6.373	-5.823	-5.830	-5.503	-5.562	-5.091	-5.269	-5.036	-4.682	-4.664	-4.510	-3.819	-4.423	-3.845	-3.208	-3.198	-3.676	-4.111	-3.820	-3.705	-3.808	-3.228	-3.192	-3.475	-3.710	-3.652	-3.339	-2.401	-1.511	0.737	7.062	14.19	10.40	0.707	-4.026	-4.288	-4.638	-4.733	-4.631	-4.839	-4.547	-4.853
280.0	-430.0	-302.1	-239.5	-196.9	-144.5	-103.9	29.57	425.3	469.3	432.4	783.1	 2618	 7436	 3990	95.25	-25.05	-23.65	-19.17	-17.81	-15.31	-13.30	-13.23	-12.39	-11.69	-10.70	-10.33	-9.405	-9.282	-9.025	-8.782	-8.107	-7.892	-7.318	-7.139	-6.664	-6.111	-5.908	-6.034	-5.673	-5.653	-5.204	-5.320	-5.074	-4.665	-4.421	-4.373	-3.706	-4.264	-3.714	-3.039	-3.366	-3.829	-3.953	-3.875	-3.868	-3.954	-3.484	-3.237	-2.749	-2.914	-3.542	-3.446	-3.353	-2.732	-2.271	-0.312	4.751	13.57	18.04	7.016	-2.096	-4.506	-4.189	-4.455	-4.749	-4.785	-4.912
285.0	-411.7	-272.0	-223.6	-172.5	-140.4	-86.01	21.55	329.4	850.1	822.7	944.4	 1311	 3660	 7997	680.0	13.17	-21.94	-19.19	-16.90	-15.36	-13.71	-13.05	-12.65	-10.88	-10.63	-10.46	-9.269	-9.208	-9.033	-9.027	-8.408	-7.805	-7.048	-6.634	-6.770	-5.694	-5.957	-6.094	-5.583	-5.656	-5.122	-5.285	-5.427	-5.030	-4.323	-4.507	-4.251	-3.773	-3.474	-2.949	-3.067	-3.958	-3.908	-3.831	-3.668	-3.711	-3.867	-3.495	-3.078	-2.503	-1.653	-2.961	-2.627	-2.267	-2.661	-2.138	-1.183	2.202	10.18	18.23	15.38	1.845	-3.988	-4.613	-4.564	-4.982	-4.926
290.0	-384.5	-250.9	-184.7	-147.5	-115.2	-34.07	99.07	360.0	891.8	 1519	 1618	 1415	 1545	 3371	 5452	 2484	156.4	-16.70	-15.19	-14.37	-14.02	-12.31	-12.14	-10.71	-10.83	-10.01	-9.272	-9.355	-9.046	-8.527	-8.296	-7.792	-7.013	-6.477	-6.449	-5.746	-5.874	-5.783	-5.657	-5.709	-5.462	-5.304	-5.192	-4.652	-4.645	-4.396	-3.785	-3.821	-3.462	-3.168	-3.140	-3.937	-3.312	-3.713	-3.650	-3.560	-3.762	-3.482	-2.990	-2.737	-1.823	-1.685	-0.806	-0.952	-1.793	-1.589	-1.432	-1.661	-0.162	3.142	8.310	12.31	12.74	7.661	0.272	-4.020	-4.939
295.0	-362.8	-242.4	-149.9	-97.10	-62.41	-11.44	148.0	435.5	892.7	 1540	 2240	 1786	 1183	949.9	 1639	 5516	 3600	206.2	-13.28	-12.33	-13.01	-12.34	-12.67	-10.71	-11.15	-9.732	-9.400	-9.310	-8.631	-8.828	-8.848	-7.640	-7.257	-6.745	-6.538	-5.532	-5.353	-5.865	-5.638	-5.458	-5.352	-5.249	-5.373	-4.947	-4.649	-4.399	-4.193	-3.914	-3.340	-3.233	-3.101	-3.692	-3.521	-3.673	-3.514	-3.403	-3.904	-3.519	-3.095	-2.398	-1.933	-1.942	-0.300	0.448	0.305	-0.472	-1.033	-2.043	-2.407	-1.993	-1.220	-0.472	2.749	11.66	20.28	12.66	-0.037
300.0	-329.0	-226.4	-112.6	-71.74	-60.74	8.932	168.3	440.3	853.1	 1479	 2175	 2218	 1166	456.2	438.3	 2079	 6608	 2807	104.3	-10.69	-12.17	-11.33	-11.02	-10.42	-9.275	-9.944	-9.561	-8.971	-8.122	-8.571	-8.438	-7.826	-6.926	-6.357	-6.226	-6.161	-5.667	-5.582	-5.029	-5.229	-4.965	-5.003	-5.311	-4.720	-4.573	-4.377	-4.018	-3.956	-3.188	-3.051	-2.792	-3.553	-3.575	-3.614	-3.393	-3.471	-3.614	-3.439	-3.036	-2.048	-2.097	-1.433	-1.097	-0.258	0.434	0.406	-0.609	-1.473	-2.694	-3.307	-3.587	-3.024	-2.624	-0.353	7.364	19.81	21.33
305.0	-354.8	-217.4	-107.7	-73.86	-48.93	7.234	181.8	447.4	841.9	 1358	 1885	 2163	 1411	394.0	193.9	527.6	 2950	 7051	 2024	27.00	-10.45	-9.956	-10.88	-11.15	-10.17	-9.317	-9.306	-8.747	-8.308	-8.202	-8.464	-7.573	-7.338	-6.656	-5.814	-6.025	-5.749	-5.802	-5.278	-5.411	-5.084	-4.952	-5.117	-4.636	-4.459	-4.565	-3.784	-3.725	-3.190	-2.868	-2.903	-3.413	-3.523	-3.760	-3.484	-3.901	-3.519	-3.180	-3.005	-2.535	-2.039	-1.694	-1.426	-0.326	-0.248	0.191	0.365	-0.613	-2.350	-3.480	-3.566	-3.648	-3.807	-3.388	-1.857	3.353	15.09
310.0	-373.5	-241.4	-119.5	-63.56	-49.41	17.98	158.8	390.9	736.9	 1158	 1516	 1621	 1396	651.5	203.0	188.9	729.4	 2915	 5332	 2870	114.8	-7.509	-9.832	-9.538	-10.13	-8.639	-8.865	-9.065	-8.508	-8.241	-7.806	-8.158	-7.379	-6.578	-6.324	-5.636	-5.569	-5.760	-5.370	-5.125	-5.315	-5.324	-4.883	-4.922	-4.563	-4.381	-3.900	-4.000	-3.558	-2.968	-2.868	-3.608	-3.693	-3.676	-3.785	-3.626	-3.614	-3.407	-3.041	-2.899	-2.389	-1.840	-1.861	-1.176	-1.728	-1.260	-0.908	-0.924	-1.885	-2.870	-3.381	-3.837	-4.162	-3.879	-3.972	-2.538	-0.001
315.0	-382.1	-217.3	-84.87	-59.72	-44.29	10.64	130.3	323.5	605.0	893.4	 1207	 1212	945.3	774.6	443.9	149.6	211.5	687.0	 1579	 5298	 2324	164.2	-8.594	-8.103	-9.316	-8.494	-8.417	-8.183	-8.664	-8.476	-8.498	-8.007	-7.223	-6.769	-6.339	-5.931	-5.955	-5.729	-4.986	-5.383	-5.497	-5.499	-5.016	-4.998	-4.471	-4.365	-4.099	-3.968	-3.553	-3.114	-3.050	-3.366	-3.447	-3.623	-3.530	-3.557	-3.875	-3.740	-3.114	-2.827	-2.879	-2.573	-2.446	-1.993	-2.000	-1.812	-1.839	-2.382	-2.626	-2.312	-2.596	-3.343	-3.960	-4.209	-4.053	-3.789	-3.442
320.0	-422.0	-231.8	-115.5	-55.36	-6.879	29.15	117.3	287.8	505.0	766.7	976.0	977.1	748.5	582.8	635.8	256.2	115.7	199.6	379.6	 2006	 5947	 1989	90.76	-7.442	-8.204	-8.215	-8.310	-8.620	-8.534	-8.405	-8.149	-6.944	-6.785	-6.945	-6.229	-5.895	-5.524	-5.942	-5.181	-5.543	-5.368	-5.211	-5.054	-4.562	-4.756	-4.704	-3.852	-3.912	-3.444	-2.746	-3.344	-3.526	-3.398	-3.586	-3.575	-3.635	-3.608	-3.783	-3.510	-3.046	-3.009	-2.933	-2.680	-2.246	-2.278	-2.097	-2.417	-2.816	-3.164	-3.070	-2.923	-2.407	-3.311	-3.659	-4.334	-4.155	-4.314
325.0	-411.9	-244.3	-55.20	-33.33	34.34	64.41	160.8	257.9	457.3	639.4	819.9	839.8	634.0	430.9	533.3	486.9	142.5	96.77	118.0	481.9	 2768	 5987	 1548	35.45	-7.287	-7.899	-8.565	-8.511	-8.565	-8.207	-8.175	-7.897	-7.226	-7.043	-6.219	-6.032	-6.093	-5.801	-5.097	-5.273	-5.123	-5.307	-5.173	-4.668	-4.436	-4.660	-3.800	-3.961	-3.429	-2.843	-3.103	-3.512	-3.269	-3.537	-3.347	-3.486	-3.449	-3.751	-3.618	-3.022	-2.930	-2.902	-2.738	-2.910	-2.139	-2.648	-2.430	-2.640	-3.423	-3.533	-3.204	-2.716	-2.596	-3.085	-3.947	-4.279	-4.423
330.0	-380.9	-236.0	-14.51	70.20	127.3	202.1	227.9	325.0	419.7	541.1	688.5	688.6	545.0	388.0	359.9	445.7	348.5	141.5	72.87	138.6	663.9	 2536	 4636	 2624	94.04	-5.129	-7.206	-7.923	-7.440	-7.870	-8.004	-7.476	-6.901	-6.856	-5.984	-5.607	-5.636	-5.659	-5.470	-5.288	-4.971	-4.981	-5.032	-4.793	-4.505	-4.488	-3.897	-3.847	-3.340	-2.988	-3.060	-3.277	-3.182	-3.315	-3.176	-3.130	-3.350	-3.602	-3.337	-3.017	-3.205	-2.821	-2.978	-3.057	-2.668	-2.911	-2.688	-2.981	-3.327	-3.468	-3.349	-3.621	-3.547	-3.285	-2.892	-3.372	-3.636
335.0	-379.6	-170.6	18.80	246.5	320.9	407.5	408.2	454.1	454.1	521.3	566.4	573.6	490.4	385.8	308.7	286.5	376.5	344.5	109.3	75.43	182.8	583.5	 1426	 5042	 4053	136.3	-4.646	-6.850	-7.828	-7.354	-7.376	-7.256	-6.258	-6.685	-6.152	-5.904	-5.670	-5.971	-5.273	-5.429	-4.945	-5.090	-5.036	-4.984	-4.111	-4.533	-3.974	-3.877	-3.203	-2.680	-2.820	-3.095	-3.008	-3.321	-2.858	-2.795	-2.791	-3.227	-3.043	-3.153	-3.172	-2.993	-2.998	-2.995	-3.042	-3.161	-2.979	-3.206	-3.569	-3.428	-3.479	-3.691	-3.798	-3.486	-3.750	-3.430	-3.459
340.0	-387.1	-184.8	142.2	328.7	465.5	553.5	581.9	525.8	509.2	523.0	524.2	504.7	457.3	397.1	303.8	263.0	274.2	414.2	232.3	85.26	81.37	159.1	342.8	 1966	 6118	 1567	90.40	-5.390	-6.538	-7.337	-7.384	-7.333	-6.853	-6.526	-6.119	-5.773	-5.502	-5.683	-5.196	-4.989	-5.055	-4.841	-4.847	-4.615	-4.609	-4.363	-3.769	-3.869	-3.313	-2.657	-2.436	-3.027	-2.689	-2.788	-2.676	-2.731	-2.842	-2.836	-3.034	-3.129	-3.182	-2.943	-2.814	-3.315	-3.306	-3.115	-3.260	-3.639	-3.594	-3.315	-3.525	-3.723	-3.858	-3.563	-3.972	-3.819	-3.788
345.0	-357.1	-182.4	161.4	421.5	587.3	726.5	703.8	601.0	587.4	537.9	491.1	462.8	428.7	376.9	308.5	264.0	216.5	313.0	363.9	147.1	67.82	74.35	104.6	474.7	 2946	 5618	 1326	30.83	-5.424	-6.412	-7.172	-7.200	-6.295	-6.118	-6.287	-5.221	-5.557	-5.706	-5.434	-5.158	-5.351	-4.698	-4.741	-5.087	-4.755	-4.454	-3.949	-3.677	-3.021	-2.436	-2.334	-2.720	-2.296	-2.521	-2.346	-2.573	-2.257	-2.841	-2.733	-2.842	-3.085	-3.005	-2.551	-3.148	-3.173	-3.134	-3.528	-3.597	-3.065	-3.665	-3.563	-3.729	-3.783	-3.785	-3.755	-4.273	-3.799
350.0	-345.3	-160.5	173.3	493.0	712.8	838.3	864.5	726.4	646.9	544.1	476.3	422.9	388.4	365.8	320.2	265.6	214.7	218.9	298.4	297.6	140.5	72.26	63.97	133.5	712.4	 2516	 4893	 2186	77.58	-4.767	-5.929	-7.125	-6.352	-6.064	-5.886	-5.415	-5.492	-5.507	-5.279	-5.082	-5.088	-5.120	-4.981	-4.988	-4.675	-4.491	-3.816	-3.816	-3.090	-2.318	-2.210	-2.073	-2.241	-2.140	-2.150	-1.911	-2.515	-2.435	-2.414	-2.731	-2.726	-2.884	-2.653	-3.097	-3.417	-3.378	-3.468	-3.664	-3.328	-3.539	-3.751	-3.292	-3.852	-3.814	-3.679	-3.962	-3.967
355.0	-347.3	-165.4	215.8	538.9	832.9	 1012	985.3	823.9	668.1	572.3	454.0	407.1	347.7	357.2	319.9	272.6	231.0	216.4	207.8	275.1	293.2	127.8	70.37	75.26	189.1	583.6	 1611	 4530	 3348	106.8	-5.553	-5.712	-5.461	-5.286	-6.144	-5.278	-5.400	-5.632	-5.451	-4.973	-4.736	-5.252	-5.069	-4.812	-4.772	-4.659	-3.850	-3.691	-2.948	-2.279	-2.241	-2.115	-2.208	-1.915	-1.920	-1.747	-1.977	-2.328	-2.778	-2.715	-2.856	-2.757	-2.792	-3.164	-3.288	-3.425	-3.746	-3.723	-3.389	-3.467	-3.499	-3.521	-3.744	-3.768	-3.881	-4.144	-3.881
360.0	-325.5	-102.8	240.7	589.5	874.2	 1057	 1036	877.3	697.6	618.0	447.0	372.6	343.9	347.6	307.5	280.3	242.2	218.1	199.3	210.5	313.4	237.2	91.62	74.36	83.97	157.8	385.9	 1916	 5372	 1337	60.55	-5.312	-5.874	-6.140	-5.828	-5.079	-5.293	-5.393	-5.163	-5.364	-5.098	-5.250	-4.991	-5.000	-4.528	-4.733	-3.769	-3.547	-3.036	-2.242	-2.226	-2.489	-2.484	-1.633	-1.833	-1.416	-2.035	-2.211	-2.587	-2.549	-2.747	-2.524	-3.145	-3.023	-3.270	-3.372	-3.557	-3.490	-2.993	-3.545	-3.602	-3.563	-3.673	-3.764	-4.074	-3.889	-4.028
365.0	-314.8	-130.2	240.9	574.0	877.5	 1079	 1016	892.2	718.2	575.4	434.3	350.4	324.8	346.6	308.6	290.1	256.7	227.4	209.7	186.8	242.6	310.4	167.1	88.45	73.33	72.52	111.3	469.2	 2736	 5180	 1083	17.08	-4.780	-5.667	-5.286	-4.550	-5.114	-5.264	-5.482	-5.468	-5.057	-4.977	-4.860	-4.792	-4.602	-4.531	-3.644	-3.668	-2.613	-2.209	-1.910	-2.324	-2.240	-1.675	-1.898	-1.980	-1.642	-2.093	-2.721	-2.572	-2.526	-2.752	-2.997	-3.116	-3.227	-3.236	-3.457	-3.683	-3.611	-3.550	-3.563	-3.413	-3.608	-3.655	-4.152	-4.103	-3.987
370.0	-335.9	-167.8	201.0	569.9	924.5	 1018	 1029	859.9	689.0	561.4	411.6	331.4	322.9	339.4	315.5	285.6	261.5	237.3	226.1	203.4	201.0	252.0	269.5	165.0	90.80	72.97	64.87	130.9	672.7	 2530	 4247	 1994	61.20	-3.273	-4.863	-4.685	-4.916	-5.124	-5.001	-5.081	-4.833	-4.873	-5.044	-4.743	-4.473	-4.101	-3.696	-3.488	-2.996	-2.321	-2.074	-2.462	-1.834	-1.962	-1.702	-1.879	-2.070	-2.127	-2.644	-2.748	-2.853	-2.636	-2.995	-3.135	-3.097	-3.363	-3.162	-3.612	-3.687	-3.466	-3.582	-3.545	-3.521	-3.497	-3.712	-3.835	-3.981
375.0	-333.9	-136.4	204.8	513.2	802.4	 1006	 1011	826.6	646.9	535.2	392.8	325.5	313.1	317.9	310.6	279.5	258.8	257.6	236.3	217.6	209.5	205.6	242.3	278.7	152.5	92.74	68.51	67.18	177.1	584.8	 1527	 4628	 2894	80.06	-3.627	-4.522	-4.445	-5.057	-4.770	-5.093	-5.016	-4.772	-4.754	-4.494	-4.681	-4.032	-3.878	-3.423	-2.883	-2.571	-2.184	-2.528	-1.996	-2.060	-1.871	-1.934	-2.186	-2.254	-2.353	-2.376	-2.674	-2.654	-3.311	-3.000	-3.378	-3.429	-3.482	-3.366	-3.890	-3.360	-3.634	-3.726	-3.695	-3.367	-3.613	-3.852	-3.862
380.0	-352.4	-145.9	168.9	512.5	756.1	937.0	899.5	769.7	603.3	500.6	378.7	319.6	297.4	305.3	302.0	296.4	263.4	258.7	252.0	229.1	216.2	203.4	209.2	269.1	228.8	121.6	84.87	64.79	75.00	154.4	367.4	 2144	 5157	 1044	37.68	-3.494	-4.080	-4.438	-4.529	-4.632	-5.030	-4.986	-4.454	-4.658	-4.525	-4.251	-3.728	-3.451	-2.881	-2.628	-2.155	-2.400	-1.947	-2.061	-2.259	-2.004	-2.605	-2.035	-2.445	-2.680	-2.469	-2.803	-3.232	-3.415	-3.358	-3.380	-3.513	-3.351	-3.872	-3.441	-3.810	-3.724	-3.547	-3.628	-3.697	-3.881	-4.175
385.0	-365.1	-173.2	172.6	446.3	743.0	870.2	857.6	705.5	581.9	465.0	363.5	321.4	302.3	300.7	294.6	294.9	273.6	264.1	257.8	242.3	228.9	210.1	199.4	223.8	280.4	181.4	100.4	76.49	63.87	66.28	104.1	534.9	 2916	 4447	788.4	8.210	-3.501	-4.144	-4.447	-4.208	-4.968	-4.611	-4.926	-4.387	-4.412	-4.319	-3.839	-3.592	-2.974	-2.564	-2.345	-2.326	-2.054	-2.013	-1.872	-2.122	-2.566	-2.336	-2.316	-3.201	-3.118	-2.941	-3.261	-3.331	-3.311	-3.391	-3.551	-3.530	-3.426	-3.535	-3.482	-3.775	-3.699	-3.685	-3.334	-3.737	-3.886
390.0	-368.6	-171.8	83.98	390.2	651.5	735.3	764.0	615.4	513.9	436.3	350.3	304.0	278.0	292.3	286.4	286.5	270.3	277.6	259.7	248.1	238.5	223.8	206.9	201.2	233.4	252.3	164.8	97.67	75.30	57.81	56.44	141.0	730.3	 2336	 3516	 1505	41.78	-2.997	-3.810	-4.530	-4.437	-4.541	-4.534	-4.361	-4.676	-4.364	-3.536	-3.535	-3.090	-2.627	-2.364	-2.235	-2.067	-2.218	-2.109	-2.311	-2.496	-2.734	-2.387	-3.180	-3.207	-2.864	-3.276	-3.532	-3.483	-3.379	-3.532	-3.735	-3.745	-3.339	-3.637	-3.538	-3.590	-3.553	-3.733	-3.802	-3.881
