Sample:	'1
File name:	Default_20230619_161757.FD3
Run date:	'16:11:36, 06/19/2023
Operator:	user
Comment:	'

Instrument
Model:	F-2700 FL Spectrophotometer
Serial number:	2190-003
ROM Version:	4J14000 07

Instrument parameters
Measurement type:	3-D scan
Data mode:	Fluorescence
EX  Start WL:	220.0 nm
EX  End WL:	600.0 nm
EX Sampling interval:	5.0 nm
EM  Start WL:	230.0 nm
EM  End WL:	650.0 nm
EM Sampling interval:	5.0 nm
Scan speed:	12000 nm/min
EX Slit:	5.0 nm
EM Slit:	5.0 nm
PMT Voltage:	700 V
Response:	Auto 
Corrected spectra:	Off
Contour interval:	50.000

Peak integration
Integration method:	Rectangular
Sensitivity:	1
Threshold:	1.000

Peaks
No.	ApexEX/EM(nm)	Height(Data)
1	230.0/325.0	 2752
2	255.0/280.0	126.3
3	255.0/555.0	-134.9
4	260.0/285.0	265.1
5	260.0/565.0	-115.6
6	265.0/290.0	270.3
7	265.0/580.0	-86.75
8	285.0/320.0	*****   
9	285.0/630.0	404.2
10	290.0/640.0	414.1
11	310.0/410.0	136.3
12	315.0/420.0	126.7
13	320.0/360.0	384.5
14	325.0/365.0	318.0
15	335.0/375.0	188.5
16	340.0/385.0	172.4
17	345.0/390.0	136.8
18	350.0/395.0	134.1
19	355.0/405.0	129.1
20	360.0/410.0	105.9
21	365.0/415.0	102.5
22	370.0/420.0	87.65
23	375.0/430.0	75.31
24	380.0/435.0	71.35
25	385.0/445.0	62.79
26	390.0/450.0	50.40
27	395.0/455.0	45.16
28	395.0/495.0	1.260
29	400.0/460.0	37.89
30	405.0/470.0	28.10
31	410.0/475.0	23.08
32	415.0/485.0	20.44
33	420.0/490.0	14.22
34	425.0/495.0	11.34
35	430.0/505.0	8.856
36	435.0/510.0	5.484
37	440.0/515.0	3.733
38	445.0/525.0	2.824
39	450.0/530.0	2.162
40	455.0/540.0	0.825
41	460.0/330.0	-3.483
42	460.0/545.0	-0.527
43	465.0/325.0	-3.006
44	465.0/550.0	-1.573
45	490.0/590.0	-7.541
46	500.0/600.0	-8.619
47	515.0/285.0	-8.767
48	570.0/325.0	19.28
49	575.0/320.0	19.19

Data points
	220.0	225.0	230.0	235.0	240.0	245.0	250.0	255.0	260.0	265.0	270.0	275.0	280.0	285.0	290.0	295.0	300.0	305.0	310.0	315.0	320.0	325.0	330.0	335.0	340.0	345.0	350.0	355.0	360.0	365.0	370.0	375.0	380.0	385.0	390.0	395.0	400.0	405.0	410.0	415.0	420.0	425.0	430.0	435.0	440.0	445.0	450.0	455.0	460.0	465.0	470.0	475.0	480.0	485.0	490.0	495.0	500.0	505.0	510.0	515.0	520.0	525.0	530.0	535.0	540.0	545.0	550.0	555.0	560.0	565.0	570.0	575.0	580.0	585.0	590.0	595.0	600.0
230.0	-838.6	-612.8	 1223	 1134	-257.1	-296.5	-249.6	-214.2	-180.1	-156.9	-140.5	-123.9	-103.7	-87.23	-72.91	-61.68	-53.67	-47.74	-43.12	-38.45	-34.64	-32.22	-29.89	-27.34	-26.13	-24.56	-23.62	-22.99	-22.18	-22.09	-20.95	-20.04	-18.72	-17.19	-16.40	-15.12	-14.63	-14.34	-13.55	-13.36	-13.09	-12.97	-12.71	-12.38	-12.00	-11.64	-9.975	-8.943	-6.515	-5.378	-7.318	-9.631	-9.357	-10.03	-9.444	-10.19	-10.09	-10.24	-10.08	-10.15	-10.26	-10.13	-10.19	-10.37	-10.11	-10.17	-10.18	-10.36	-10.40	-10.50	-10.56	-10.39	-10.56	-10.70	-10.95	-10.91	-11.14
235.0	-822.3	-710.3	50.85	 2225	 1634	-141.8	-245.7	-210.0	-182.2	-159.7	-141.8	-118.5	-105.0	-89.26	-72.02	-62.83	-53.03	-47.13	-42.82	-38.50	-34.93	-32.04	-29.61	-28.22	-26.43	-24.77	-23.36	-22.48	-22.51	-22.51	-20.76	-19.62	-18.40	-17.46	-16.30	-15.10	-14.61	-14.32	-14.07	-12.91	-12.85	-12.74	-12.88	-12.18	-12.04	-11.38	-9.998	-10.19	-8.318	-5.801	-4.398	-5.486	-7.833	-9.730	-9.743	-10.34	-10.18	-10.23	-10.44	-10.20	-9.986	-10.32	-10.31	-10.50	-10.36	-10.30	-9.986	-10.05	-10.45	-10.57	-10.49	-10.52	-10.70	-10.48	-10.66	-10.83	-10.90
240.0	-792.6	-731.1	-432.6	826.1	 3506	 1541	-178.6	-207.3	-186.0	-153.5	-139.2	-121.0	-106.0	-88.07	-71.14	-61.52	-54.19	-45.77	-42.77	-39.02	-34.49	-31.45	-29.99	-28.52	-26.15	-24.06	-23.00	-22.78	-21.78	-21.95	-20.72	-20.04	-18.90	-17.47	-15.86	-15.10	-14.12	-14.48	-13.40	-13.49	-12.91	-13.20	-12.51	-12.60	-11.69	-11.74	-10.42	-10.15	-9.309	-7.656	-6.319	-3.678	-3.049	-6.110	-8.663	-9.827	-10.09	-10.30	-10.12	-10.07	-10.23	-10.29	-10.55	-10.19	-10.19	-10.13	-10.20	-10.54	-10.40	-10.65	-10.84	-10.55	-10.88	-10.34	-10.67	-11.31	-11.09
245.0	-817.7	-689.4	-554.2	-151.4	 1937	 4419	 1207	-179.5	-182.8	-159.1	-138.0	-121.3	-104.8	-87.97	-72.36	-58.61	-54.74	-46.93	-42.71	-37.88	-34.06	-32.14	-30.19	-28.30	-26.09	-24.93	-23.76	-23.19	-22.32	-21.81	-20.90	-19.73	-18.18	-17.37	-15.97	-14.93	-14.56	-14.50	-13.82	-13.96	-13.05	-13.13	-12.92	-12.20	-11.83	-11.70	-10.33	-10.04	-9.308	-8.253	-7.627	-7.825	-4.714	-1.100	-3.190	-6.887	-9.869	-10.32	-10.38	-10.35	-10.11	-10.23	-10.33	-10.19	-10.14	-10.45	-10.24	-10.39	-10.42	-10.58	-10.36	-10.74	-10.67	-10.54	-10.83	-11.10	-11.10
250.0	-852.7	-719.0	-517.7	-340.7	213.9	 2192	 4533	 2684	144.2	-153.8	-134.4	-119.4	-106.4	-87.54	-72.33	-60.33	-53.98	-47.45	-42.88	-38.63	-34.40	-32.53	-29.84	-27.88	-26.60	-24.91	-23.85	-23.32	-22.47	-21.89	-20.89	-20.18	-18.12	-17.46	-16.19	-15.12	-14.75	-14.57	-13.89	-13.52	-13.16	-12.83	-12.78	-12.18	-11.74	-11.60	-10.35	-10.35	-9.250	-7.990	-7.897	-9.244	-8.260	-7.209	-4.506	-3.056	-2.732	-4.588	-7.782	-9.964	-10.06	-10.00	-10.45	-10.38	-10.44	-10.46	-10.35	-10.49	-10.58	-10.55	-10.40	-10.66	-10.49	-10.68	-10.79	-11.13	-11.10
255.0	-874.2	-727.6	-579.8	-343.6	-160.1	267.1	 1561	 6294	 4543	153.5	-141.0	-118.6	-103.9	-87.05	-71.32	-60.48	-53.44	-47.73	-43.37	-37.65	-35.18	-32.25	-29.42	-27.84	-25.29	-24.55	-23.75	-23.15	-21.89	-22.21	-21.22	-19.56	-18.26	-17.84	-16.81	-15.10	-14.79	-14.72	-13.86	-13.10	-12.98	-13.06	-12.92	-12.02	-11.98	-11.54	-10.49	-10.69	-9.617	-8.172	-7.888	-9.340	-9.014	-9.489	-8.188	-8.533	-6.856	-3.456	-0.628	-2.257	-7.292	-9.989	-10.20	-10.47	-10.20	-10.53	-10.44	-10.35	-10.66	-10.65	-10.49	-10.46	-10.39	-10.53	-10.74	-11.00	-11.09
260.0	-852.4	-740.8	-605.6	-406.5	-180.7	-108.2	176.5	 2862	 8030	 1467	-47.05	-116.6	-100.7	-85.75	-70.74	-59.17	-53.01	-47.15	-41.53	-37.95	-34.99	-31.87	-29.74	-26.90	-26.08	-24.46	-23.17	-22.92	-21.93	-21.81	-21.26	-19.63	-18.68	-17.44	-16.73	-14.99	-14.35	-14.57	-13.79	-13.64	-12.89	-13.32	-12.23	-11.89	-11.85	-11.83	-10.14	-10.40	-9.390	-8.295	-8.125	-8.867	-8.968	-9.382	-9.149	-9.797	-9.347	-8.300	-5.838	0.801	0.189	-4.145	-8.210	-10.16	-10.43	-10.40	-10.36	-10.47	-10.42	-10.76	-10.65	-10.60	-10.45	-10.62	-10.77	-10.94	-10.64
265.0	-880.1	-754.7	-606.9	-446.2	-240.5	-90.56	-122.5	549.3	 4268	 6917	 1046	-87.08	-101.0	-87.54	-70.16	-59.73	-53.42	-46.51	-43.12	-37.84	-33.80	-31.71	-30.36	-27.90	-25.64	-25.16	-23.56	-22.56	-22.00	-21.12	-20.43	-19.86	-18.41	-17.76	-16.77	-14.91	-14.49	-14.22	-14.02	-13.58	-12.90	-13.29	-12.69	-12.38	-11.98	-11.82	-9.996	-10.20	-9.257	-8.652	-8.370	-9.744	-8.650	-8.980	-9.142	-9.962	-9.930	-9.850	-9.342	-6.517	-3.573	0.924	1.763	-5.812	-10.03	-10.30	-10.43	-10.44	-10.28	-10.52	-10.03	-10.66	-10.57	-10.50	-10.93	-11.10	-11.24
270.0	-881.0	-764.4	-609.0	-458.6	-328.4	-145.3	-9.991	13.99	920.4	 3234	 4545	 3856	150.5	-81.98	-69.75	-57.68	-51.76	-46.85	-41.90	-37.69	-34.62	-31.90	-29.45	-27.30	-25.83	-25.05	-23.76	-22.50	-22.40	-21.51	-20.66	-19.74	-18.44	-17.58	-16.39	-15.03	-14.13	-14.15	-13.92	-13.12	-13.24	-13.22	-12.56	-12.42	-11.82	-11.63	-10.17	-10.35	-9.252	-8.316	-8.334	-9.829	-9.104	-9.656	-9.085	-9.115	-9.495	-9.943	-10.02	-9.194	-8.632	-6.542	-3.129	-1.051	0.473	-2.197	-7.187	-9.705	-10.59	-10.56	-10.36	-10.60	-10.48	-10.53	-10.77	-11.11	-11.19
275.0	-904.1	-718.8	-598.7	-463.6	-356.9	-261.3	-63.02	121.4	117.6	621.6	 1430	 7893	 4094	95.16	-68.09	-56.58	-50.10	-46.19	-41.38	-37.47	-34.73	-31.30	-30.59	-27.65	-26.32	-24.60	-24.02	-23.06	-22.52	-21.14	-20.79	-19.29	-18.42	-17.51	-16.13	-15.09	-14.64	-14.14	-14.05	-13.60	-13.46	-13.01	-12.80	-12.63	-11.75	-11.34	-10.41	-10.27	-9.485	-8.186	-8.438	-10.05	-9.384	-9.960	-9.127	-9.709	-9.499	-9.139	-9.397	-9.912	-9.837	-9.518	-8.657	-7.788	-6.222	-0.736	5.218	2.960	-6.848	-10.26	-10.45	-10.44	-10.72	-10.60	-10.60	-11.04	-11.18
280.0	-887.1	-751.2	-598.3	-447.7	-360.0	-294.4	-192.8	126.3	122.7	47.31	248.5	 3021	 6530	849.5	-7.466	-55.59	-49.43	-44.97	-40.67	-37.79	-35.09	-31.67	-29.64	-27.83	-25.98	-23.79	-23.15	-22.85	-22.10	-21.74	-20.67	-19.29	-17.93	-17.78	-16.15	-14.96	-14.90	-14.10	-14.15	-13.46	-13.32	-13.42	-12.82	-12.24	-11.68	-11.39	-10.42	-10.13	-9.437	-8.173	-8.182	-9.846	-9.203	-10.13	-9.286	-10.20	-9.679	-9.349	-9.119	-9.650	-9.943	-10.20	-9.716	-9.601	-9.213	-7.803	-3.494	3.947	6.979	-1.549	-8.730	-10.56	-10.90	-10.65	-10.94	-11.19	-11.02
285.0	-812.9	-744.9	-613.2	-447.8	-350.8	-294.0	-232.6	-54.31	265.1	20.18	-21.56	652.1	 3035	 5342	615.6	-36.55	-48.82	-44.06	-39.87	-36.96	-34.23	-31.00	-28.59	-27.25	-25.91	-24.55	-23.45	-22.93	-22.36	-22.22	-20.48	-19.61	-18.02	-17.30	-16.15	-15.29	-14.76	-14.24	-13.84	-13.56	-13.45	-13.15	-12.89	-12.33	-11.73	-11.57	-10.28	-10.28	-9.429	-8.323	-8.170	-9.481	-9.260	-9.734	-9.497	-9.973	-10.20	-9.418	-9.790	-8.767	-8.809	-9.469	-10.03	-10.08	-9.931	-9.740	-8.784	-5.995	-0.308	5.365	3.771	-4.777	-10.09	-10.36	-10.69	-11.10	-10.89
290.0	-799.9	-720.8	-575.4	-430.5	-351.6	-294.8	-236.4	-160.3	42.00	270.3	109.5	138.3	724.2	 2478	 4172	 2403	111.9	-38.96	-38.60	-36.18	-33.84	-31.87	-28.60	-27.16	-25.24	-24.33	-23.35	-22.56	-22.46	-21.24	-20.13	-19.14	-18.02	-17.47	-16.04	-15.16	-14.54	-14.43	-13.73	-13.12	-13.16	-13.11	-12.99	-11.94	-11.87	-11.75	-10.34	-10.23	-9.175	-8.196	-8.221	-9.535	-9.434	-9.912	-9.338	-10.18	-10.22	-10.04	-9.921	-9.737	-9.108	-9.027	-8.987	-9.303	-9.838	-10.30	-9.828	-8.967	-7.871	-5.536	-1.419	2.250	2.507	-1.533	-6.390	-10.26	-11.22
295.0	-795.7	-633.0	-449.0	-346.0	-314.6	-268.3	-220.9	-150.1	-49.42	162.1	580.4	369.6	459.8	914.2	 1670	 5425	 3282	168.2	-28.19	-35.03	-32.72	-31.06	-28.64	-27.22	-25.83	-24.67	-23.67	-21.88	-21.64	-21.88	-20.57	-19.71	-18.41	-17.27	-16.25	-14.93	-14.29	-14.39	-13.72	-13.80	-13.11	-12.84	-12.47	-12.10	-11.33	-11.32	-10.29	-9.815	-8.963	-8.116	-7.954	-9.670	-9.377	-10.05	-9.423	-10.46	-10.16	-10.34	-10.19	-10.05	-9.612	-9.531	-8.890	-8.189	-8.279	-8.781	-9.255	-8.974	-9.120	-8.251	-7.373	-6.788	-4.885	1.461	11.30	4.811	-5.998
300.0	-609.4	-372.7	-60.64	-63.77	-177.9	-201.6	-163.5	-110.4	50.36	268.8	878.0	 1145	 1014	 1039	 1657	 3091	 6068	 2561	70.86	-30.62	-31.41	-29.96	-27.88	-26.90	-25.20	-24.24	-24.18	-22.19	-21.97	-21.76	-21.04	-19.64	-18.61	-17.71	-16.13	-15.08	-13.81	-14.29	-13.58	-13.47	-12.79	-13.38	-12.65	-12.18	-11.57	-10.96	-9.586	-9.223	-8.290	-7.277	-7.423	-9.470	-8.994	-9.972	-9.075	-10.04	-10.15	-10.13	-9.742	-9.801	-9.506	-9.278	-8.861	-8.167	-7.060	-6.531	-6.522	-7.160	-6.777	-6.624	-6.090	-6.372	-6.361	-4.078	1.777	11.37	10.38
305.0	-422.3	37.40	592.0	444.8	51.87	-97.02	-94.34	25.99	244.3	686.7	 1389	 2568	 3131	 3299	 3312	 3056	 4149	 6282	418.6	0.297	-28.99	-29.51	-28.19	-27.00	-26.09	-23.86	-23.48	-22.03	-21.87	-21.12	-20.68	-18.81	-17.72	-17.16	-16.15	-14.41	-14.13	-13.62	-13.30	-13.01	-12.50	-12.65	-11.99	-12.03	-10.63	-10.18	-8.748	-8.236	-7.378	-6.361	-6.933	-8.179	-8.501	-9.290	-9.002	-9.792	-9.775	-9.440	-9.057	-8.877	-8.751	-8.017	-7.495	-6.914	-5.933	-4.356	-2.439	-2.038	-1.690	-1.995	-1.515	-0.764	-1.535	-1.721	-1.771	0.176	5.797
310.0	-89.45	731.1	 1548	 1219	457.9	87.90	26.46	217.5	590.0	 1360	 2524	 4284	 6035	 6738	 6512	 5225	 3714	 3601	 4468	 1660	96.53	-26.64	-27.35	-25.35	-24.94	-23.50	-22.29	-21.78	-21.25	-21.31	-19.96	-19.11	-17.93	-16.71	-15.34	-14.33	-13.45	-13.55	-12.59	-13.04	-12.48	-12.11	-11.66	-11.20	-10.12	-9.390	-7.077	-6.776	-5.820	-5.151	-5.553	-7.378	-7.867	-9.138	-8.968	-9.539	-9.475	-9.269	-8.630	-8.187	-7.429	-6.804	-5.759	-4.035	-2.284	-0.744	1.179	4.348	5.531	7.093	6.897	7.523	6.094	4.227	2.265	1.048	-0.592
315.0	238.7	 1337	 2278	 1791	778.4	238.9	144.5	401.8	904.2	 1994	 3511	 5869	 8136	 9961	 9469	 7409	 4620	 2126	 1635	 4468	 2510	129.3	-24.65	-24.65	-23.99	-23.62	-21.89	-20.91	-21.02	-20.84	-20.70	-19.47	-17.50	-16.92	-15.22	-14.25	-13.89	-13.62	-12.46	-12.50	-11.98	-11.71	-11.56	-10.69	-9.641	-8.183	-6.416	-5.137	-4.034	-3.804	-4.399	-6.806	-7.097	-8.462	-8.811	-9.019	-9.203	-8.594	-8.520	-7.877	-6.479	-5.531	-3.377	-2.111	0.522	3.490	5.732	8.375	11.15	14.29	15.57	15.34	14.16	11.29	8.303	4.931	0.208
320.0	313.2	 1626	 2550	 2006	882.8	310.3	213.6	494.6	 1044	 2207	 3944	 6561	 8996	9999.9	9999.9	 8420	 5144	 1910	674.7	 1845	 4944	 1980	52.99	-22.76	-22.58	-23.06	-21.60	-21.42	-21.04	-20.88	-20.50	-18.89	-17.46	-15.91	-14.59	-13.78	-12.98	-13.17	-12.80	-12.50	-11.86	-12.39	-11.65	-10.66	-9.445	-7.390	-5.934	-4.662	-4.034	-3.190	-3.824	-6.553	-7.175	-7.969	-8.502	-8.624	-8.867	-8.194	-8.540	-7.727	-6.236	-5.068	-2.684	-1.725	1.985	5.411	7.854	10.09	13.99	15.46	18.32	19.19	17.47	14.54	10.64	6.391	1.089
325.0	331.5	 1814	 2752	 2220	871.7	323.5	259.1	512.0	 1067	 2259	 4079	 6616	 9198	9999.9	9999.9	 8877	 5237	 1892	483.1	500.1	 2440	 5086	 1385	0.864	-22.15	-22.66	-21.20	-20.73	-20.71	-20.71	-20.79	-17.91	-17.14	-16.43	-14.68	-13.40	-12.70	-13.04	-12.83	-12.52	-11.79	-11.91	-11.26	-10.47	-9.476	-7.301	-5.475	-4.102	-3.653	-3.006	-4.042	-6.178	-7.265	-8.184	-8.532	-8.298	-8.393	-8.635	-7.889	-7.104	-6.038	-4.211	-2.482	-1.489	2.220	4.204	8.199	9.921	14.02	16.37	19.28	18.07	18.24	15.28	11.35	8.198	1.158
330.0	226.6	 1469	 2390	 1984	822.8	271.9	226.6	451.3	 1019	 2091	 3833	 6115	 8428	 9821	 9785	 8212	 5110	 1843	458.7	207.7	609.4	 2306	 3744	 1240	85.74	-19.91	-20.79	-21.20	-20.40	-20.36	-20.64	-18.57	-17.24	-16.86	-14.58	-13.46	-13.00	-13.08	-12.61	-12.85	-11.84	-11.75	-11.43	-10.50	-9.619	-8.084	-5.669	-4.403	-3.483	-3.711	-4.637	-6.265	-7.685	-8.282	-8.537	-8.778	-8.838	-8.757	-7.879	-7.357	-5.932	-5.255	-3.594	-1.874	0.459	3.451	6.178	9.694	12.34	14.53	17.44	16.98	14.78	14.55	11.54	6.132	1.156
335.0	45.15	 1128	 1949	 1594	665.5	198.2	189.4	387.1	859.1	 1762	 3246	 5188	 7186	 8477	 8412	 6878	 4475	 1850	479.9	178.9	197.5	547.2	 1188	 3761	 2030	126.8	-19.57	-21.17	-20.62	-19.71	-19.97	-18.84	-17.69	-16.82	-15.30	-13.14	-13.29	-13.16	-12.53	-12.57	-11.73	-12.09	-11.87	-10.93	-10.30	-8.663	-7.047	-5.998	-4.278	-3.891	-5.120	-6.833	-7.826	-8.570	-8.385	-9.063	-8.881	-8.623	-8.548	-7.383	-6.492	-5.951	-4.622	-2.633	-1.081	1.696	3.141	7.107	8.324	10.12	12.06	12.04	10.80	10.27	6.607	3.832	0.023
340.0	-66.58	751.4	 1663	 1232	480.4	150.4	123.2	311.5	715.8	 1485	 2709	 4353	 6035	 7183	 7074	 5768	 3694	 1751	603.9	211.2	135.0	168.9	289.0	 1532	 4501	 1758	67.36	-19.18	-20.08	-20.89	-20.11	-18.61	-17.52	-15.51	-15.33	-12.68	-13.48	-13.50	-12.78	-12.45	-12.11	-11.66	-12.01	-10.74	-9.797	-9.256	-7.199	-6.081	-4.959	-4.804	-5.670	-7.810	-7.992	-8.942	-8.560	-9.266	-9.088	-9.160	-8.974	-8.075	-7.141	-6.272	-5.278	-3.067	-1.960	-0.455	1.852	6.105	5.932	8.304	8.824	9.419	8.253	6.398	4.275	2.421	-2.012
345.0	-173.8	590.9	 1338	 1017	386.2	103.3	70.70	242.6	590.4	 1227	 2232	 3592	 4937	 5925	 5804	 4749	 3021	 1452	723.1	279.3	141.2	108.8	93.14	364.9	 2240	 4841	 1286	14.07	-19.98	-20.42	-20.28	-18.47	-17.64	-15.61	-15.00	-13.89	-13.24	-13.42	-12.70	-13.04	-11.54	-12.08	-11.72	-11.08	-10.61	-9.693	-7.730	-7.127	-5.830	-5.452	-5.994	-7.711	-8.339	-9.018	-8.836	-9.098	-9.336	-9.685	-8.951	-8.549	-7.370	-7.206	-5.649	-4.573	-3.160	-2.292	0.071	3.038	3.721	4.492	5.335	6.283	4.599	4.152	2.049	-0.808	-3.420
350.0	-351.2	298.7	768.5	639.6	213.3	-3.913	10.33	141.2	422.0	895.7	 1653	 2642	 3680	 4397	 4339	 3564	 2293	 1065	602.9	441.5	212.5	105.2	61.74	94.76	528.9	 2222	 3447	 1871	79.73	-17.85	-19.48	-18.23	-17.51	-16.35	-15.03	-13.97	-13.34	-13.35	-13.31	-13.08	-12.30	-12.28	-12.32	-11.30	-10.34	-10.23	-8.026	-7.849	-6.369	-6.116	-6.340	-8.171	-8.333	-9.253	-8.684	-9.424	-9.496	-9.203	-9.136	-8.749	-7.989	-7.763	-7.193	-6.131	-5.192	-4.675	-2.897	-0.813	-0.446	0.642	1.667	1.777	1.088	0.754	-0.963	-2.837	-5.574
355.0	-484.1	3.954	408.8	293.9	65.84	-46.26	-37.38	63.65	272.3	629.4	 1126	 1837	 2583	 3131	 3070	 2519	 1665	803.1	412.6	415.2	367.5	145.4	62.61	35.57	119.4	491.1	 1102	 3749	 1782	115.7	-18.01	-17.57	-16.00	-16.18	-14.80	-14.05	-13.74	-13.86	-13.29	-12.91	-12.65	-12.32	-12.25	-11.82	-11.39	-10.50	-8.808	-8.696	-6.877	-6.566	-7.088	-8.681	-8.566	-9.644	-8.846	-9.434	-9.724	-9.502	-8.953	-8.943	-8.595	-8.498	-8.482	-7.535	-6.397	-5.412	-5.096	-3.793	-3.009	-2.641	-1.220	-1.370	-2.450	-2.018	-3.924	-5.174	-6.884
360.0	-580.2	-137.1	199.2	163.4	-39.83	-103.5	-68.90	-3.251	169.8	450.9	847.5	 1402	 1912	 2380	 2299	 1909	 1305	640.1	344.6	302.9	384.5	244.5	68.70	24.62	28.81	104.9	244.6	 1536	 4198	 1547	65.10	-16.98	-15.90	-16.43	-15.06	-13.95	-13.86	-14.11	-13.17	-12.57	-12.69	-12.80	-12.48	-11.77	-11.38	-10.29	-9.178	-9.062	-7.865	-7.141	-7.374	-8.955	-8.965	-9.536	-9.207	-9.595	-9.926	-9.594	-9.243	-9.329	-9.015	-8.989	-8.865	-8.196	-7.348	-6.942	-5.981	-5.575	-5.400	-4.511	-3.223	-4.390	-4.262	-4.415	-5.775	-6.425	-7.822
365.0	-614.0	-311.1	-42.68	35.07	-106.8	-152.4	-103.6	-29.16	99.32	336.3	646.3	 1044	 1471	 1795	 1802	 1506	 1033	527.4	310.2	239.0	281.2	318.0	125.0	27.03	9.011	20.57	47.90	352.6	 2116	 4037	 1214	21.88	-16.45	-15.70	-15.22	-14.53	-13.36	-13.98	-13.01	-13.07	-12.50	-12.40	-12.48	-11.81	-11.34	-10.71	-9.624	-9.038	-8.480	-7.415	-7.554	-8.780	-9.225	-9.698	-9.027	-9.640	-9.804	-9.521	-9.602	-9.884	-9.219	-8.851	-8.357	-8.538	-7.959	-7.458	-6.990	-6.964	-6.555	-5.723	-5.052	-5.563	-5.746	-6.406	-6.616	-7.492	-8.658
370.0	-653.1	-419.6	-170.2	-104.3	-146.9	-162.0	-122.2	-64.04	37.24	210.5	431.9	725.4	 1026	 1249	 1279	 1055	746.3	417.3	260.1	201.2	191.5	224.0	217.5	81.38	10.66	1.528	6.406	73.00	494.2	 1802	 3178	 1799	72.48	-14.18	-14.92	-14.48	-13.31	-13.74	-13.02	-13.10	-12.59	-12.44	-12.30	-11.72	-11.43	-10.74	-9.592	-9.337	-8.605	-7.442	-7.706	-9.163	-9.000	-9.848	-9.226	-9.730	-9.949	-9.812	-9.654	-9.484	-9.481	-9.347	-9.061	-8.901	-8.440	-8.518	-8.153	-7.925	-7.472	-6.994	-7.189	-7.107	-7.072	-7.168	-7.580	-8.111	-9.011
375.0	-695.8	-507.4	-328.6	-211.4	-207.5	-194.5	-140.2	-94.56	-0.329	105.3	263.5	478.7	684.2	830.0	837.9	734.4	543.6	309.5	207.9	170.1	145.6	127.6	160.7	188.5	53.07	3.632	-1.962	11.20	104.6	395.7	 1018	 3586	 2834	97.52	-13.70	-13.90	-12.98	-13.64	-13.32	-12.70	-12.31	-12.18	-12.46	-12.24	-11.45	-11.17	-9.416	-9.576	-8.754	-7.754	-7.756	-9.316	-9.015	-9.806	-9.069	-9.879	-9.689	-9.926	-9.626	-9.625	-9.710	-9.737	-9.629	-9.062	-8.876	-8.833	-8.615	-8.411	-8.129	-8.191	-8.220	-8.222	-8.210	-8.395	-8.411	-9.055	-9.800
380.0	-702.7	-582.5	-380.8	-271.8	-229.7	-212.3	-164.6	-104.3	-33.71	64.84	177.7	340.1	509.0	620.6	611.5	542.8	412.9	252.9	182.9	155.4	127.4	99.05	91.48	174.4	129.7	20.81	0.764	0.026	19.88	84.55	225.8	 1473	 4389	 1278	45.76	-13.20	-12.91	-13.57	-13.29	-12.92	-12.37	-12.39	-12.48	-12.16	-11.52	-11.16	-9.691	-9.839	-8.905	-7.886	-7.820	-9.190	-9.380	-9.642	-9.459	-10.06	-9.904	-10.02	-9.812	-9.455	-9.392	-9.912	-9.821	-9.494	-9.115	-8.958	-8.945	-8.688	-8.736	-8.609	-8.977	-8.679	-8.799	-8.699	-9.440	-9.698	-9.760
385.0	-754.2	-599.7	-410.2	-296.5	-258.2	-215.8	-176.7	-112.2	-56.11	24.12	118.1	241.3	360.4	479.0	479.1	421.7	333.2	218.0	169.7	146.4	116.0	86.11	68.86	104.6	172.4	71.45	7.812	2.059	2.907	14.68	46.02	342.2	 2214	 3756	924.4	3.647	-12.47	-13.43	-12.58	-12.73	-12.31	-12.71	-12.53	-12.12	-11.43	-11.59	-10.05	-10.09	-8.994	-7.817	-8.062	-9.264	-9.257	-9.791	-9.352	-10.02	-9.885	-10.32	-9.795	-9.510	-9.506	-9.953	-9.813	-9.600	-9.215	-9.312	-9.513	-9.484	-9.166	-8.949	-8.985	-9.243	-9.220	-8.748	-9.060	-10.04	-9.859
390.0	-806.6	-614.6	-446.5	-310.7	-270.0	-225.1	-179.7	-116.2	-83.77	-5.974	70.51	157.1	245.7	336.5	331.6	303.9	257.4	181.9	154.0	131.7	114.3	86.60	60.48	56.02	100.7	136.8	63.04	8.285	0.361	2.163	5.925	71.37	520.6	 1739	 2722	 1244	49.09	-12.49	-12.57	-12.82	-12.16	-12.60	-12.40	-12.07	-11.55	-11.47	-9.782	-9.934	-8.969	-7.719	-8.111	-9.349	-9.378	-9.942	-9.243	-9.794	-10.16	-10.05	-10.09	-9.614	-9.815	-9.900	-9.639	-9.586	-9.588	-9.550	-9.368	-9.637	-9.477	-8.964	-9.478	-9.303	-9.277	-9.390	-9.446	-9.872	-9.934
