Sample:	'1
File name:	t2025052210联四沟张僧河交汇处北.FD3
Run date:	'14:40:04, 05/23/2025
Operator:	Administrator
Comment:	'

Instrument
Model:	F-2700 FL Spectrophotometer
Serial number:	23B8-004
ROM Version:	4J14000 07

Instrument parameters
Measurement type:	3-D scan
Data mode:	Fluorescence
EX  Start WL:	220.0 nm
EX  End WL:	600.0 nm
EX Sampling interval:	5.0 nm
EM  Start WL:	230.0 nm
EM  End WL:	650.0 nm
EM Sampling interval:	5.0 nm
Scan speed:	12000 nm/min
EX Slit:	5.0 nm
EM Slit:	5.0 nm
PMT Voltage:	700 V
Response:	Auto 
Corrected spectra:	Off
Contour interval:	50.000

Peak integration
Integration method:	Rectangular
Sensitivity:	1
Threshold:	1.000

Peaks
No.	ApexEX/EM(nm)	Height(Data)
1	225.0/575.0	62.32
2	225.0/630.0	46.07
3	230.0/345.0	1467
4	230.0/605.0	50.05
5	230.0/620.0	49.56
6	240.0/405.0	1061
7	245.0/530.0	246.0
8	250.0/545.0	198.1
9	255.0/280.0	518.4
10	255.0/420.0	1023
11	255.0/435.0	1034
12	255.0/560.0	162.7
13	260.0/285.0	538.4
14	260.0/425.0	1022
15	260.0/570.0	123.9
16	265.0/435.0	1029
17	265.0/585.0	116.4
18	270.0/300.0	939.1
19	270.0/410.0	1027
20	270.0/440.0	1025
21	270.0/595.0	99.34
22	275.0/305.0	1224
23	275.0/380.0	994.4
24	275.0/610.0	91.97
25	280.0/310.0	1197
26	280.0/335.0	1172
27	280.0/625.0	83.58
28	285.0/315.0	1149
29	285.0/635.0	64.83
30	315.0/355.0	506.5
31	320.0/365.0	519.5
32	460.0/335.0	4.543
33	505.0/275.0	2.868
34	515.0/280.0	2.886
35	515.0/440.0	4.808
36	520.0/285.0	3.598
37	530.0/290.0	3.510
38	540.0/295.0	4.831
39	545.0/300.0	5.763
40	555.0/305.0	6.249
41	560.0/310.0	6.274
42	570.0/315.0	6.373
43	580.0/320.0	6.138
44	585.0/325.0	6.005

Data points
	220.0	225.0	230.0	235.0	240.0	245.0	250.0	255.0	260.0	265.0	270.0	275.0	280.0	285.0	290.0	295.0	300.0	305.0	310.0	315.0	320.0	325.0	330.0	335.0	340.0	345.0	350.0	355.0	360.0	365.0	370.0	375.0	380.0	385.0	390.0	395.0	400.0	405.0	410.0	415.0	420.0	425.0	430.0	435.0	440.0	445.0	450.0	455.0	460.0	465.0	470.0	475.0	480.0	485.0	490.0	495.0	500.0	505.0	510.0	515.0	520.0	525.0	530.0	535.0	540.0	545.0	550.0	555.0	560.0	565.0	570.0	575.0	580.0	585.0	590.0	595.0	600.0
230.0	49.63	1075	3053	918.9	47.08	8.578	7.348	6.124	5.291	4.773	5.017	4.484	4.134	3.402	2.610	2.586	2.045	1.880	1.701	1.624	1.437	1.389	1.316	1.211	1.031	1.022	1.008	0.964	0.903	0.885	0.820	0.756	0.707	0.657	0.638	0.583	0.598	0.559	0.505	0.456	0.508	0.565	0.544	0.466	0.463	0.435	1.472	5.970	11.12	8.039	2.829	0.688	0.351	0.341	0.307	0.290	0.322	0.329	0.338	0.310	0.326	0.308	0.296	0.317	0.324	0.293	0.338	0.324	0.324	0.322	0.328	0.349	0.300	0.295	0.301	0.328	0.326
235.0	73.87	304.6	1902	3678	619.2	83.39	9.345	7.189	6.884	5.616	4.829	4.346	4.391	3.077	2.993	2.554	2.335	2.201	1.627	1.534	1.522	1.206	1.468	1.285	1.059	1.026	1.090	1.023	0.974	0.903	0.851	0.680	0.714	0.715	0.591	0.612	0.645	0.531	0.543	0.515	0.453	0.472	0.570	0.548	0.607	0.462	0.658	1.683	4.439	8.513	12.50	13.41	6.199	1.426	0.361	0.336	0.303	0.358	0.330	0.302	0.311	0.289	0.307	0.321	0.289	0.280	0.333	0.329	0.347	0.350	0.363	0.380	0.334	0.331	0.264	0.316	0.369
240.0	107.7	138.1	565.2	3024	4276	511.0	43.99	8.794	7.238	6.257	5.509	4.966	4.661	3.635	3.670	2.619	2.588	1.953	1.816	1.459	1.557	1.456	1.376	1.342	1.210	1.042	0.982	1.025	0.920	0.933	1.025	0.662	0.706	0.720	0.717	0.719	0.564	0.598	0.535	0.605	0.450	0.479	0.517	0.551	0.641	0.625	0.588	0.713	1.324	2.614	6.676	17.15	21.71	15.09	5.177	0.936	0.357	0.372	0.352	0.349	0.321	0.287	0.374	0.322	0.296	0.295	0.294	0.324	0.315	0.301	0.302	0.333	0.326	0.354	0.272	0.291	0.368
245.0	87.73	160.1	187.8	993.3	4447	3894	394.5	24.31	8.905	6.967	6.391	5.600	5.062	4.234	3.146	2.944	2.657	2.011	2.171	1.433	1.628	1.602	1.289	1.273	1.205	1.119	1.083	1.017	0.892	0.861	0.855	0.729	0.667	0.656	0.574	0.579	0.533	0.608	0.520	0.530	0.474	0.490	0.529	0.534	0.552	0.629	0.858	0.747	0.661	0.902	1.823	5.803	15.43	25.81	25.48	13.55	3.464	0.539	0.374	0.369	0.364	0.344	0.354	0.339	0.314	0.378	0.302	0.282	0.420	0.284	0.307	0.306	0.396	0.304	0.270	0.283	0.385
250.0	47.24	124.6	203.9	307.0	1362	4019	5081	1478	102.1	10.54	8.179	7.188	5.817	4.383	3.726	3.075	2.479	2.306	2.152	1.782	1.657	1.475	1.306	1.323	1.228	1.094	1.099	1.083	1.007	0.976	0.927	0.785	0.721	0.752	0.626	0.668	0.620	0.604	0.580	0.550	0.495	0.463	0.506	0.480	0.527	0.545	0.676	0.801	0.948	0.908	0.884	1.639	3.905	8.220	15.49	23.64	29.21	28.13	13.25	4.305	0.663	0.341	0.389	0.413	0.390	0.324	0.369	0.303	0.344	0.328	0.311	0.324	0.342	0.305	0.332	0.342	0.330
255.0	38.29	56.41	135.6	288.6	392.1	1001	3814	8931	2143	129.1	12.64	9.813	7.805	5.350	4.460	3.521	2.600	2.516	2.299	2.087	1.754	1.611	1.577	1.455	1.280	1.054	1.233	1.136	1.159	0.941	0.856	0.809	0.789	0.713	0.697	0.637	0.585	0.571	0.587	0.597	0.513	0.561	0.530	0.476	0.488	0.498	0.486	0.442	0.658	0.829	1.231	1.478	1.507	2.212	3.805	5.812	10.50	26.99	48.06	31.05	21.02	4.851	0.588	0.475	0.462	0.389	0.374	0.311	0.465	0.376	0.388	0.463	0.378	0.336	0.306	0.373	0.389
260.0	40.20	42.33	63.13	223.8	315.2	285.0	1106	6556	9999.9	1710	77.72	13.16	9.611	6.955	5.193	3.616	3.536	3.126	2.636	2.136	1.985	1.880	1.532	1.364	1.558	1.252	1.196	1.084	1.045	1.021	0.918	0.849	0.850	0.681	0.734	0.614	0.709	0.572	0.628	0.605	0.500	0.536	0.537	0.576	0.552	0.439	0.460	0.403	0.501	0.562	0.850	1.531	1.659	1.367	1.237	1.620	2.785	7.315	20.28	41.47	64.88	30.90	17.12	2.635	0.528	0.502	0.387	0.353	0.430	0.415	0.395	0.412	0.394	0.388	0.316	0.481	0.440
265.0	45.85	34.79	36.23	102.1	313.0	251.3	295.3	2056	9474	9999.9	1286	33.39	13.24	9.327	6.653	4.926	4.168	2.993	2.608	2.402	1.959	2.083	1.831	1.452	1.341	1.386	1.245	1.277	1.195	1.076	0.961	0.895	0.797	0.729	0.769	0.632	0.678	0.693	0.671	0.603	0.489	0.525	0.612	0.496	0.520	0.503	0.476	0.385	0.452	0.425	0.491	0.879	1.483	1.842	1.626	0.861	1.071	2.101	5.062	12.29	33.84	62.42	78.34	28.15	11.59	1.167	0.485	0.439	0.408	0.492	0.412	0.409	0.400	0.379	0.401	0.384	0.373
270.0	57.06	47.94	38.33	46.98	143.3	318.3	294.1	521.4	2783	8748	9999.9	4508	80.56	15.46	9.227	6.844	4.933	4.103	3.130	2.684	2.261	2.163	1.901	1.608	1.554	1.513	1.188	1.375	1.204	1.117	1.031	1.058	1.035	0.867	0.793	0.697	0.684	0.734	0.635	0.636	0.601	0.638	0.667	0.524	0.636	0.575	0.536	0.521	0.438	0.413	0.433	0.484	0.701	1.103	1.582	1.964	1.766	1.445	1.685	3.238	8.217	17.75	35.67	53.51	72.01	60.96	18.80	9.213	1.435	0.545	0.426	0.424	0.416	0.399	0.436	0.409	0.436
275.0	86.81	79.76	63.55	52.91	64.48	140.8	397.0	380.6	680.6	2086	6325	9999.9	6521	98.03	14.75	10.28	7.278	5.067	3.709	3.534	2.519	2.512	2.048	1.823	1.851	1.826	1.594	1.494	1.423	1.291	1.196	1.155	0.930	0.991	0.952	0.840	0.868	0.802	0.576	0.722	0.679	0.651	0.696	0.711	0.744	0.690	0.637	0.716	0.519	0.520	0.491	0.547	0.530	0.686	0.824	1.055	1.884	2.868	2.268	1.667	2.424	4.466	8.550	12.69	20.52	40.45	84.42	106.7	30.18	12.75	1.160	0.512	0.530	0.505	0.450	0.495	0.481
280.0	142.2	124.5	102.5	71.11	56.85	79.37	237.2	518.4	346.7	538.3	1700	8913	9999.9	1145	62.79	13.39	8.468	6.624	4.842	4.138	3.308	2.948	2.378	2.057	1.943	1.911	1.855	1.435	1.423	1.250	1.431	1.202	1.009	1.086	0.916	0.900	0.867	0.822	0.637	0.774	0.627	0.787	0.709	0.722	0.694	0.850	0.784	0.760	0.650	0.527	0.562	0.595	0.590	0.589	0.679	0.684	1.059	1.888	2.809	2.886	2.082	1.641	2.567	3.506	5.361	10.17	27.63	66.79	105.0	108.7	26.06	7.332	0.677	0.575	0.500	0.575	0.514
285.0	177.1	197.0	155.0	105.7	72.46	70.83	123.1	379.1	538.4	277.7	502.2	2538	9999.9	9999.9	852.0	31.48	11.76	8.115	6.172	4.644	3.636	3.003	2.770	2.216	2.088	1.849	1.791	1.399	1.594	1.381	1.355	1.327	1.075	1.030	0.979	0.971	0.924	0.852	0.875	0.819	0.733	0.887	0.695	0.841	0.776	0.858	0.897	0.842	0.872	0.671	0.728	0.666	0.689	0.649	0.648	0.674	0.762	0.985	1.500	2.671	3.598	2.667	1.640	1.626	2.053	3.080	7.021	17.01	39.13	86.08	119.2	95.59	20.66	3.372	0.633	0.605	0.569
290.0	251.3	296.8	266.4	181.1	117.0	103.9	116.9	211.1	470.8	588.5	397.6	782.8	2881	9747	9999.9	3219	52.28	12.62	7.958	5.842	4.282	3.643	3.182	2.769	2.403	2.149	1.859	1.662	1.737	1.491	1.405	1.401	1.195	1.201	1.089	1.058	1.068	0.971	0.988	0.929	0.820	0.856	0.784	0.896	0.902	1.111	1.113	1.157	1.117	0.977	0.927	0.891	0.832	0.804	0.801	0.808	0.900	0.928	1.110	1.513	2.245	2.967	3.510	2.914	2.234	2.019	2.890	5.126	10.01	21.76	41.17	68.48	86.17	68.84	62.77	14.74	4.489
295.0	327.8	402.9	380.7	268.3	174.4	153.6	163.5	203.4	304.3	588.6	831.1	564.7	932.6	2410	5287	9999.9	4755	63.04	11.97	7.982	5.550	4.614	3.623	3.145	2.604	2.641	2.219	1.903	1.795	1.566	1.455	1.370	1.247	1.206	1.033	1.017	1.167	1.157	1.086	1.022	0.937	0.860	0.989	1.132	1.098	1.111	1.337	1.504	1.476	1.379	1.151	1.236	0.995	1.011	0.935	1.006	1.058	1.184	1.241	1.336	1.730	1.862	2.474	3.688	4.831	4.084	2.687	2.924	4.251	6.329	10.56	16.62	21.45	28.80	73.72	117.7	97.72
300.0	382.5	478.4	485.6	335.4	233.7	206.7	217.0	257.5	324.5	494.3	939.1	874.2	621.4	831.1	1461	7493	9999.9	692.2	40.53	10.67	7.904	5.493	4.515	3.552	2.999	2.867	2.519	1.939	1.952	1.805	1.611	1.418	1.444	1.278	1.099	1.108	1.075	1.195	1.190	1.022	1.003	1.082	1.111	1.070	1.294	1.347	1.439	1.629	1.777	1.480	1.340	1.282	1.280	1.221	1.048	1.184	1.414	1.414	1.557	1.639	1.886	1.866	2.310	2.741	4.167	5.763	5.361	3.712	3.366	3.530	4.134	5.411	6.226	7.830	20.09	51.43	103.4
305.0	415.5	553.4	552.0	405.8	280.4	254.8	284.9	332.1	418.3	542.5	835.1	1224	819.4	592.1	587.5	2081	9999.9	9999.9	552.2	21.25	9.652	6.584	5.441	4.175	3.136	3.007	2.672	2.412	2.132	1.845	1.676	1.620	1.345	1.402	1.149	1.184	1.125	1.378	1.205	1.201	1.093	1.147	1.093	1.197	1.536	1.533	1.671	1.897	2.070	1.669	1.499	1.474	1.401	1.300	1.374	1.292	1.603	1.693	1.780	2.081	2.335	2.420	2.673	2.976	3.632	4.646	5.706	6.249	5.205	3.655	3.361	3.433	3.207	3.318	5.879	13.01	30.34
310.0	480.0	623.3	633.5	460.7	333.7	312.5	347.5	409.1	502.4	635.7	799.1	1087	1197	796.8	499.3	673.6	2688	8337	9999.9	2234	36.22	9.533	6.858	5.287	4.008	3.520	2.787	2.514	2.524	2.059	1.752	1.636	1.553	1.419	1.270	1.263	1.267	1.340	1.220	1.286	1.064	1.193	1.221	1.377	1.503	1.659	2.000	2.120	2.112	1.900	1.606	1.673	1.737	1.456	1.583	1.541	1.898	2.002	2.145	2.320	2.525	2.863	3.141	3.504	3.699	4.053	4.576	5.511	6.274	6.069	4.988	3.811	3.096	2.819	3.033	4.434	7.961
315.0	546.6	699.5	705.2	530.4	383.9	355.5	395.4	470.4	567.9	709.4	860.7	1005	1109	1149	665.0	418.1	768.5	1991	4968	9999.9	3373	42.21	9.912	6.910	5.194	3.803	3.248	2.785	2.526	2.248	1.786	1.882	1.667	1.321	1.409	1.311	1.218	1.210	1.241	1.330	1.060	1.388	1.345	1.436	1.662	1.977	2.142	2.350	2.373	2.113	1.843	1.889	1.772	1.646	1.723	1.817	1.990	2.076	2.585	2.442	2.764	2.981	3.508	3.605	3.929	4.364	4.646	5.027	5.115	5.236	6.373	6.232	4.540	3.263	2.705	2.665	3.265
320.0	587.3	791.7	821.0	610.7	429.5	392.0	430.8	511.3	618.2	753.2	913.4	1040	1056	1116	940.6	450.1	376.4	575.1	1261	6806	9999.9	516.5	27.21	8.955	6.467	4.439	3.963	3.121	2.734	2.680	1.880	2.093	1.800	1.607	1.302	1.462	1.368	1.431	1.303	1.313	1.157	1.292	1.395	1.475	1.659	2.008	2.299	2.364	2.715	2.248	2.043	2.014	1.976	1.826	1.983	1.863	2.317	2.441	2.770	2.796	3.093	3.341	3.563	3.568	4.102	4.331	4.948	4.885	5.125	5.201	5.181	6.012	6.138	5.014	3.491	2.579	2.459
325.0	611.3	902.5	1018	758.6	515.4	432.6	459.8	553.0	661.4	804.7	964.4	1084	1087	1020	1026	638.9	334.4	287.1	375.1	1824	9112	9999.9	420.3	15.36	7.916	5.507	4.462	3.619	2.980	2.938	2.325	1.972	1.857	1.654	1.394	1.496	1.394	1.372	1.363	1.332	1.211	1.397	1.347	1.536	2.072	2.309	2.432	3.096	3.329	2.777	2.509	2.512	2.135	1.944	2.046	2.026	2.377	2.417	2.655	2.914	3.131	3.623	3.620	3.968	4.187	4.661	5.143	5.273	5.232	5.079	4.871	5.273	5.944	6.005	5.171	3.896	2.628
330.0	718.0	1093	1243	979.4	659.4	508.5	512.6	599.2	697.6	853.2	1017	1135	1142	1030	919.2	795.2	503.3	277.3	212.1	497.1	2425	7501	9775	1751	28.51	8.144	5.577	4.330	3.730	3.040	2.609	2.205	2.032	1.838	1.620	1.466	1.346	1.398	1.317	1.384	1.231	1.375	1.474	1.722	2.032	2.556	2.798	3.506	3.995	3.489	3.089	3.197	2.626	2.369	2.365	2.265	2.486	2.579	2.677	3.054	3.289	3.666	3.931	4.308	4.760	4.934	5.386	5.381	5.768	5.419	5.326	5.162	5.224	5.081	4.979	4.946	4.121
335.0	753.6	1141	1356	1118	764.4	586.2	554.7	634.5	740.0	887.8	1054	1161	1172	1065	894.8	706.6	673.1	420.3	226.5	233.1	626.0	1762	5023	9999.9	2696	33.42	8.307	6.078	4.375	3.383	2.993	2.671	2.156	2.013	1.712	1.463	1.604	1.517	1.646	1.337	1.324	1.460	1.747	1.763	2.122	2.656	2.977	3.837	4.543	3.949	3.457	3.752	2.959	2.786	2.690	2.479	2.709	2.930	3.055	3.202	3.487	3.623	4.236	4.510	4.843	5.016	5.372	5.525	5.735	5.672	5.691	5.274	5.081	4.785	4.315	4.094	4.193
340.0	794.3	1230	1457	1216	846.5	639.7	592.6	655.2	750.1	897.3	1053	1165	1171	1070	895.9	686.0	620.2	573.2	302.0	203.6	252.9	474.5	1274	6912	9999.9	430.2	21.04	7.511	5.022	4.102	3.373	2.730	2.271	1.737	1.812	1.595	1.482	1.401	1.587	1.344	1.326	1.495	1.718	1.779	2.236	2.552	3.258	3.801	4.262	3.970	3.515	3.730	3.466	3.062	2.737	2.690	2.750	2.907	3.190	3.375	3.507	3.845	4.327	4.688	5.150	4.971	5.119	5.439	5.579	5.690	5.642	5.757	5.088	4.878	4.447	3.982	4.066
345.0	807.0	1216	1467	1270	904.0	677.3	631.6	672.0	759.3	902.0	1036	1141	1154	1063	900.9	688.1	563.5	579.0	450.2	241.2	196.1	212.1	359.5	1894	8833	9026	350.4	11.60	6.610	4.821	3.688	3.014	2.399	1.961	1.869	1.627	1.514	1.500	1.576	1.322	1.339	1.448	1.600	2.062	2.240	2.636	3.064	3.753	4.263	3.959	3.653	4.102	3.614	3.077	3.056	3.083	3.024	3.079	3.271	3.283	3.632	3.906	4.207	4.405	5.192	4.989	4.985	5.442	5.692	5.665	5.592	5.529	5.277	4.965	4.634	4.060	3.908
350.0	761.4	1126	1382	1218	928.3	735.1	668.9	696.9	777.3	885.8	1010	1093	1092	1026	891.1	709.8	568.2	509.2	517.8	396.5	247.4	197.3	190.9	501.7	2431	6899	6292	1462	23.99	6.736	4.723	3.576	2.841	2.235	2.079	1.753	1.606	1.440	1.394	1.407	1.388	1.338	1.558	1.846	1.971	2.476	2.989	3.678	4.046	3.930	3.779	4.116	3.661	3.408	3.132	3.108	3.020	3.165	3.267	3.589	3.727	3.933	4.084	4.431	4.773	4.723	4.868	5.247	5.378	5.398	5.413	5.330	5.059	4.857	4.626	4.362	3.896
355.0	719.3	1059	1288	1184	934.1	794.6	734.3	734.3	796.5	882.2	992.2	1056	1048	994.5	887.2	734.0	607.9	522.5	481.1	506.5	392.7	253.3	200.4	226.4	620.9	1624	4258	9675	2169	27.65	7.007	4.758	3.391	2.689	1.804	1.847	1.690	1.608	1.573	1.411	1.409	1.435	1.448	1.666	1.949	2.212	2.789	3.477	3.612	3.569	3.597	4.054	3.741	3.636	3.605	3.062	3.488	3.457	3.326	3.663	3.928	3.885	4.206	4.363	4.780	4.685	4.830	4.880	5.312	5.227	5.300	5.133	5.136	4.738	4.624	4.329	4.160
360.0	697.6	1017	1225	1158	947.6	819.6	768.0	774.6	816.9	894.3	981.7	1032	1031	973.3	876.1	745.9	636.5	551.3	491.8	492.6	506.3	341.0	239.9	193.4	242.6	433.3	1126	6635	9130	388.6	15.13	6.212	4.208	3.071	2.143	1.892	1.876	1.625	1.717	1.403	1.388	1.419	1.428	1.639	1.880	2.304	2.621	3.382	3.577	3.669	3.417	3.865	3.741	3.466	3.593	3.150	3.529	3.388	3.890	3.774	4.063	4.202	4.383	4.375	5.008	4.687	4.728	4.777	5.089	4.914	5.158	4.773	4.880	4.863	4.946	4.232	4.546
365.0	684.1	936.5	1181	1135	970.0	853.8	792.5	793.9	840.3	909.5	974.2	1015	996.9	959.0	873.9	761.5	663.6	591.5	529.9	488.3	519.5	460.9	296.6	222.1	185.3	189.0	316.7	1886	8270	7549	304.9	9.981	5.384	4.049	2.592	2.253	2.088	1.846	1.639	1.526	1.396	1.602	1.487	1.731	1.750	2.268	2.459	3.141	3.472	3.366	3.378	3.809	3.962	3.515	3.701	3.361	3.589	3.798	3.532	3.809	3.856	4.209	4.218	4.419	4.644	4.498	5.128	4.618	4.846	4.830	4.765	4.709	4.699	4.646	4.848	4.364	4.701
370.0	639.2	893.0	1123	1101	985.4	900.8	836.2	832.3	867.3	922.8	976.1	999.1	983.2	945.9	862.9	768.6	695.1	632.9	580.7	529.3	511.2	518.7	432.0	297.3	221.3	176.7	167.5	490.6	2350	6445	5857	1279	20.78	5.913	3.511	2.667	2.242	2.029	1.724	1.594	1.528	1.599	1.463	1.666	1.758	2.174	2.411	3.016	3.264	3.372	3.301	3.864	3.885	3.851	3.798	3.486	3.703	3.832	3.755	3.793	3.912	4.116	4.369	4.460	4.577	4.709	5.004	4.616	4.814	4.728	4.900	4.837	4.965	4.713	4.852	4.508	4.468
375.0	594.8	853.4	1087	1082	1019	935.5	884.6	879.2	886.2	932.4	985.1	987.8	986.3	941.2	861.2	775.1	727.6	673.7	623.0	586.3	540.4	514.6	511.5	426.4	290.1	224.1	183.0	220.4	600.0	1539	4340	8550	1822	23.29	5.583	3.704	2.847	2.332	1.887	1.771	1.551	1.476	1.473	1.836	1.885	2.156	2.384	2.844	3.152	3.167	3.352	3.743	4.103	4.036	3.986	3.548	3.862	3.988	4.016	4.045	4.021	4.249	4.497	4.296	4.658	4.655	4.440	4.577	4.605	5.014	4.855	4.632	4.813	5.015	4.646	4.973	4.712
380.0	572.1	828.2	1050	1086	1039	970.1	908.8	901.9	909.0	943.3	991.5	994.4	983.1	939.0	861.2	773.6	733.9	692.6	660.1	615.5	572.5	530.7	513.2	514.4	371.3	271.0	222.0	190.5	234.9	419.6	1189	6190	7581	325.3	13.51	4.513	3.385	2.566	2.047	1.775	1.841	1.590	1.482	1.700	1.710	2.123	2.404	2.728	3.166	3.283	3.290	4.033	4.023	3.999	3.981	3.754	4.219	4.127	4.080	4.092	4.325	4.307	4.540	4.485	4.785	4.783	4.587	4.794	4.741	4.954	4.748	4.737	4.557	4.792	4.710	4.703	4.782
385.0	573.3	817.7	1020	1058	1052	998.0	926.3	920.5	929.8	948.3	987.8	992.3	986.4	936.4	848.0	782.8	739.4	702.4	675.1	642.5	600.4	557.3	518.4	525.6	463.6	327.4	261.9	216.2	179.3	191.6	346.8	1816	6998	5818	246.6	7.320	4.072	2.893	2.439	1.988	1.940	1.523	1.555	1.780	2.026	2.212	2.264	2.782	3.059	3.050	3.020	3.844	4.124	4.151	4.204	4.045	4.442	4.213	3.891	4.141	4.439	4.558	4.566	4.749	4.901	4.669	4.605	4.485	4.741	5.029	4.949	4.623	4.651	4.679	4.735	4.581	4.920
390.0	556.5	806.8	994.3	1053	1050	997.9	958.4	939.8	935.3	954.0	982.0	970.0	967.3	915.4	841.2	776.6	737.3	713.3	689.7	661.3	628.1	589.6	540.0	511.3	499.2	430.5	322.8	254.4	198.6	166.8	177.6	480.7	1997	5020	4477	1006	16.69	4.360	2.986	2.310	2.058	1.774	1.714	1.952	1.967	2.186	2.269	2.846	2.912	3.110	3.184	3.862	4.043	4.109	4.140	4.038	4.503	4.379	4.195	4.364	4.263	4.405	4.561	4.672	4.544	4.583	4.533	4.291	4.612	5.049	4.876	4.727	4.548	4.753	4.576	4.525	4.747
395.0	550.8	777.6	983.8	1039	1028	1022	986.1	959.5	947.3	966.6	985.0	965.4	955.4	916.5	834.8	769.6	739.2	716.3	696.7	671.2	649.8	614.8	579.2	539.7	502.4	482.7	425.6	319.4	245.5	200.5	171.5	206.4	506.4	1197	3254	6280	1509	20.24	4.296	3.161	2.440	1.914	1.936	1.962	1.875	2.162	2.185	2.765	3.001	3.003	2.978	3.694	4.011	3.843	4.087	4.333	4.321	4.342	4.500	4.409	4.359	4.350	4.648	4.530	4.557	4.352	4.452	4.334	4.551	4.564	4.678	4.552	4.625	4.647	4.513	4.705	4.650
400.0	541.7	760.4	952.3	1028	1031	1024	995.8	966.5	969.3	976.4	1003	974.4	978.4	911.7	841.7	768.5	731.2	709.7	699.6	674.1	660.6	627.7	603.7	566.7	525.1	490.4	488.3	393.1	294.5	241.1	198.7	172.2	193.2	318.4	874.3	4477	5702	279.0	11.87	4.052	2.730	2.368	2.027	2.027	1.974	2.214	2.231	2.800	3.127	3.090	2.946	3.743	4.051	4.062	4.239	4.394	4.416	4.345	4.462	4.674	4.613	4.533	4.293	4.425	4.858	4.326	4.600	4.346	4.672	4.578	4.794	4.694	4.724	4.736	4.788	4.647	4.915
405.0	542.5	760.7	950.7	1033	1061	1025	1011	996.0	982.3	988.9	1010	998.9	989.3	921.9	836.8	768.4	732.9	711.9	696.3	680.4	664.3	642.8	624.4	591.5	550.7	502.7	501.3	468.1	354.4	283.3	236.4	190.5	142.5	136.4	240.8	1284	5091	4426	218.6	6.514	3.336	2.673	2.305	2.297	2.072	2.332	2.423	2.742	3.254	2.939	2.990	3.766	4.238	4.056	4.188	4.217	4.527	4.317	4.545	4.771	4.643	4.683	4.575	4.545	4.849	4.733	4.606	4.442	4.586	4.615	4.867	4.766	4.611	4.458	4.618	4.632	4.752
410.0	529.0	735.4	914.1	1018	1042	1030	1020	1014	1010	1012	1027	1004	978.8	913.4	830.6	768.2	725.1	696.4	685.5	673.8	662.6	646.9	631.5	605.1	574.9	531.4	502.7	491.3	436.5	342.1	274.2	217.9	157.1	117.8	116.2	331.2	1430	3696	3480	919.8	15.14	3.699	2.859	2.424	2.122	2.395	2.337	2.768	2.974	2.907	3.054	3.650	4.000	4.088	4.110	4.124	4.553	4.439	4.746	4.561	4.730	4.628	4.629	4.489	4.585	4.633	4.548	4.260	4.491	4.612	4.770	4.520	4.526	4.493	4.531	4.488	4.677
415.0	526.6	710.3	884.9	972.0	1036	1020	1016	1020	1016	1007	1017	991.7	954.5	888.2	818.5	750.6	699.8	673.5	657.6	654.2	647.1	635.1	628.5	605.7	579.0	544.0	514.6	480.1	463.6	412.8	314.5	243.3	178.6	131.3	102.7	128.0	355.7	875.0	2332	4719	1314	18.71	3.717	3.059	2.423	2.556	2.438	2.830	2.990	2.885	3.105	3.768	4.243	3.979	4.145	4.140	4.263	4.518	4.786	4.581	4.645	4.659	4.841	4.443	4.716	4.578	4.387	4.477	4.406	4.326	4.291	4.358	4.531	4.357	4.259	4.307	4.451
