Sample:	'1
File name:	t2025061912恒业五路雨水管网.FD3
Run date:	'15:39:11, 06/23/2025
Operator:	Administrator
Comment:	'

Instrument
Model:	F-2700 FL Spectrophotometer
Serial number:	23B8-004
ROM Version:	4J14000 07

Instrument parameters
Measurement type:	3-D scan
Data mode:	Fluorescence
EX  Start WL:	220.0 nm
EX  End WL:	600.0 nm
EX Sampling interval:	5.0 nm
EM  Start WL:	230.0 nm
EM  End WL:	650.0 nm
EM Sampling interval:	5.0 nm
Scan speed:	12000 nm/min
EX Slit:	5.0 nm
EM Slit:	5.0 nm
PMT Voltage:	700 V
Response:	Auto 
Corrected spectra:	Off
Contour interval:	50.000

Peak integration
Integration method:	Rectangular
Sensitivity:	1
Threshold:	1.000

Peaks
No.	ApexEX/EM(nm)	Height(Data)
1	225.0/490.0	411.0
2	225.0/585.0	54.76
3	230.0/250.0	269.9
4	230.0/350.0	827.3
5	230.0/505.0	343.7
6	235.0/260.0	360.1
7	235.0/515.0	272.7
8	240.0/265.0	436.9
9	240.0/525.0	248.5
10	245.0/270.0	488.6
11	245.0/385.0	900.8
12	245.0/535.0	212.0
13	250.0/275.0	627.5
14	250.0/550.0	180.0
15	255.0/280.0	608.4
16	255.0/565.0	143.5
17	260.0/290.0	524.9
18	260.0/575.0	120.5
19	265.0/295.0	612.2
20	265.0/585.0	102.8
21	270.0/300.0	817.3
22	270.0/600.0	85.32
23	275.0/305.0	782.2
24	275.0/610.0	64.78
25	280.0/310.0	615.4
26	280.0/625.0	54.91
27	285.0/315.0	584.7
28	285.0/635.0	38.38
29	290.0/325.0	547.4
30	295.0/330.0	425.3
31	300.0/335.0	399.8
32	305.0/345.0	354.6
33	310.0/350.0	304.8
34	315.0/355.0	293.4
35	320.0/360.0	289.8
36	325.0/370.0	266.5
37	330.0/375.0	264.2
38	335.0/380.0	272.0
39	345.0/395.0	223.9
40	350.0/400.0	221.7
41	360.0/415.0	171.0
42	365.0/420.0	169.1
43	375.0/435.0	126.0
44	380.0/440.0	120.3
45	390.0/455.0	84.61
46	395.0/460.0	76.91
47	410.0/480.0	48.61
48	425.0/500.0	31.33
49	430.0/505.0	27.46
50	445.0/525.0	17.58
51	455.0/540.0	12.03
52	485.0/265.0	2.272
53	495.0/270.0	2.302
54	500.0/390.0	3.745
55	505.0/275.0	3.543
56	505.0/385.0	3.837
57	510.0/280.0	3.793
58	510.0/380.0	3.828
59	515.0/285.0	3.655
60	530.0/290.0	3.347
61	540.0/295.0	4.396
62	545.0/300.0	4.718
63	550.0/305.0	4.785
64	560.0/310.0	3.654
65	570.0/315.0	3.626
66	580.0/320.0	3.893
67	585.0/325.0	3.758

Data points
	220.0	225.0	230.0	235.0	240.0	245.0	250.0	255.0	260.0	265.0	270.0	275.0	280.0	285.0	290.0	295.0	300.0	305.0	310.0	315.0	320.0	325.0	330.0	335.0	340.0	345.0	350.0	355.0	360.0	365.0	370.0	375.0	380.0	385.0	390.0	395.0	400.0	405.0	410.0	415.0	420.0	425.0	430.0	435.0	440.0	445.0	450.0	455.0	460.0	465.0	470.0	475.0	480.0	485.0	490.0	495.0	500.0	505.0	510.0	515.0	520.0	525.0	530.0	535.0	540.0	545.0	550.0	555.0	560.0	565.0	570.0	575.0	580.0	585.0	590.0	595.0	600.0
230.0	105.4	1200	1715	349.4	13.36	5.841	5.429	4.013	3.424	3.168	2.602	2.572	2.414	1.809	1.452	1.321	1.144	1.048	0.968	0.944	0.785	0.741	0.677	0.676	0.698	0.636	0.533	0.533	0.530	0.531	0.453	0.464	0.487	0.424	0.444	0.409	0.382	0.384	0.409	0.389	0.599	0.903	0.707	0.445	0.383	0.400	1.749	5.093	6.219	3.380	1.029	0.329	0.239	0.272	0.261	0.258	0.277	0.235	0.259	0.276	0.236	0.271	0.258	0.255	0.281	0.250	0.249	0.291	0.268	0.239	0.260	0.295	0.266	0.285	0.280	0.256	0.282
235.0	196.0	365.7	1339	1554	370.0	18.01	6.218	4.279	3.520	3.148	3.308	2.418	2.386	1.827	1.640	1.317	1.364	1.166	0.967	0.869	0.844	0.747	0.720	0.679	0.669	0.573	0.592	0.591	0.519	0.522	0.524	0.527	0.542	0.441	0.477	0.392	0.410	0.433	0.420	0.383	0.406	0.596	0.769	0.945	0.699	0.380	0.627	1.523	2.830	4.345	5.513	4.971	1.881	0.474	0.338	0.250	0.289	0.268	0.272	0.261	0.246	0.225	0.238	0.266	0.307	0.312	0.221	0.237	0.249	0.254	0.231	0.257	0.282	0.290	0.304	0.310	0.292
240.0	303.5	193.1	457.8	1613	1517	260.4	10.21	3.903	3.892	3.505	2.848	2.597	2.390	1.961	1.576	1.429	1.148	1.206	0.850	0.890	0.863	0.652	0.711	0.689	0.631	0.605	0.575	0.526	0.485	0.576	0.500	0.476	0.451	0.466	0.453	0.365	0.397	0.426	0.366	0.405	0.341	0.433	0.423	0.762	0.955	0.844	0.629	0.678	0.889	1.542	3.705	7.789	7.967	4.265	1.473	0.363	0.285	0.296	0.275	0.242	0.279	0.226	0.269	0.270	0.263	0.286	0.210	0.277	0.304	0.274	0.290	0.279	0.227	0.259	0.262	0.276	0.260
245.0	220.0	280.0	165.7	663.8	2023	1426	167.0	5.981	4.605	3.918	3.785	2.746	2.501	2.273	1.685	1.425	1.188	1.072	0.835	0.870	0.801	0.685	0.830	0.671	0.649	0.550	0.549	0.588	0.576	0.528	0.492	0.518	0.452	0.407	0.413	0.448	0.383	0.391	0.369	0.417	0.333	0.384	0.382	0.455	0.718	0.944	1.159	0.836	0.486	0.523	1.080	3.191	6.773	9.655	8.015	3.911	0.933	0.312	0.265	0.237	0.279	0.248	0.238	0.307	0.227	0.248	0.283	0.275	0.267	0.268	0.308	0.247	0.254	0.300	0.231	0.276	0.247
250.0	87.01	245.7	269.9	237.4	750.6	1847	1894	222.2	23.33	4.980	4.405	2.973	2.587	2.241	1.793	1.413	1.308	1.278	0.988	0.863	0.868	0.695	0.761	0.647	0.680	0.654	0.590	0.540	0.541	0.590	0.509	0.524	0.460	0.408	0.390	0.387	0.346	0.362	0.362	0.433	0.335	0.362	0.370	0.391	0.448	0.485	0.740	1.129	1.079	0.780	0.622	0.990	1.887	3.729	5.935	8.756	10.69	8.207	3.903	1.043	0.308	0.251	0.279	0.345	0.257	0.277	0.267	0.292	0.244	0.286	0.296	0.269	0.265	0.278	0.217	0.252	0.262
255.0	45.35	82.31	246.6	339.1	244.0	533.7	1962	2638	279.7	21.80	5.652	3.783	3.208	2.417	1.942	1.697	1.289	1.331	1.070	0.910	0.944	0.866	0.740	0.712	0.641	0.674	0.617	0.573	0.493	0.628	0.550	0.630	0.552	0.454	0.361	0.364	0.378	0.415	0.383	0.441	0.400	0.413	0.351	0.375	0.391	0.415	0.388	0.473	0.669	1.078	1.423	1.198	0.925	1.161	1.648	2.414	4.949	11.03	17.32	14.04	6.028	1.130	0.306	0.324	0.240	0.308	0.267	0.261	0.250	0.298	0.276	0.316	0.336	0.270	0.304	0.253	0.293
260.0	38.71	34.27	110.6	360.1	304.7	184.8	702.4	2862	2268	214.8	10.97	5.055	3.567	3.235	2.118	1.734	1.514	1.498	1.023	0.857	0.974	0.937	0.780	0.718	0.725	0.627	0.711	0.559	0.661	0.612	0.591	0.599	0.553	0.433	0.480	0.409	0.379	0.404	0.373	0.388	0.397	0.464	0.397	0.377	0.359	0.317	0.316	0.382	0.415	0.584	1.039	1.812	1.770	1.007	0.817	0.964	1.518	3.474	8.848	16.80	20.79	13.38	4.028	0.591	0.281	0.294	0.344	0.308	0.264	0.291	0.285	0.236	0.312	0.235	0.260	0.265	0.343
265.0	37.59	25.38	42.26	195.2	436.9	245.2	225.0	1138	3639	1929	157.1	7.164	4.549	3.645	2.517	2.104	1.497	1.409	1.248	1.204	0.980	0.856	0.728	0.877	0.826	0.643	0.717	0.580	0.622	0.567	0.608	0.564	0.568	0.501	0.521	0.432	0.362	0.459	0.388	0.385	0.357	0.400	0.391	0.428	0.371	0.401	0.346	0.401	0.348	0.481	0.494	1.013	2.001	2.272	1.482	0.819	0.803	1.164	2.454	5.659	13.77	22.99	21.17	10.84	2.003	0.460	0.300	0.308	0.279	0.267	0.311	0.304	0.251	0.289	0.267	0.257	0.303
270.0	43.70	30.29	29.98	78.98	284.8	488.6	306.0	333.5	1319	3189	3208	638.0	23.87	4.383	3.209	2.397	1.832	1.578	1.349	1.215	1.014	0.952	0.910	0.916	0.888	0.652	0.720	0.606	0.654	0.577	0.660	0.644	0.632	0.494	0.489	0.452	0.464	0.526	0.376	0.411	0.455	0.383	0.401	0.395	0.393	0.377	0.301	0.382	0.353	0.318	0.346	0.577	0.948	1.537	2.191	2.302	1.988	1.229	1.063	1.735	3.612	7.254	12.45	18.48	21.20	17.84	8.874	2.136	0.395	0.327	0.367	0.295	0.309	0.326	0.280	0.262	0.325
275.0	81.80	46.96	36.87	55.71	138.0	337.5	627.5	326.7	349.4	868.1	3059	5049	815.5	17.28	4.451	3.755	2.187	1.884	1.698	1.534	1.212	1.038	0.918	0.953	0.811	0.663	0.651	0.731	0.653	0.716	0.593	0.602	0.713	0.668	0.556	0.630	0.657	0.689	0.506	0.535	0.444	0.430	0.494	0.441	0.460	0.500	0.430	0.442	0.368	0.384	0.353	0.531	0.697	0.831	1.076	1.620	2.893	3.543	2.409	1.141	1.212	2.029	3.173	4.697	7.498	16.38	29.13	27.75	12.85	2.029	0.377	0.311	0.320	0.314	0.325	0.293	0.321
280.0	124.9	93.05	54.43	58.01	110.7	206.5	483.4	608.4	217.4	247.8	964.8	4445	4627	134.9	9.915	4.476	2.976	2.264	1.901	1.518	1.327	1.180	0.976	0.896	0.901	0.818	0.794	0.698	0.653	0.695	0.687	0.695	0.675	0.728	0.768	0.818	0.825	0.796	0.642	0.643	0.586	0.585	0.578	0.499	0.647	0.526	0.502	0.515	0.448	0.372	0.338	0.489	0.577	0.692	0.814	1.038	1.575	2.709	3.793	3.045	1.415	0.983	1.171	1.501	2.039	4.535	11.39	23.92	32.94	24.98	8.438	1.011	0.439	0.367	0.302	0.337	0.362
285.0	199.2	137.2	76.74	62.38	92.45	144.6	255.4	607.8	341.0	141.5	281.1	1488	5255	3560	95.36	5.914	3.881	2.716	2.052	1.711	1.355	1.286	0.980	1.022	0.938	0.860	0.899	0.777	0.688	0.589	0.540	0.774	0.660	0.822	0.924	0.938	1.063	0.969	0.887	0.685	0.690	0.629	0.584	0.634	0.655	0.625	0.684	0.571	0.463	0.428	0.377	0.520	0.501	0.742	0.633	0.783	1.004	1.260	2.239	3.655	3.550	1.966	0.841	0.845	0.928	1.475	3.100	6.835	15.70	28.96	32.91	19.58	4.910	0.488	0.409	0.352	0.374
290.0	259.4	192.5	111.5	78.95	84.66	117.8	142.1	268.0	524.9	444.2	189.4	418.5	1632	3778	2901	402.8	18.40	3.763	2.623	2.143	1.595	1.529	1.265	1.060	0.990	0.967	0.880	0.827	0.727	0.657	0.651	0.742	0.792	1.049	1.120	1.221	1.211	1.164	1.015	0.829	0.880	0.803	0.759	0.803	0.790	0.792	0.740	0.723	0.710	0.512	0.434	0.472	0.522	0.613	0.628	0.635	0.812	0.801	1.053	1.568	2.407	3.073	3.347	2.432	1.314	0.991	1.259	2.114	4.191	8.033	14.24	21.12	25.19	23.13	13.94	4.347	0.713
295.0	294.9	243.1	149.8	94.59	82.64	93.48	102.6	131.2	233.6	612.2	558.3	227.7	452.4	953.6	2478	4582	548.9	13.55	3.619	2.766	2.199	1.793	1.468	1.299	1.223	1.063	0.955	0.927	0.710	0.684	0.683	0.611	0.869	0.968	1.372	1.331	1.351	1.335	1.267	0.918	0.896	0.817	0.821	0.843	0.863	0.837	0.919	0.800	0.663	0.539	0.502	0.553	0.480	0.613	0.638	0.679	0.694	0.687	0.686	1.013	1.162	1.394	2.188	3.639	4.396	2.489	1.360	1.218	1.525	2.408	3.775	5.218	7.000	13.19	26.79	32.74	19.42
300.0	330.8	265.5	175.0	114.5	89.26	95.92	97.90	116.4	152.4	367.2	817.3	410.6	216.2	284.2	718.3	3534	4070	83.30	6.869	3.078	2.463	1.812	1.618	1.454	1.141	1.018	0.899	0.876	0.803	0.736	0.716	0.690	0.770	1.053	1.381	1.477	1.273	1.308	1.203	1.083	0.896	0.948	0.836	0.937	0.883	0.943	1.064	0.812	0.694	0.638	0.617	0.613	0.605	0.568	0.563	0.701	0.794	0.811	0.779	0.915	0.933	1.004	1.234	2.124	3.532	4.718	3.671	1.556	1.304	1.257	1.495	1.733	2.097	3.566	8.470	19.56	32.47
305.0	361.7	296.7	209.1	132.1	112.1	109.5	121.2	135.4	159.9	248.3	587.6	782.2	210.4	159.6	221.1	1079	4105	3129	63.39	4.691	3.238	2.380	1.964	1.402	1.215	1.141	1.086	1.002	0.869	0.883	0.652	0.674	0.754	1.145	1.313	1.443	1.360	1.373	1.231	1.103	0.969	1.021	0.867	1.075	0.856	1.063	1.005	0.938	0.716	0.676	0.593	0.637	0.681	0.660	0.629	0.648	0.819	0.833	0.892	0.927	1.046	1.027	1.002	1.461	1.844	3.153	4.785	4.137	2.498	1.274	1.009	0.941	1.180	1.385	2.395	5.183	11.80
310.0	362.1	303.2	223.3	153.6	126.6	129.4	139.4	159.9	180.1	220.0	339.1	611.7	615.4	249.6	129.8	297.1	1204	2918	3004	293.2	15.41	2.982	2.351	1.693	1.429	1.078	1.124	0.987	1.041	0.953	0.795	0.776	0.871	1.199	1.303	1.338	1.330	1.269	1.256	1.032	1.059	1.013	0.962	0.934	0.904	1.084	0.900	1.015	0.863	0.716	0.647	0.703	0.778	0.719	0.707	0.740	0.853	0.927	0.915	1.047	1.105	1.096	1.132	1.245	1.401	1.712	2.549	3.279	3.654	3.489	2.229	1.284	0.974	0.998	1.043	1.650	3.286
315.0	395.5	345.5	243.3	179.4	139.7	134.8	154.5	178.2	195.6	220.4	273.3	343.8	507.0	584.7	147.6	133.0	318.9	709.9	1947	3666	437.9	12.29	3.131	2.371	1.756	1.319	1.255	1.015	1.072	1.077	0.883	0.887	0.881	1.169	1.037	1.274	1.312	1.333	1.114	1.214	1.036	0.976	0.967	0.918	0.910	0.952	0.975	1.034	0.890	0.792	0.735	0.810	0.789	0.780	0.780	0.830	0.892	0.916	0.950	1.171	1.106	1.237	1.210	1.234	1.301	1.653	1.687	1.845	2.124	2.748	3.626	3.452	2.146	1.104	0.831	0.851	1.349
320.0	426.1	389.3	316.7	221.8	161.5	155.8	165.4	184.7	202.2	225.7	256.2	290.2	339.2	574.3	405.0	121.0	128.9	198.3	525.4	2582	3258	65.36	6.605	2.893	1.980	1.723	1.358	1.182	1.108	1.065	0.894	0.997	0.927	1.168	1.136	1.209	1.261	1.259	1.028	1.090	1.056	0.959	0.949	1.047	1.026	1.241	1.109	1.108	1.044	0.901	0.843	0.825	0.832	0.758	0.949	0.770	0.908	0.966	1.002	1.093	1.095	1.307	1.321	1.237	1.262	1.514	1.433	1.624	1.640	1.908	2.266	3.364	3.893	2.564	1.378	0.925	0.957
325.0	476.2	505.5	483.2	314.3	205.0	165.9	172.6	196.7	209.3	236.9	265.5	289.4	294.3	382.4	547.4	256.4	104.1	93.64	153.1	741.6	2993	2610	54.44	4.462	2.496	1.941	1.711	1.314	1.201	1.107	1.030	1.017	0.921	1.150	1.024	1.205	1.274	1.137	1.095	1.027	1.041	1.067	1.000	1.181	1.305	1.439	1.353	1.515	1.401	1.219	1.149	1.153	1.027	0.910	1.005	0.893	1.035	1.004	1.101	1.132	1.118	1.287	1.278	1.261	1.306	1.562	1.620	1.551	1.755	1.595	1.617	2.038	2.817	3.758	3.151	1.680	1.180
330.0	546.2	622.8	642.3	455.7	276.3	207.9	196.3	216.0	222.7	250.0	279.9	303.1	304.2	298.6	367.3	425.3	233.0	91.56	82.99	200.8	853.7	2246	2466	244.0	14.24	2.736	1.935	1.613	1.192	1.158	1.045	0.996	1.008	1.102	1.105	1.076	1.199	1.231	1.112	1.016	1.060	1.115	1.125	1.192	1.449	1.643	1.643	1.802	1.845	1.658	1.427	1.667	1.270	1.087	1.086	1.033	1.130	1.114	1.162	1.260	1.284	1.234	1.247	1.317	1.469	1.507	1.632	1.678	1.763	1.632	1.655	1.654	1.819	2.342	2.720	2.998	2.635
335.0	611.5	665.0	718.0	550.4	352.5	263.1	231.9	233.7	245.2	266.3	295.6	316.9	322.4	299.2	272.6	300.7	399.8	196.6	84.89	92.19	225.7	545.2	1531	3120	389.5	13.78	2.659	1.909	1.548	1.335	1.058	1.035	1.072	1.083	1.113	1.186	1.086	1.107	1.101	1.039	1.083	1.182	1.228	1.270	1.488	1.651	1.721	2.052	2.077	1.771	1.954	1.986	1.518	1.465	1.181	1.152	1.252	1.443	1.408	1.545	1.305	1.272	1.311	1.375	1.371	1.561	1.616	1.673	1.614	1.716	1.673	1.617	1.767	1.841	1.909	1.823	2.452
340.0	659.1	720.5	779.3	616.9	430.8	321.2	278.8	273.9	274.2	287.3	316.0	335.1	337.3	318.5	269.0	240.3	331.8	344.1	130.6	78.45	96.22	158.7	414.8	2159	2784	301.0	6.266	2.478	1.791	1.457	1.393	1.263	1.082	1.114	1.254	1.116	0.982	1.143	1.069	1.023	1.096	1.149	1.151	1.339	1.642	1.751	1.883	2.269	2.200	1.975	2.076	2.234	1.737	1.661	1.494	1.474	1.458	1.442	1.359	1.463	1.438	1.388	1.449	1.454	1.460	1.607	1.737	1.813	1.745	1.789	1.823	1.983	1.736	1.707	1.654	1.451	1.703
345.0	669.0	788.3	822.4	687.6	504.7	386.7	332.7	318.3	312.4	315.5	334.4	347.1	352.7	332.2	284.8	236.5	237.6	354.6	251.5	97.58	77.99	81.47	127.5	619.2	2504	2284	49.32	3.673	2.184	1.784	1.291	1.213	1.024	1.172	1.232	1.070	1.065	1.048	1.100	1.060	1.024	1.181	1.192	1.416	1.487	1.812	1.882	2.306	2.331	2.182	2.105	2.124	2.020	1.865	1.896	1.644	1.572	1.660	1.527	1.429	1.713	1.537	1.673	1.436	1.759	1.799	1.687	1.842	1.887	1.961	1.807	1.952	1.891	1.775	1.694	1.585	1.543
350.0	674.7	778.7	827.3	741.2	595.7	496.2	438.9	402.2	389.2	378.2	377.3	376.8	375.7	357.0	310.2	258.8	220.3	242.3	304.8	215.3	101.2	79.52	78.31	177.0	715.9	1874	2039	218.3	13.68	2.344	1.720	1.286	1.176	1.117	1.142	1.134	1.107	0.994	1.068	0.957	1.209	1.214	1.190	1.353	1.444	1.802	1.860	2.208	2.356	2.120	2.123	2.489	2.377	2.242	2.046	1.969	1.986	2.102	2.036	1.944	2.117	2.067	1.994	1.892	2.025	1.952	1.902	1.977	2.055	1.979	1.934	2.066	2.125	1.853	1.910	1.777	1.735
355.0	690.7	756.9	818.4	786.9	684.1	625.5	571.1	532.6	521.6	480.8	453.7	436.0	418.1	392.0	346.2	291.7	245.3	216.4	225.6	293.4	204.9	104.2	83.66	91.30	199.0	458.5	1260	2473	349.5	13.31	2.132	1.670	1.240	1.224	1.192	1.077	1.124	1.048	1.066	1.253	1.258	1.087	1.209	1.408	1.482	1.795	1.904	2.249	2.330	2.182	2.118	2.592	2.580	2.655	2.399	2.541	2.474	2.600	2.564	2.396	2.643	2.537	2.392	2.428	2.152	2.167	2.012	2.246	2.299	1.975	2.294	2.212	2.061	2.087	2.129	1.937	1.956
360.0	673.7	740.8	807.7	805.7	758.5	701.5	653.6	611.9	605.8	564.7	518.0	481.4	452.2	416.9	378.4	317.7	266.0	228.2	206.6	242.4	289.8	160.4	100.6	84.61	93.18	136.8	342.5	1746	2361	274.0	5.332	2.112	1.340	1.424	1.279	1.045	1.146	1.014	1.174	1.396	1.104	1.145	1.265	1.383	1.503	1.739	1.869	2.076	2.237	2.364	2.129	2.670	2.902	2.660	2.726	2.724	3.010	2.908	2.925	2.899	3.034	2.902	2.922	2.770	2.391	2.523	2.301	2.643	2.237	2.120	2.511	2.271	2.436	2.333	2.182	2.000	2.180
365.0	666.1	744.2	812.6	815.1	793.7	761.1	712.5	682.7	671.2	629.8	567.0	521.5	474.8	439.6	397.0	338.4	282.6	243.6	209.9	204.6	276.6	251.0	127.0	93.58	78.20	73.31	106.8	510.8	2178	2004	45.37	3.532	1.831	1.597	1.447	1.048	1.256	1.219	1.263	1.133	1.245	1.357	1.460	1.356	1.430	1.655	1.910	2.187	2.299	2.199	2.268	2.845	2.948	3.041	3.140	3.052	3.125	3.091	3.058	3.069	3.268	3.147	2.902	3.063	2.940	2.653	2.610	2.690	2.466	2.372	2.645	2.501	2.687	2.425	2.255	2.170	2.075
370.0	683.8	767.4	814.9	823.4	841.1	823.5	783.8	751.9	736.3	691.9	630.0	566.6	511.3	464.5	419.7	360.3	310.0	266.8	232.5	208.1	217.4	266.5	223.9	129.6	91.93	72.76	65.01	142.9	626.9	1698	1853	196.1	11.67	1.997	1.571	1.368	1.372	1.409	1.163	1.171	1.279	1.363	1.399	1.504	1.605	1.662	1.853	2.222	2.219	2.197	2.313	3.031	3.025	3.126	3.139	3.151	3.400	3.306	3.307	3.345	3.439	3.407	3.359	3.244	3.230	2.893	2.904	2.757	2.544	2.634	2.610	2.526	2.478	2.441	2.353	2.409	2.370
375.0	695.7	764.2	822.3	842.4	866.4	883.4	857.1	802.9	787.0	746.3	674.0	605.6	542.9	486.3	429.4	383.3	332.0	291.0	257.3	226.7	210.0	214.0	264.2	219.3	122.2	91.05	71.02	71.66	168.0	412.0	1196	2190	299.8	10.79	2.069	1.714	1.364	1.564	1.324	1.300	1.370	1.392	1.480	1.522	1.660	1.742	1.823	2.066	2.219	2.156	2.331	3.024	3.144	3.367	3.357	3.392	3.605	3.712	3.540	3.401	3.534	3.466	3.623	3.339	3.391	3.266	2.885	2.765	2.947	2.682	2.560	2.499	2.523	2.418	2.542	2.432	2.391
380.0	684.6	754.0	795.2	853.9	881.8	890.7	884.5	838.1	803.1	764.1	705.3	629.4	560.8	495.1	438.2	391.2	345.3	302.4	268.3	242.4	220.5	208.2	231.7	272.0	179.2	110.1	83.28	65.66	72.66	116.9	325.8	1613	1931	221.3	4.449	2.159	1.508	1.405	1.352	1.324	1.450	1.423	1.494	1.634	1.481	1.829	1.756	2.079	2.256	2.183	2.226	2.911	3.237	3.362	3.426	3.614	3.636	3.594	3.828	3.525	3.546	3.649	3.691	3.710	3.380	3.266	3.057	2.807	2.727	3.076	2.620	2.677	2.486	2.541	2.518	2.257	2.640
385.0	671.8	746.7	801.0	843.0	882.2	900.8	866.8	825.3	814.5	774.2	710.6	636.1	573.8	501.1	444.0	392.1	352.2	311.1	278.3	253.1	231.2	213.5	207.8	249.9	243.6	138.7	95.98	73.26	59.96	56.06	94.14	476.2	1800	1539	36.12	2.862	1.931	1.825	1.406	1.379	1.389	1.348	1.537	1.663	1.661	1.862	1.809	2.097	2.159	2.032	2.225	2.915	3.143	3.392	3.396	3.570	3.547	3.837	3.692	3.719	3.700	3.617	3.706	3.495	3.344	3.225	2.965	2.879	2.870	3.115	2.677	2.865	2.935	2.879	2.402	2.657	2.577
390.0	707.0	748.0	783.0	824.0	855.7	880.3	865.8	834.7	802.9	767.4	712.4	640.1	572.3	505.3	445.8	394.3	354.7	319.5	288.9	263.8	243.6	225.7	210.8	213.0	242.3	207.9	126.7	88.05	67.77	52.38	49.02	126.7	521.0	1332	1348	152.3	9.623	2.159	1.842	1.543	1.520	1.479	1.555	1.563	1.744	1.854	1.935	2.073	2.113	2.057	2.214	2.845	3.151	3.301	3.330	3.493	3.745	3.709	3.670	3.652	3.709	3.532	3.611	3.609	3.328	3.431	3.145	2.991	2.877	3.023	2.615	2.730	2.755	2.700	2.534	2.517	2.545
395.0	709.1	726.2	752.5	781.1	853.2	866.8	851.1	816.0	795.1	745.8	697.1	629.8	567.3	497.3	439.7	394.6	354.5	323.8	298.2	272.3	248.9	234.4	219.0	206.3	203.6	223.9	190.6	110.7	79.56	61.25	48.95	54.91	134.5	323.4	926.1	1608	239.5	7.245	1.804	1.592	1.635	1.549	1.573	1.641	1.685	1.916	1.956	2.098	1.948	2.104	2.059	2.741	2.978	3.141	3.146	3.311	3.626	3.505	3.798	3.439	3.490	3.611	3.644	3.449	3.349	3.105	2.956	2.946	2.850	2.912	2.589	2.668	2.904	2.633	2.551	2.504	2.506
400.0	697.5	725.5	733.4	773.4	824.3	846.8	843.0	814.3	778.2	733.0	691.6	616.6	560.8	489.9	438.0	392.2	355.6	325.7	298.4	278.7	255.3	242.9	224.9	210.1	193.2	197.5	221.7	149.7	92.11	69.79	54.56	44.15	52.55	88.05	256.9	1226	1380	37.19	3.580	1.954	1.480	1.613	1.647	1.648	1.649	1.840	1.868	2.010	1.911	1.992	2.068	2.720	2.891	2.855	2.960	3.329	3.586	3.457	3.819	3.423	3.388	3.481	3.552	3.662	3.395	3.320	3.039	3.076	2.784	2.851	2.551	2.588	2.656	2.759	2.355	2.397	2.696
405.0	659.3	715.4	720.6	761.7	791.5	821.9	820.4	794.7	756.1	720.9	668.8	614.6	550.3	483.4	430.5	386.2	351.3	325.5	292.0	276.7	257.3	243.5	227.0	211.0	193.8	179.6	201.1	193.7	116.4	80.16	62.23	47.19	38.95	38.59	72.06	364.5	1340	1059	31.06	2.489	1.799	1.616	1.666	1.721	1.577	1.727	1.849	2.072	1.946	1.979	1.986	2.630	2.838	2.889	3.062	3.140	3.646	3.405	3.542	3.226	3.452	3.461	3.087	3.357	3.143	3.056	3.028	3.003	2.752	2.852	2.555	2.600	2.661	2.515	2.587	2.551	2.511
410.0	648.0	689.9	692.1	723.6	747.7	784.6	794.7	774.0	732.4	695.6	649.2	594.2	532.2	470.7	417.5	374.6	346.4	316.8	293.4	275.0	255.9	240.9	227.8	213.5	194.8	177.9	170.0	184.7	164.2	104.7	74.28	54.51	42.53	33.15	34.13	94.63	392.2	980.4	998.3	138.1	7.609	1.986	1.824	1.710	1.593	1.711	1.786	2.005	2.034	1.957	2.044	2.550	2.676	2.833	3.007	3.013	3.361	3.413	3.476	3.182	3.323	3.400	3.229	3.200	3.075	2.946	2.895	2.861	2.772	2.754	2.531	2.517	2.493	2.523	2.409	2.408	2.520
