Sample:	'1
File name:	T2025041708 278ÏçµÀ.FD3
Run date:	'10:45:13, 04/21/2025
Operator:	Administrator
Comment:	'

Instrument
Model:	F-2700 FL Spectrophotometer
Serial number:	23B8-004
ROM Version:	4J14000 07

Instrument parameters
Measurement type:	3-D scan
Data mode:	Fluorescence
EX  Start WL:	220.0 nm
EX  End WL:	600.0 nm
EX Sampling interval:	5.0 nm
EM  Start WL:	230.0 nm
EM  End WL:	650.0 nm
EM Sampling interval:	5.0 nm
Scan speed:	12000 nm/min
EX Slit:	5.0 nm
EM Slit:	5.0 nm
PMT Voltage:	700 V
Response:	Auto 
Corrected spectra:	Off
Contour interval:	50.000

Peak integration
Integration method:	Rectangular
Sensitivity:	1
Threshold:	1.000

Peaks
No.	ApexEX/EM(nm)	Height(Data)
1	225.0/560.0	48.89
2	225.0/575.0	51.57
3	225.0/590.0	39.91
4	225.0/615.0	31.50
5	230.0/345.0	788.8
6	230.0/500.0	281.4
7	230.0/625.0	29.24
8	235.0/255.0	332.6
9	235.0/395.0	601.9
10	235.0/510.0	243.6
11	240.0/265.0	353.5
12	240.0/405.0	575.7
13	240.0/525.0	217.7
14	245.0/270.0	364.9
15	245.0/535.0	187.7
16	250.0/275.0	446.1
17	250.0/550.0	146.1
18	255.0/280.0	568.0
19	255.0/560.0	134.7
20	260.0/285.0	566.5
21	260.0/570.0	103.2
22	265.0/290.0	571.1
23	265.0/585.0	98.92
24	270.0/300.0	818.8
25	270.0/595.0	83.33
26	275.0/305.0	951.0
27	275.0/335.0	525.6
28	275.0/610.0	71.85
29	280.0/310.0	818.9
30	280.0/340.0	533.0
31	280.0/625.0	59.58
32	285.0/315.0	771.7
33	285.0/635.0	45.75
34	290.0/325.0	685.9
35	295.0/330.0	535.1
36	300.0/335.0	491.2
37	305.0/345.0	427.6
38	310.0/350.0	357.0
39	315.0/355.0	339.3
40	320.0/360.0	321.3
41	325.0/370.0	301.0
42	330.0/375.0	292.0
43	335.0/380.0	293.2
44	340.0/390.0	262.1
45	345.0/395.0	250.2
46	350.0/400.0	246.9
47	360.0/415.0	207.9
48	365.0/420.0	202.1
49	400.0/465.0	73.89
50	415.0/485.0	42.70
51	430.0/505.0	26.35
52	445.0/525.0	15.67
53	485.0/265.0	1.904
54	495.0/270.0	1.976
55	505.0/275.0	2.921
56	515.0/280.0	3.267
57	520.0/285.0	3.712
58	530.0/290.0	3.263
59	540.0/295.0	4.543
60	545.0/300.0	4.958
61	550.0/305.0	5.004
62	560.0/310.0	4.275
63	575.0/315.0	4.072
64	580.0/320.0	4.339
65	585.0/325.0	4.301

Data points
	220.0	225.0	230.0	235.0	240.0	245.0	250.0	255.0	260.0	265.0	270.0	275.0	280.0	285.0	290.0	295.0	300.0	305.0	310.0	315.0	320.0	325.0	330.0	335.0	340.0	345.0	350.0	355.0	360.0	365.0	370.0	375.0	380.0	385.0	390.0	395.0	400.0	405.0	410.0	415.0	420.0	425.0	430.0	435.0	440.0	445.0	450.0	455.0	460.0	465.0	470.0	475.0	480.0	485.0	490.0	495.0	500.0	505.0	510.0	515.0	520.0	525.0	530.0	535.0	540.0	545.0	550.0	555.0	560.0	565.0	570.0	575.0	580.0	585.0	590.0	595.0	600.0
230.0	41.12	485.9	1585	621.9	32.52	4.636	3.385	3.137	2.615	2.760	2.355	1.943	1.614	1.574	1.282	1.119	1.049	0.929	0.770	0.758	0.642	0.637	0.520	0.553	0.510	0.459	0.442	0.451	0.430	0.370	0.396	0.350	0.338	0.294	0.281	0.306	0.312	0.268	0.247	0.303	0.295	0.367	0.409	0.355	0.235	0.248	0.495	2.465	5.205	4.433	1.763	0.437	0.197	0.184	0.174	0.178	0.179	0.190	0.183	0.172	0.185	0.165	0.178	0.186	0.169	0.180	0.174	0.191	0.177	0.153	0.155	0.176	0.166	0.161	0.207	0.171	0.194
235.0	101.6	150.8	877.6	1720	541.1	55.37	3.749	3.178	3.061	2.338	2.728	2.212	2.118	1.526	1.460	1.122	0.950	0.911	0.856	0.695	0.559	0.630	0.551	0.574	0.587	0.362	0.385	0.345	0.361	0.313	0.294	0.353	0.388	0.339	0.375	0.329	0.319	0.271	0.261	0.284	0.246	0.302	0.358	0.473	0.391	0.327	0.317	0.799	1.873	3.539	5.471	6.358	3.299	0.852	0.231	0.183	0.194	0.169	0.199	0.174	0.185	0.183	0.172	0.163	0.187	0.164	0.159	0.148	0.167	0.196	0.174	0.181	0.183	0.175	0.187	0.196	0.211
240.0	155.8	131.1	259.4	1245	2001	436.6	27.92	5.596	3.466	2.806	2.976	2.202	2.020	1.692	1.578	0.979	1.056	0.899	0.985	0.764	0.589	0.682	0.478	0.560	0.567	0.418	0.494	0.357	0.413	0.313	0.312	0.357	0.362	0.430	0.323	0.257	0.322	0.287	0.299	0.250	0.244	0.295	0.302	0.436	0.484	0.528	0.398	0.467	0.647	1.032	2.531	6.942	9.548	6.987	2.644	0.522	0.249	0.206	0.206	0.183	0.165	0.160	0.176	0.166	0.187	0.143	0.165	0.207	0.203	0.163	0.155	0.188	0.191	0.198	0.191	0.191	0.165
245.0	91.60	205.9	142.9	392.6	1820	2166	327.3	14.58	4.317	3.307	3.080	2.305	2.631	1.624	1.741	1.241	1.012	0.940	0.962	0.772	0.768	0.640	0.570	0.636	0.572	0.393	0.498	0.377	0.477	0.393	0.446	0.370	0.389	0.359	0.281	0.311	0.306	0.287	0.325	0.218	0.315	0.307	0.319	0.350	0.304	0.514	0.752	0.778	0.484	0.404	0.732	2.148	5.692	10.05	11.02	6.803	2.096	0.355	0.167	0.176	0.161	0.201	0.179	0.170	0.159	0.160	0.222	0.187	0.188	0.192	0.180	0.176	0.223	0.192	0.157	0.223	0.148
250.0	43.04	136.1	248.3	199.8	544.3	1719	2455	1082	78.96	5.478	3.820	3.150	2.711	1.876	1.631	1.438	1.347	0.990	0.928	0.864	0.772	0.680	0.651	0.645	0.535	0.508	0.547	0.459	0.507	0.440	0.477	0.416	0.380	0.351	0.304	0.342	0.302	0.280	0.277	0.254	0.338	0.289	0.322	0.301	0.334	0.355	0.412	0.684	0.972	0.834	0.586	0.757	1.525	3.050	5.928	9.614	12.47	12.06	7.278	2.140	0.366	0.258	0.203	0.215	0.185	0.182	0.222	0.186	0.191	0.186	0.192	0.214	0.200	0.173	0.197	0.177	0.153
255.0	28.19	47.13	151.3	332.6	238.3	425.6	1495	3698	1570	92.79	5.340	4.001	3.794	2.755	1.929	1.704	1.434	1.118	0.898	0.953	0.982	0.597	0.662	0.691	0.685	0.473	0.517	0.542	0.508	0.404	0.495	0.450	0.442	0.337	0.310	0.335	0.282	0.322	0.246	0.255	0.303	0.319	0.320	0.302	0.277	0.325	0.274	0.341	0.469	0.771	1.149	1.342	0.933	0.891	1.554	2.391	4.241	9.448	19.11	21.19	11.11	2.794	0.325	0.187	0.184	0.195	0.217	0.164	0.200	0.187	0.209	0.184	0.205	0.169	0.159	0.174	0.213
260.0	27.64	28.66	59.31	254.2	341.2	166.9	423.2	2482	4343	1260	47.19	5.801	4.180	3.333	2.516	1.901	1.324	1.190	1.017	0.804	0.899	0.757	0.650	0.700	0.653	0.565	0.508	0.396	0.491	0.494	0.469	0.440	0.438	0.381	0.330	0.339	0.314	0.267	0.309	0.277	0.280	0.398	0.284	0.316	0.287	0.282	0.334	0.323	0.249	0.346	0.699	1.428	1.733	1.019	0.666	0.738	1.224	2.584	7.339	16.92	25.80	22.15	9.674	1.711	0.289	0.197	0.245	0.172	0.201	0.211	0.222	0.200	0.191	0.188	0.191	0.175	0.209
265.0	29.06	23.35	27.69	102.0	353.5	284.0	134.9	748.5	3562	4711	229.7	18.08	5.966	4.104	2.793	2.153	1.443	1.413	1.291	0.997	0.903	0.893	0.694	0.779	0.642	0.547	0.504	0.526	0.517	0.502	0.415	0.461	0.451	0.344	0.411	0.344	0.241	0.312	0.346	0.265	0.338	0.312	0.314	0.289	0.348	0.310	0.217	0.254	0.215	0.243	0.365	0.623	1.438	1.904	1.559	0.788	0.538	0.902	2.044	4.677	11.64	24.75	30.87	20.88	6.539	0.687	0.248	0.229	0.223	0.194	0.237	0.212	0.189	0.233	0.165	0.167	0.204
270.0	42.65	38.41	35.10	38.61	152.0	364.9	301.9	226.2	1026	3381	4997	1998	61.34	5.889	3.770	2.757	1.928	1.785	1.360	1.322	1.080	0.845	0.779	0.836	0.714	0.648	0.590	0.551	0.531	0.512	0.467	0.473	0.403	0.406	0.433	0.350	0.337	0.342	0.330	0.319	0.279	0.299	0.291	0.334	0.336	0.326	0.285	0.296	0.257	0.217	0.252	0.330	0.589	0.999	1.700	1.976	1.891	1.194	0.834	1.378	2.945	6.816	13.02	21.49	25.95	26.48	14.99	5.424	0.786	0.249	0.266	0.210	0.207	0.241	0.224	0.176	0.210
275.0	80.65	87.47	60.59	45.72	53.17	145.1	446.1	349.6	283.1	819.2	2567	6963	1246	67.90	6.390	4.034	2.753	2.271	1.592	1.421	1.180	0.861	1.002	0.771	0.757	0.719	0.708	0.520	0.542	0.616	0.542	0.592	0.454	0.553	0.503	0.371	0.467	0.417	0.382	0.376	0.304	0.316	0.328	0.410	0.422	0.415	0.418	0.418	0.361	0.274	0.295	0.284	0.373	0.384	0.652	0.809	1.660	2.921	2.338	1.124	1.007	1.810	3.209	5.230	7.215	14.79	31.26	32.61	23.73	6.073	0.567	0.357	0.288	0.264	0.295	0.228	0.249
280.0	126.7	143.3	105.2	65.19	41.28	58.84	244.6	568.0	264.4	238.3	700.4	3973	7018	933.0	29.46	5.952	3.311	2.706	2.023	1.637	1.268	0.890	1.023	0.922	0.842	0.859	0.656	0.555	0.660	0.625	0.530	0.478	0.540	0.560	0.577	0.451	0.430	0.466	0.476	0.374	0.370	0.325	0.396	0.446	0.439	0.543	0.448	0.576	0.484	0.364	0.391	0.346	0.380	0.301	0.442	0.375	0.810	1.697	3.110	3.267	1.594	0.943	1.160	1.561	2.045	3.816	10.17	22.96	45.64	32.27	17.68	2.947	0.312	0.269	0.230	0.310	0.255
285.0	174.7	201.3	157.5	92.19	53.60	44.56	100.9	415.2	566.5	188.7	234.5	1135	5151	6533	126.7	12.70	4.606	3.190	2.411	1.986	1.463	1.042	1.170	0.959	0.927	0.856	0.738	0.717	0.788	0.566	0.514	0.554	0.520	0.580	0.577	0.498	0.413	0.512	0.455	0.430	0.419	0.387	0.457	0.458	0.542	0.568	0.598	0.658	0.663	0.512	0.425	0.431	0.423	0.374	0.349	0.388	0.469	0.715	1.484	2.942	3.712	2.302	0.975	0.760	0.862	1.406	2.783	6.022	16.63	31.32	45.63	28.44	11.21	1.220	0.318	0.290	0.272
290.0	231.3	252.1	222.3	143.2	75.42	58.09	71.91	174.6	476.7	571.1	219.9	375.1	1427	4263	5265	1873	33.18	4.742	2.921	2.533	1.854	1.424	1.377	1.132	0.942	0.843	0.787	0.827	0.754	0.651	0.576	0.680	0.567	0.617	0.648	0.620	0.533	0.573	0.557	0.458	0.456	0.469	0.483	0.485	0.635	0.663	0.701	0.762	0.757	0.657	0.560	0.540	0.455	0.425	0.400	0.441	0.469	0.542	0.717	1.197	2.018	3.082	3.263	2.697	1.511	0.996	1.339	1.946	4.440	8.214	16.00	23.97	27.41	31.55	18.65	8.582	1.491
295.0	270.4	315.3	277.3	172.2	104.1	82.26	87.20	118.6	225.7	540.1	712.4	273.4	470.4	1073	2453	6822	703.8	32.92	4.414	3.009	2.135	1.704	1.462	1.312	1.061	0.963	0.797	0.842	0.755	0.605	0.612	0.597	0.546	0.719	0.786	0.647	0.618	0.656	0.624	0.518	0.485	0.491	0.585	0.667	0.720	0.708	0.736	0.867	0.798	0.766	0.546	0.690	0.574	0.504	0.500	0.373	0.509	0.547	0.572	0.828	1.007	1.378	1.882	3.273	4.543	3.135	1.679	1.385	1.835	2.600	4.367	6.008	7.224	13.31	28.36	44.53	29.25
300.0	265.4	344.7	325.1	206.6	122.3	105.1	115.9	135.6	187.1	347.5	818.8	624.7	323.8	374.8	684.7	3762	5598	539.1	14.33	3.931	2.651	2.081	1.631	1.417	1.175	1.073	0.980	0.824	0.740	0.733	0.636	0.713	0.593	0.791	0.760	0.617	0.706	0.632	0.635	0.559	0.511	0.480	0.654	0.598	0.676	0.864	0.818	1.086	0.978	0.885	0.667	0.760	0.585	0.636	0.531	0.564	0.615	0.716	0.733	0.806	0.919	1.092	1.358	1.952	3.448	4.958	4.092	2.139	1.514	1.502	1.852	2.179	2.295	3.748	8.312	21.05	38.34
305.0	278.8	352.8	325.9	236.5	145.5	128.4	146.2	174.3	219.2	303.0	584.8	951.0	480.7	274.9	270.2	1048	4281	4680	76.20	7.033	3.649	2.535	1.863	1.708	1.220	1.206	1.065	0.907	1.004	0.727	0.591	0.671	0.619	0.794	0.820	0.839	0.695	0.614	0.687	0.659	0.460	0.568	0.538	0.613	0.725	0.878	0.916	1.100	0.983	0.863	0.689	0.788	0.702	0.616	0.659	0.642	0.697	0.717	0.959	0.967	1.209	1.205	1.349	1.575	2.121	3.149	5.004	4.843	2.954	1.978	1.576	1.441	1.399	1.661	2.462	5.530	12.28
310.0	290.7	360.7	340.0	246.1	166.5	151.1	170.0	207.9	250.3	314.4	438.2	700.4	818.9	435.1	225.1	330.6	1183	3373	3904	1261	20.31	3.832	2.457	2.011	1.605	1.306	1.221	0.969	0.980	0.870	0.692	0.709	0.662	0.773	0.759	0.745	0.725	0.666	0.689	0.714	0.538	0.538	0.655	0.660	0.740	0.835	0.944	1.040	1.060	0.956	0.806	0.894	0.845	0.726	0.785	0.765	0.831	0.988	1.058	1.092	1.196	1.351	1.534	1.775	1.907	2.216	2.893	3.567	4.275	4.084	2.961	1.953	1.482	1.338	1.296	1.928	3.369
315.0	306.8	382.0	346.6	259.8	186.3	179.2	195.4	231.9	277.5	338.3	417.9	509.8	647.1	771.7	343.4	201.9	349.9	823.7	2064	5302	492.1	17.75	3.348	2.609	2.106	1.434	1.358	1.181	1.089	0.773	0.774	0.667	0.733	0.735	0.769	0.775	0.762	0.796	0.586	0.656	0.582	0.553	0.712	0.653	0.777	0.875	0.961	1.199	1.038	0.871	0.780	0.881	0.822	0.788	0.836	0.848	0.959	1.048	1.024	1.128	1.352	1.355	1.619	1.602	1.815	1.876	2.244	2.369	2.607	3.151	4.039	4.072	2.571	1.634	1.224	1.312	1.551
320.0	327.8	427.4	409.7	293.9	211.4	195.7	215.2	255.0	298.1	352.2	434.2	492.7	525.0	711.2	597.3	226.9	188.1	255.7	555.9	3339	3959	366.3	7.647	3.419	2.506	1.713	1.342	1.203	1.049	0.877	0.895	0.838	0.753	0.779	0.721	0.722	0.698	0.742	0.583	0.604	0.627	0.612	0.744	0.773	0.745	0.832	1.105	1.260	1.254	1.017	0.838	1.000	0.949	0.888	0.837	0.904	1.043	1.109	1.215	1.337	1.418	1.649	1.741	1.643	2.029	2.250	2.155	2.290	2.377	2.700	2.960	3.952	4.339	3.250	1.762	1.248	1.296
325.0	350.5	511.8	500.6	366.8	244.7	220.1	229.8	267.5	309.2	368.4	456.4	500.0	497.8	542.1	685.9	382.1	176.7	143.8	178.0	945.1	3546	3174	55.72	4.988	2.699	2.117	1.431	1.179	1.279	0.960	0.915	0.922	0.769	0.685	0.833	0.720	0.680	0.699	0.622	0.710	0.556	0.614	0.730	0.729	0.912	0.998	1.244	1.573	1.498	1.086	1.004	1.124	1.060	1.079	1.009	0.945	1.073	1.109	1.296	1.322	1.463	1.615	1.798	1.669	2.102	2.379	2.174	2.505	2.283	2.596	2.388	2.878	3.514	4.301	3.668	2.114	1.471
330.0	393.7	568.7	629.5	472.5	318.7	248.6	244.2	280.8	326.1	393.0	464.4	517.7	513.5	482.2	512.3	535.1	320.0	149.2	111.2	262.4	1006	2632	2875	771.6	14.18	2.943	1.958	1.564	1.422	1.200	1.115	0.901	0.848	0.747	0.759	0.832	0.678	0.721	0.600	0.672	0.621	0.654	0.704	0.794	0.882	1.142	1.415	1.849	1.749	1.651	1.464	1.378	1.268	1.129	1.087	0.992	1.155	1.120	1.335	1.430	1.534	1.656	1.795	1.829	2.022	2.263	2.275	2.388	2.386	2.529	2.437	2.558	2.607	2.969	3.376	3.314	2.894
335.0	456.9	639.0	718.5	569.2	388.5	291.3	268.6	296.7	341.1	406.7	475.6	525.6	523.4	489.9	439.7	419.8	491.2	275.1	124.7	126.7	269.2	636.8	1830	3625	382.7	12.17	2.507	1.960	1.742	1.358	1.230	1.040	0.823	0.830	0.788	0.730	0.763	0.665	0.607	0.615	0.656	0.648	0.808	0.784	0.835	1.180	1.550	1.959	1.985	1.899	1.713	1.725	1.373	1.228	1.288	1.238	1.180	1.321	1.592	1.347	1.701	1.744	2.015	1.930	2.171	2.327	2.326	2.457	2.703	2.427	2.441	2.592	2.337	2.337	2.397	2.486	2.936
340.0	458.6	653.0	771.0	625.4	434.8	323.3	293.9	307.6	351.9	408.9	475.1	524.9	533.0	493.5	429.8	363.0	419.7	420.0	178.9	113.8	116.8	181.1	499.0	2658	3089	290.3	5.165	2.577	2.101	1.509	1.240	1.084	1.080	0.839	0.908	0.757	0.713	0.733	0.739	0.589	0.587	0.635	0.748	0.831	0.954	1.175	1.620	1.951	1.945	1.993	1.747	1.955	1.561	1.383	1.361	1.244	1.291	1.281	1.316	1.456	1.790	1.675	1.869	1.843	2.026	2.240	2.147	2.470	2.427	2.559	2.498	2.619	2.385	2.477	2.194	2.122	2.278
345.0	441.4	635.7	788.8	663.1	452.4	339.9	306.2	317.6	352.5	412.3	461.6	517.0	520.7	490.3	430.8	361.3	331.2	427.6	302.6	135.5	97.54	90.45	146.8	784.3	3035	2532	45.92	3.755	2.736	1.983	1.569	1.067	0.845	0.827	0.931	0.732	0.750	0.699	0.743	0.586	0.567	0.607	0.680	0.824	0.981	1.262	1.481	2.070	2.018	2.041	1.760	2.076	1.807	1.502	1.514	1.270	1.446	1.517	1.231	1.547	1.697	1.686	1.937	2.150	2.213	2.140	2.315	2.495	2.516	2.443	2.457	2.516	2.480	2.576	2.170	2.097	2.084
350.0	419.8	612.4	762.3	652.4	480.7	370.1	323.2	331.9	359.4	409.8	454.6	498.5	512.2	485.0	435.0	365.9	310.7	318.0	357.0	254.8	125.5	89.02	82.65	211.6	889.2	2297	2246	209.3	12.39	2.550	1.823	1.310	0.943	1.017	0.878	0.805	0.696	0.717	0.667	0.592	0.665	0.681	0.697	0.856	1.092	1.142	1.339	1.841	1.947	2.008	1.735	1.943	1.839	1.612	1.559	1.489	1.397	1.491	1.318	1.520	1.697	1.702	1.858	2.057	2.143	2.179	2.283	2.299	2.365	2.392	2.356	2.409	2.324	2.525	2.219	2.115	1.892
355.0	409.9	569.4	712.4	644.4	498.5	411.8	356.3	358.2	373.0	409.7	457.7	489.5	494.8	472.6	435.9	374.1	317.8	288.5	280.3	339.3	232.5	117.0	88.75	98.91	234.4	557.5	1563	2759	335.1	10.15	2.320	1.729	1.222	1.092	1.046	0.790	0.819	0.693	0.660	0.725	0.705	0.648	0.854	0.814	0.804	1.101	1.357	1.707	1.951	1.852	1.731	1.961	1.893	1.458	1.638	1.605	1.482	1.554	1.559	1.619	1.665	1.763	1.832	1.998	1.971	2.110	2.229	2.324	2.266	2.518	2.202	2.474	2.411	2.374	2.425	2.330	1.996
360.0	368.2	546.5	662.5	638.0	512.0	434.8	378.8	375.4	386.2	414.0	457.2	484.8	491.1	468.8	431.2	380.0	333.1	293.9	257.6	296.4	321.3	173.6	107.3	87.90	99.46	156.8	432.6	2171	2659	50.96	4.306	2.054	1.329	1.067	1.102	0.857	0.760	0.771	0.649	0.848	0.634	0.645	0.785	0.806	0.817	1.097	1.287	1.780	1.815	1.758	1.656	2.012	2.013	1.597	1.517	1.617	1.766	1.634	1.473	1.645	1.825	1.668	1.976	1.975	2.073	1.994	2.193	2.143	2.240	2.163	2.392	2.352	2.213	2.423	2.338	2.199	2.191
365.0	360.1	516.0	656.8	625.3	522.6	452.3	400.2	387.7	404.0	419.5	455.2	476.7	479.2	463.3	435.4	382.7	341.8	300.9	267.4	257.4	319.1	272.4	139.7	98.24	80.57	76.99	126.0	666.0	2788	2049	41.39	3.239	1.734	1.312	1.185	1.011	0.843	0.847	0.636	0.746	0.604	0.668	0.697	0.799	0.860	1.128	1.248	1.747	1.779	1.697	1.590	2.004	1.990	1.795	1.827	1.725	1.792	1.608	1.660	1.809	1.740	1.911	2.127	1.971	2.062	1.959	2.239	2.040	2.267	2.209	2.651	2.385	2.462	2.616	2.366	2.356	2.171
370.0	347.4	499.0	619.1	610.5	538.3	472.2	427.5	410.8	415.7	431.0	451.0	473.3	471.3	459.2	433.0	389.8	354.1	323.3	288.4	264.4	262.9	301.0	244.9	140.1	99.06	75.83	70.38	179.0	836.2	2000	1962	188.4	10.54	1.900	1.355	1.147	0.849	0.807	0.754	0.741	0.631	0.637	0.771	0.769	0.899	1.229	1.123	1.550	1.668	1.611	1.648	1.824	2.059	1.820	1.942	1.676	1.682	1.879	1.864	1.755	1.809	2.052	2.067	2.043	1.954	2.124	2.115	2.129	2.156	2.271	2.365	2.400	2.459	2.412	2.324	2.341	2.232
375.0	337.8	485.4	597.5	601.1	562.4	499.0	455.4	441.3	432.3	448.4	462.6	468.9	466.1	450.1	429.2	394.7	366.4	341.0	309.5	283.2	259.3	254.8	292.0	235.6	131.6	95.85	76.69	83.40	216.1	490.6	1455	2437	281.2	8.288	1.776	1.411	1.105	0.862	0.756	0.820	0.735	0.635	0.731	0.772	0.717	1.095	1.098	1.539	1.602	1.535	1.750	1.871	2.075	2.000	1.922	1.857	1.739	1.915	1.890	1.819	1.989	2.138	1.972	2.008	2.059	2.303	2.087	2.146	2.072	2.275	2.438	2.535	2.346	2.493	2.309	2.239	2.269
380.0	333.0	467.2	589.4	599.4	556.0	514.0	475.1	448.0	444.3	450.4	461.3	465.4	464.9	450.4	424.7	397.1	372.9	347.7	324.5	297.1	269.4	249.2	261.3	293.2	187.1	115.6	89.12	73.39	86.86	136.2	408.4	1949	2052	42.79	4.056	1.708	1.299	1.050	0.776	0.802	0.776	0.639	0.671	0.823	0.824	1.109	1.055	1.458	1.490	1.551	1.455	1.864	1.957	1.930	1.914	2.059	1.927	1.995	1.967	1.922	1.878	2.082	2.051	2.186	2.154	2.183	2.139	2.249	2.194	2.271	2.366	2.572	2.260	2.453	2.355	2.389	2.375
385.0	340.4	459.1	562.4	591.6	558.5	526.7	480.6	464.3	456.1	457.0	459.7	462.8	460.2	440.9	422.1	393.1	372.9	352.9	333.3	308.7	279.1	256.5	244.1	278.6	257.9	150.6	105.2	82.23	67.10	65.21	118.0	592.9	2079	1586	35.19	2.687	1.540	1.200	0.872	0.723	0.781	0.657	0.790	0.804	0.936	1.072	1.186	1.349	1.497	1.440	1.493	1.843	2.033	1.913	2.033	1.892	1.916	2.173	2.067	2.103	2.057	1.938	2.060	2.080	2.171	2.192	2.026	2.083	2.196	2.249	2.213	2.264	2.134	2.564	2.397	2.475	2.288
390.0	338.3	468.4	559.4	582.9	563.1	537.0	500.4	476.3	472.2	463.3	462.5	460.5	456.6	436.8	413.0	388.9	368.8	353.4	337.5	318.1	294.6	271.0	249.0	243.1	262.1	228.7	143.5	102.9	79.67	63.48	61.41	157.2	608.8	1466	1516	152.3	9.777	1.798	1.145	0.885	0.817	0.822	0.863	0.754	0.905	1.071	1.247	1.422	1.531	1.449	1.523	1.790	2.107	1.966	2.073	1.999	2.037	2.158	2.113	2.170	2.003	2.096	2.038	2.212	2.022	2.063	1.928	2.216	2.269	2.206	2.159	2.176	2.311	2.434	2.215	2.248	2.475
395.0	327.5	440.1	552.2	601.9	557.6	544.5	509.6	485.0	481.5	465.6	471.8	463.7	454.6	429.5	407.7	383.1	368.4	353.9	338.9	321.1	303.6	285.6	262.4	242.6	233.6	250.2	214.7	134.4	99.98	78.72	60.45	67.96	159.0	356.4	1030	1798	246.0	10.28	1.682	1.174	0.885	0.871	0.943	0.937	0.931	1.099	1.180	1.326	1.475	1.526	1.500	1.810	2.077	2.187	2.061	1.998	2.119	2.094	2.086	2.177	2.021	1.995	2.034	2.095	2.175	2.031	2.169	2.210	2.165	2.160	2.220	2.036	2.322	2.398	2.160	2.179	2.451
400.0	304.6	433.3	540.0	575.7	567.2	546.4	520.1	494.5	483.6	468.5	473.0	461.2	449.0	425.8	404.3	382.8	362.5	352.2	342.2	321.4	308.5	288.0	271.2	250.0	228.9	228.2	246.9	181.1	118.8	93.19	71.40	57.82	63.43	98.46	279.3	1306	1606	200.6	4.282	1.341	0.949	1.078	0.932	0.938	0.907	1.106	1.136	1.426	1.370	1.548	1.501	1.705	1.973	2.017	2.054	2.080	2.229	2.097	2.253	2.252	2.020	2.024	2.250	2.094	2.095	2.144	2.273	2.229	2.084	2.178	2.018	2.113	2.206	2.329	2.399	2.175	2.526
405.0	317.6	447.2	526.4	567.0	575.7	549.1	527.1	509.6	483.5	477.3	467.7	463.3	440.4	421.0	399.2	374.8	356.8	346.5	334.5	323.0	308.1	291.1	276.6	254.6	235.1	216.9	232.3	227.8	147.7	106.5	82.59	62.89	48.12	46.13	78.92	375.2	1447	1397	33.69	2.334	1.383	1.061	1.005	0.972	0.914	1.185	1.075	1.438	1.428	1.581	1.454	1.793	1.877	2.205	1.958	2.146	2.249	2.244	2.178	2.220	2.162	2.101	2.156	2.241	2.232	2.217	2.225	2.171	2.162	2.099	2.075	2.203	2.175	2.287	2.240	2.237	2.491
410.0	318.9	432.7	526.7	559.0	566.8	540.7	524.7	513.8	488.6	478.2	467.2	456.0	434.4	415.3	390.3	366.5	348.8	335.8	327.4	313.8	301.8	289.9	276.5	260.6	239.3	220.4	209.4	221.5	201.9	138.9	99.32	74.44	54.99	41.37	38.96	99.41	405.5	1108	1210	147.4	10.30	1.426	1.148	0.998	1.018	1.203	1.188	1.361	1.389	1.550	1.435	1.890	1.953	2.149	2.059	2.070	2.353	2.161	2.161	2.207	2.182	2.130	2.244	2.177	2.200	2.107	2.056	2.062	2.096	2.039	2.064	2.115	2.136	2.217	2.103	2.058	2.354
