Sample:	'1
File name:	G2025051430Ê¤°îÂÌÒ°Ô­Ë® 1000±¶.FD3
Run date:	'13:30:14, 05/22/2025
Operator:	Administrator
Comment:	'

Instrument
Model:	F-2700 FL Spectrophotometer
Serial number:	23B8-004
ROM Version:	4J14000 07

Instrument parameters
Measurement type:	3-D scan
Data mode:	Fluorescence
EX  Start WL:	220.0 nm
EX  End WL:	600.0 nm
EX Sampling interval:	5.0 nm
EM  Start WL:	230.0 nm
EM  End WL:	650.0 nm
EM Sampling interval:	5.0 nm
Scan speed:	12000 nm/min
EX Slit:	5.0 nm
EM Slit:	5.0 nm
PMT Voltage:	700 V
Response:	Auto 
Corrected spectra:	Off
Contour interval:	50.000

Peak integration
Integration method:	Rectangular
Sensitivity:	1
Threshold:	1.000

Peaks
No.	ApexEX/EM(nm)	Height(Data)
1	230.0/500.0	223.2
2	235.0/515.0	170.2
3	240.0/525.0	151.1
4	245.0/540.0	136.3
5	250.0/550.0	126.0
6	255.0/565.0	146.8
7	260.0/575.0	170.4
8	265.0/585.0	197.1
9	270.0/300.0	2359
10	270.0/325.0	1810
11	270.0/595.0	182.6
12	275.0/610.0	133.8
13	280.0/625.0	87.71
14	305.0/345.0	357.3
15	310.0/350.0	261.2
16	315.0/355.0	225.1
17	320.0/360.0	193.1
18	325.0/370.0	151.9
19	325.0/415.0	139.6
20	330.0/375.0	146.1
21	335.0/380.0	153.2
22	340.0/390.0	131.1
23	345.0/395.0	141.1
24	350.0/400.0	155.7
25	355.0/405.0	144.0
26	365.0/420.0	105.8
27	370.0/425.0	89.46
28	380.0/435.0	54.54
29	385.0/445.0	49.25
30	390.0/295.0	17.58
31	390.0/450.0	37.37
32	395.0/455.0	32.40
33	400.0/465.0	30.35
34	405.0/470.0	22.89
35	410.0/480.0	19.98
36	415.0/485.0	18.23
37	420.0/490.0	14.67
38	425.0/500.0	13.52
39	430.0/505.0	12.35
40	435.0/510.0	9.695
41	440.0/325.0	18.03
42	440.0/520.0	9.394
43	445.0/525.0	7.946
44	455.0/540.0	5.770
45	465.0/555.0	3.908
46	470.0/560.0	3.269
47	480.0/575.0	2.045
48	540.0/295.0	11.95
49	545.0/300.0	12.14
50	550.0/305.0	12.18

Data points
	220.0	225.0	230.0	235.0	240.0	245.0	250.0	255.0	260.0	265.0	270.0	275.0	280.0	285.0	290.0	295.0	300.0	305.0	310.0	315.0	320.0	325.0	330.0	335.0	340.0	345.0	350.0	355.0	360.0	365.0	370.0	375.0	380.0	385.0	390.0	395.0	400.0	405.0	410.0	415.0	420.0	425.0	430.0	435.0	440.0	445.0	450.0	455.0	460.0	465.0	470.0	475.0	480.0	485.0	490.0	495.0	500.0	505.0	510.0	515.0	520.0	525.0	530.0	535.0	540.0	545.0	550.0	555.0	560.0	565.0	570.0	575.0	580.0	585.0	590.0	595.0	600.0
230.0	166.4	5413	9999.9	4771	166.3	20.22	15.70	12.86	11.17	9.997	9.772	8.854	7.630	6.232	5.364	4.679	3.916	3.352	3.215	2.849	2.567	2.459	2.146	2.123	1.963	1.902	1.620	1.473	1.453	1.485	1.383	1.361	1.263	1.153	1.087	0.955	0.952	0.890	0.850	0.775	0.935	1.177	1.183	0.945	0.738	0.750	4.930	27.22	51.39	37.47	12.80	2.454	0.708	0.569	0.505	0.539	0.524	0.488	0.490	0.460	0.476	0.448	0.458	0.489	0.420	0.426	0.441	0.449	0.410	0.439	0.418	0.396	0.443	0.412	0.394	0.421	0.438
235.0	262.8	1411	6850	9999.9	3927	238.1	19.49	16.55	12.95	13.00	11.56	10.23	8.174	6.722	5.484	4.698	4.258	3.722	3.484	2.834	2.862	2.473	2.264	2.175	1.878	1.740	1.783	1.389	1.465	1.485	1.455	1.403	1.137	1.164	1.099	1.061	1.043	0.902	0.820	0.768	0.788	0.954	1.099	1.242	1.159	0.976	1.644	7.024	17.47	30.88	47.51	27.20	18.27	4.484	0.757	0.601	0.589	0.506	0.495	0.481	0.505	0.486	0.451	0.513	0.410	0.488	0.458	0.426	0.413	0.470	0.410	0.475	0.404	0.411	0.338	0.589	0.412
240.0	307.5	508.2	1963	9723	9999.9	3041	129.9	21.42	16.52	14.14	12.54	11.28	8.695	7.058	6.018	5.341	4.589	3.767	3.336	3.052	3.109	2.491	2.470	2.239	1.974	1.943	1.639	1.538	1.639	1.711	1.320	1.331	1.123	1.144	1.064	1.180	1.073	0.992	0.916	0.852	0.830	0.777	0.788	0.914	1.153	1.309	1.231	2.222	4.426	8.552	23.13	56.04	73.80	27.73	15.11	2.690	0.684	0.656	0.556	0.624	0.638	0.451	0.566	0.463	0.490	0.462	0.444	0.436	0.452	0.513	0.439	0.445	0.431	0.448	0.432	0.456	0.418
245.0	223.6	395.8	567.3	3142	9999.9	9999.9	2100	52.24	22.16	17.31	15.92	12.09	10.59	7.762	6.724	5.398	4.684	4.086	3.749	2.990	2.966	2.730	2.695	2.340	2.025	2.119	1.691	1.765	1.514	1.685	1.547	1.383	1.205	1.222	1.058	1.104	1.062	0.924	0.998	0.818	0.859	0.811	0.832	0.937	0.974	1.245	1.384	1.574	1.709	2.449	5.761	18.09	47.18	83.26	88.45	25.67	11.30	1.333	0.689	0.625	0.576	0.566	0.540	0.467	0.562	0.422	0.373	0.472	0.464	0.498	0.447	0.499	0.409	0.424	0.444	0.421	0.451
250.0	122.3	245.1	410.8	849.6	3394	9999.9	9999.9	5826	135.7	28.79	22.46	15.86	13.64	9.608	7.968	6.330	5.410	4.617	4.249	3.500	3.171	2.954	2.694	2.575	2.327	2.390	1.934	1.962	1.622	1.825	1.603	1.430	1.361	1.193	1.209	1.015	0.932	0.961	0.954	0.898	0.906	0.885	0.852	0.876	0.897	0.970	0.986	1.467	1.625	1.606	2.039	4.662	11.55	25.89	51.67	77.52	110.0	92.14	55.90	9.823	1.626	0.691	0.638	0.596	0.610	0.528	0.469	0.512	0.517	0.525	0.481	0.526	0.499	0.470	0.495	0.466	0.468
255.0	93.39	110.7	254.7	523.3	895.9	2551	9999.9	9999.9	2307	167.2	33.70	23.47	17.96	13.00	9.608	7.164	5.903	5.279	4.381	3.933	3.116	3.186	3.326	2.564	2.317	2.576	2.097	1.976	1.759	1.876	1.630	1.515	1.377	1.371	1.272	1.173	1.064	1.107	0.944	0.945	0.956	0.978	1.010	0.994	0.876	0.923	0.750	0.983	0.989	1.454	1.937	2.687	3.444	6.459	12.12	18.59	38.31	96.00	182.0	179.9	29.06	12.95	1.260	0.755	0.724	0.671	0.583	0.565	0.556	0.545	0.668	0.520	0.565	0.523	0.472	0.510	0.506
260.0	97.36	81.37	123.9	369.1	519.3	672.7	3175	9999.9	9999.9	1912	115.2	32.43	22.95	16.01	12.50	8.569	7.055	5.752	4.678	4.341	3.456	3.259	3.306	2.689	2.372	2.586	2.186	2.174	2.069	1.747	1.815	1.676	1.516	1.497	1.365	1.297	1.203	1.087	0.945	0.988	1.085	0.951	0.967	0.986	0.959	0.878	0.841	0.868	0.848	0.959	1.393	2.345	2.630	2.685	3.445	4.739	9.423	25.29	76.90	170.0	218.4	176.9	24.31	7.857	0.975	0.869	0.693	0.666	0.750	0.561	0.663	0.632	0.620	0.537	0.512	0.581	0.503
265.0	112.5	84.38	82.80	183.8	469.7	396.8	802.1	4544	9999.9	9999.9	1474	58.45	31.30	20.73	15.23	10.66	8.443	6.826	5.716	5.052	4.361	3.596	3.414	3.237	3.023	2.836	2.267	2.383	2.091	2.018	2.079	1.893	1.675	1.556	1.330	1.410	1.190	1.190	1.057	1.063	1.025	1.125	1.078	0.974	0.908	0.954	0.890	0.850	0.821	0.705	0.851	1.390	2.328	3.015	2.536	2.065	2.975	6.521	18.34	48.44	117.5	237.9	243.3	157.3	19.53	2.911	0.963	0.800	0.788	0.696	0.691	0.653	0.597	0.585	0.616	0.520	0.490
270.0	295.1	161.1	94.58	97.90	249.0	485.2	459.6	1162	5125	9999.9	9999.9	5441	97.01	31.52	21.29	14.82	10.98	8.528	7.151	6.063	4.886	4.212	4.251	3.313	3.160	3.186	2.660	2.485	2.389	2.484	2.203	2.130	2.182	2.299	2.355	2.126	1.817	1.636	1.649	1.475	1.537	1.528	1.484	1.465	1.349	1.229	1.023	0.970	0.927	0.693	0.743	1.015	1.288	1.871	2.482	2.941	2.882	2.910	5.163	11.81	28.00	67.18	123.0	204.4	229.1	190.7	111.4	13.38	3.437	0.902	0.920	0.847	0.848	0.700	0.720	0.718	0.670
275.0	1037	558.1	222.3	106.2	141.9	298.2	678.5	583.3	1399	3191	9999.9	9999.9	7641	102.0	33.36	21.51	15.40	10.98	8.769	7.808	5.978	4.953	4.479	3.964	3.664	3.540	2.893	2.724	2.489	2.469	2.472	2.662	3.767	4.771	5.271	5.172	4.290	3.527	3.140	3.182	3.061	3.295	3.102	3.030	2.828	2.608	1.980	1.552	1.233	0.950	0.826	0.974	1.010	1.264	1.475	1.979	3.405	4.606	4.047	4.375	7.843	16.73	29.41	48.45	69.54	157.6	315.7	258.6	33.87	19.31	2.344	1.224	1.017	1.086	1.007	0.898	0.902
280.0	2073	1128	432.8	160.6	139.9	216.8	558.2	890.0	820.5	1255	4623	9999.9	9999.9	1088	69.77	29.79	19.23	14.30	10.48	8.594	6.706	5.614	5.045	4.357	4.375	4.243	3.406	3.186	2.746	3.005	2.602	3.683	5.235	7.456	9.438	8.523	7.211	6.124	5.338	4.920	4.899	5.287	4.995	5.175	5.078	4.126	3.248	2.514	1.754	1.284	1.032	1.077	0.998	1.225	1.344	1.494	2.413	3.996	5.300	5.188	4.684	6.489	9.222	13.93	18.78	41.03	112.5	235.9	358.1	245.1	30.57	12.56	1.513	1.239	1.259	1.121	1.307
285.0	3108	1789	784.9	255.5	163.6	221.9	410.1	962.1	1128	1072	1889	6838	9999.9	9999.9	769.0	45.81	25.45	17.86	13.58	10.47	8.416	6.784	5.548	4.874	4.630	4.587	3.728	3.294	2.934	2.934	2.865	4.175	6.681	10.51	13.21	11.97	10.67	8.765	7.272	6.694	6.923	7.025	7.459	7.104	7.194	6.434	4.877	4.154	2.676	1.739	1.263	1.244	1.262	1.250	1.471	1.636	2.065	2.818	4.235	5.829	6.539	5.942	5.961	6.922	8.225	13.59	29.50	63.36	153.4	299.3	391.2	219.1	25.12	5.824	1.882	1.558	1.529
290.0	4200	2830	1317	425.3	213.1	253.5	405.4	768.1	1375	1644	1621	2543	6961	9999.9	9999.9	3098	59.28	26.22	18.08	14.00	10.50	8.124	6.780	5.767	5.067	4.882	3.955	3.681	3.397	3.161	3.010	4.820	7.979	13.12	16.56	15.82	14.35	11.07	9.053	8.165	8.430	9.070	9.444	9.508	9.237	9.003	7.354	6.354	4.368	2.627	1.774	1.589	1.401	1.392	1.611	1.692	2.184	2.555	3.489	4.365	5.964	7.946	9.033	8.582	8.135	9.001	12.14	19.00	38.78	78.99	155.1	227.3	235.8	194.0	132.2	16.83	6.094
295.0	4832	3589	1773	597.4	264.4	289.4	429.9	729.0	1196	1950	2039	1763	2225	3161	9999.9	9999.9	4303	63.02	27.51	18.44	13.14	10.11	8.574	6.537	5.958	5.729	4.560	4.130	3.948	3.273	3.640	5.034	8.736	14.82	17.58	17.40	15.12	11.91	10.13	9.100	9.033	9.817	10.39	10.75	10.87	10.85	9.408	7.703	5.653	3.578	2.353	2.133	1.637	1.546	1.724	1.869	2.451	2.774	3.621	4.132	5.269	6.488	8.131	11.00	11.95	10.35	9.360	10.35	13.56	21.41	37.38	53.13	62.69	115.8	272.6	356.7	213.6
300.0	5037	3878	1935	676.7	303.2	313.0	453.9	734.3	1133	1711	2359	1800	1226	996.8	3982	9999.9	9999.9	641.1	45.77	24.99	17.42	12.73	9.991	7.938	6.991	6.487	5.439	4.520	4.229	3.797	3.866	5.200	8.884	14.42	17.49	16.86	15.09	12.29	9.703	9.214	9.410	10.14	10.50	10.90	11.15	10.96	9.667	8.509	6.098	3.938	2.698	2.261	1.879	1.763	1.858	2.002	2.712	2.874	3.667	4.297	5.162	6.263	7.369	9.157	11.63	12.14	10.69	8.742	8.464	8.759	11.47	14.12	15.80	28.46	80.90	198.9	355.7
305.0	4761	3679	1973	716.6	326.2	324.2	482.4	732.5	1093	1516	2078	2070	1062	518.2	1031	6056	9999.9	9999.9	467.9	35.43	21.73	15.77	12.00	8.952	7.519	7.248	5.698	4.652	4.374	3.995	3.859	5.074	8.757	12.52	16.38	16.57	13.84	11.23	9.430	8.841	8.644	9.034	10.19	10.66	10.32	11.01	9.516	8.652	6.108	4.188	2.793	2.410	2.048	1.939	1.976	2.127	2.602	3.051	3.906	4.233	5.136	5.904	7.032	8.049	9.325	10.48	12.18	11.05	8.388	6.239	5.754	5.403	5.230	8.051	19.73	48.90	123.6
310.0	4557	3391	1859	700.1	343.1	349.0	490.3	736.6	1059	1405	1692	1836	1354	529.8	375.0	1481	6103	9999.9	9999.9	2168	45.58	22.42	15.60	11.63	9.191	8.492	6.649	5.395	4.822	4.523	4.190	4.782	7.886	11.33	14.06	13.91	12.40	9.794	8.357	7.781	8.020	9.105	9.637	10.32	10.31	10.50	9.045	8.013	6.195	4.029	2.761	2.377	2.109	1.996	2.050	2.339	2.699	3.149	3.683	4.391	5.077	5.816	6.553	7.496	8.042	8.556	9.261	9.534	9.407	7.763	5.786	4.001	3.106	3.451	5.862	12.56	29.40
315.0	5397	3460	1727	681.5	373.0	410.2	562.6	819.2	1127	1463	1645	1623	1373	972.1	337.8	448.3	1452	2860	9999.9	9999.9	3220	48.79	22.91	16.48	11.68	10.06	8.196	6.387	5.783	5.299	4.702	4.945	6.890	9.368	11.96	12.07	10.54	8.563	8.195	7.937	8.141	9.529	10.64	12.55	12.42	11.48	9.511	7.671	5.981	3.857	2.844	2.362	2.034	2.214	2.229	2.566	3.067	3.478	4.176	4.724	5.154	6.101	7.014	7.697	8.001	8.877	8.726	8.224	7.809	7.205	7.900	6.511	4.192	2.785	3.201	4.257	8.123
320.0	6747	3995	1825	729.8	426.2	479.9	659.8	937.0	1280	1621	1799	1733	1353	1194	589.0	260.1	436.8	731.3	3750	9999.9	9999.9	484.8	38.10	21.33	14.86	11.87	8.895	7.123	6.164	5.441	4.872	5.356	6.293	8.261	10.31	10.69	9.621	8.305	7.545	8.397	9.175	10.91	12.80	15.06	15.94	13.91	10.57	8.458	6.135	3.853	2.792	2.556	2.378	2.506	2.609	2.918	3.514	3.759	4.562	5.324	6.109	6.892	8.054	8.960	8.906	9.312	9.278	8.982	8.132	7.225	7.225	7.286	6.734	4.518	2.954	2.595	3.457
325.0	7350	4254	1991	787.5	461.8	498.2	687.4	971.6	1295	1631	1810	1760	1336	1073	818.3	326.5	220.9	257.2	933.5	5665	9999.9	9999.9	365.8	29.38	17.89	14.56	10.46	8.253	6.848	6.313	5.173	5.305	6.238	7.812	9.224	8.987	8.267	7.652	7.926	8.120	9.249	11.08	14.11	16.80	18.03	15.06	11.12	9.192	6.366	4.197	3.066	2.749	2.526	2.505	2.556	2.906	3.491	3.968	4.929	5.313	6.162	7.146	8.186	8.778	9.276	9.232	9.454	8.851	8.023	7.222	6.701	6.296	6.630	6.000	4.468	2.851	2.466
330.0	7163	4237	2039	881.2	510.2	518.1	670.7	931.8	1235	1513	1685	1639	1276	952.0	662.6	522.8	265.9	158.0	286.2	1357	5637	9999.9	9999.9	1763	35.89	21.20	13.56	9.988	8.851	7.646	5.760	5.468	6.348	6.955	7.844	7.649	7.461	7.145	7.428	7.852	8.874	11.16	13.41	16.47	17.17	14.74	10.67	8.946	6.513	4.390	3.279	2.934	2.626	2.506	2.719	2.996	3.488	3.837	4.763	5.116	5.965	6.825	7.567	8.186	8.584	8.721	8.446	8.539	7.688	6.698	6.373	5.753	5.173	4.454	4.491	4.476	3.909
335.0	6865	4052	2008	921.4	544.1	529.2	646.6	860.7	1133	1373	1541	1515	1202	896.7	521.5	417.1	445.0	200.7	142.5	365.9	1311	2782	9999.9	9999.9	2689	43.60	18.69	13.39	10.70	9.070	7.022	6.140	6.311	6.538	7.325	6.879	6.590	6.409	6.777	7.090	8.489	10.27	13.13	15.59	16.69	14.05	10.27	8.745	6.276	4.467	3.409	3.014	2.933	2.669	2.834	3.016	3.480	3.934	4.353	4.855	5.543	5.909	6.937	7.761	7.894	8.268	8.381	7.889	7.353	6.353	5.983	5.692	4.717	3.735	3.366	3.063	3.588
340.0	5942	3685	1903	877.3	528.8	482.6	587.9	745.0	976.2	1192	1326	1308	1051	790.3	454.2	299.6	391.5	328.0	124.3	140.1	342.4	671.2	3582	9999.9	9999.9	419.8	30.61	17.75	13.01	10.39	7.984	6.622	6.197	6.223	6.534	6.682	5.738	5.708	5.784	6.342	7.861	8.849	11.57	13.78	14.60	12.88	9.580	7.838	6.004	4.335	3.255	3.070	2.645	2.638	2.697	2.887	3.134	3.486	3.927	4.290	5.119	5.204	6.404	6.865	6.796	7.352	7.257	7.078	6.367	5.535	5.191	5.139	4.291	3.433	2.740	2.474	2.636
345.0	4996	3085	1697	816.8	509.2	437.4	498.9	638.1	806.3	993.3	1093	1092	877.7	679.1	398.9	243.1	249.5	357.3	196.3	89.53	121.2	191.4	850.8	5018	9999.9	9999.9	329.6	24.07	15.99	11.89	9.208	7.648	6.480	6.392	6.129	5.840	5.466	5.261	5.325	5.663	6.696	7.812	9.893	11.50	12.53	10.47	8.118	7.084	5.403	4.104	3.257	2.905	2.739	2.658	2.564	2.765	2.789	3.220	3.520	3.844	4.207	4.738	5.118	5.762	5.923	6.099	6.096	6.138	5.192	4.834	4.665	4.560	3.748	3.010	2.629	2.206	2.183
350.0	3840	2464	1378	711.8	462.4	385.9	415.6	510.4	637.5	769.4	848.4	844.8	706.0	547.7	327.2	202.4	162.6	203.1	261.2	142.7	72.66	77.41	222.5	1169	4862	9999.9	9999.9	1609	33.12	16.48	11.43	8.723	7.346	6.221	5.768	5.407	5.099	4.790	4.690	5.044	5.440	6.639	7.962	8.952	9.935	8.722	6.688	6.031	4.622	3.505	2.929	2.600	2.548	2.276	2.325	2.271	2.511	2.678	2.950	3.299	3.377	3.949	4.329	4.664	4.463	4.810	4.997	4.702	4.254	4.038	3.957	3.786	3.303	2.724	2.212	1.907	1.986
355.0	2702	1850	1071	590.1	397.6	324.1	330.8	381.4	471.9	560.1	609.6	622.6	527.1	414.2	255.3	165.8	123.1	114.0	147.5	225.1	116.0	50.84	77.45	285.2	1108	2629	9999.9	9999.9	2661	37.10	15.71	11.32	8.674	6.681	5.912	5.149	4.747	4.180	4.416	4.161	4.767	5.204	6.352	7.253	7.420	6.740	5.251	4.962	3.866	2.955	2.291	2.367	2.179	2.010	2.072	1.840	2.110	2.347	2.346	2.564	2.769	3.009	3.372	3.457	3.457	3.622	3.837	3.924	3.338	3.068	3.077	2.987	2.483	2.256	2.096	1.814	1.743
360.0	2063	1444	875.6	512.0	339.8	276.7	266.1	307.0	363.4	426.9	471.5	480.0	407.0	320.6	211.5	141.0	105.5	85.29	86.72	163.3	193.1	65.76	43.28	85.66	268.2	615.0	3013	9999.9	9999.9	405.1	28.56	14.12	10.05	8.289	6.265	5.276	4.484	4.184	4.072	3.879	3.989	4.257	5.171	5.589	5.776	5.582	4.408	4.099	3.317	2.644	2.105	2.075	1.907	1.840	1.764	1.839	1.981	2.072	2.029	2.290	2.249	2.525	2.511	2.708	2.877	3.014	3.086	3.044	2.827	2.707	2.489	2.521	2.104	1.978	1.696	1.449	1.558
365.0	1629	1131	730.4	439.3	293.6	241.0	228.5	252.2	297.9	344.2	378.1	380.1	331.8	265.1	176.7	122.0	92.77	73.41	63.80	88.00	182.0	138.7	42.59	38.26	79.18	159.7	702.0	3989	9999.9	9999.9	343.4	21.42	12.40	9.451	7.079	5.726	4.888	4.402	4.011	3.602	3.708	3.845	4.250	4.791	4.838	4.667	3.614	3.492	2.842	2.383	1.922	2.059	1.915	1.765	1.682	1.664	1.868	1.847	1.905	1.928	1.973	2.074	2.170	2.434	2.474	2.446	2.558	2.371	2.467	2.250	2.141	2.279	2.077	1.568	1.553	1.347	1.415
370.0	1183	856.7	558.1	365.2	253.1	210.0	186.7	200.8	233.6	262.4	289.1	287.8	258.8	204.5	144.5	103.9	82.59	66.26	55.74	56.03	92.04	151.9	105.5	39.54	34.62	55.05	175.8	920.9	4093	9999.9	9999.9	1504	29.32	13.05	9.091	6.689	5.188	4.606	4.053	3.643	3.480	3.550	3.898	4.109	4.006	3.671	3.008	2.955	2.474	2.024	1.732	1.828	1.714	1.639	1.463	1.497	1.638	1.613	1.555	1.676	1.831	1.806	1.869	1.991	2.099	2.104	2.075	2.016	1.928	1.724	1.857	1.842	1.702	1.466	1.396	1.291	1.320
375.0	838.9	645.1	433.6	290.5	224.0	183.5	160.7	165.9	180.7	196.6	214.9	220.0	197.4	159.6	118.6	91.69	76.34	62.36	53.52	49.89	54.64	79.95	146.1	103.9	34.21	31.08	56.79	224.0	933.2	2467	9999.9	9999.9	2535	32.83	11.74	8.567	6.136	4.886	4.387	3.754	3.548	3.328	3.378	3.438	3.218	2.952	2.567	2.423	2.144	1.787	1.650	1.648	1.577	1.498	1.538	1.401	1.492	1.492	1.550	1.597	1.600	1.654	1.659	1.704	1.561	1.653	1.649	1.604	1.487	1.442	1.539	1.564	1.332	1.381	1.241	1.213	1.285
380.0	691.8	524.7	378.0	270.6	205.6	169.9	153.1	150.7	152.6	161.4	175.8	175.9	161.8	136.1	107.8	85.91	72.50	63.73	56.07	51.60	49.33	52.93	99.13	153.2	58.66	30.51	32.82	69.96	228.3	574.5	2771	9999.9	9999.9	1945	24.37	10.81	7.463	5.993	4.748	3.783	3.467	3.289	3.403	2.985	3.118	2.685	2.491	2.164	2.014	1.614	1.581	1.689	1.539	1.550	1.491	1.428	1.440	1.403	1.423	1.442	1.398	1.501	1.421	1.538	1.508	1.521	1.402	1.487	1.500	1.335	1.481	1.519	1.229	1.364	1.270	1.167	1.209
385.0	571.3	471.3	355.6	260.3	207.7	182.6	162.0	145.0	141.6	145.7	148.7	151.3	140.3	122.1	97.40	82.59	72.58	67.44	60.95	57.53	54.73	52.22	65.86	129.5	127.1	49.44	31.59	38.56	72.94	150.0	644.5	3314	9999.9	9999.9	301.5	17.17	9.605	6.634	5.358	4.474	3.556	3.250	3.105	2.894	2.921	2.621	2.264	2.068	1.974	1.586	1.552	1.661	1.478	1.422	1.414	1.515	1.680	1.386	1.525	1.395	1.373	1.449	1.256	1.379	1.332	1.321	1.335	1.292	1.438	1.300	1.318	1.316	1.324	1.355	1.151	1.196	1.133
390.0	574.4	478.4	370.0	271.0	231.2	208.0	184.5	167.7	147.6	131.5	129.5	125.7	123.6	107.9	93.15	84.40	80.36	77.36	75.21	75.20	71.99	69.33	71.38	89.46	131.1	120.5	51.47	40.52	43.84	58.65	165.7	763.3	3268	9999.9	9999.9	4478	24.08	9.056	6.671	5.271	4.222	3.824	3.358	3.089	2.922	2.823	2.315	2.246	2.082	1.666	1.604	1.714	1.610	1.681	1.606	1.609	1.618	1.430	1.489	1.538	1.346	1.378	1.279	1.292	1.163	1.221	1.286	1.163	1.204	1.215	1.181	1.289	1.351	1.299	1.367	1.196	1.182
395.0	599.0	519.3	398.4	303.2	269.2	245.8	226.4	197.5	162.7	126.1	115.8	108.4	111.4	101.5	90.73	90.43	89.08	92.29	95.64	96.31	96.30	93.50	92.48	92.47	102.6	141.1	125.9	57.77	45.27	41.98	60.78	189.6	745.8	2321	7479	9999.9	2220	29.79	9.082	6.764	5.396	4.182	3.778	3.411	3.359	3.139	2.646	2.464	2.094	1.734	1.627	1.775	1.852	1.675	1.885	1.714	1.815	1.692	1.726	1.593	1.421	1.385	1.264	1.229	1.258	1.275	1.084	1.147	1.133	1.212	1.127	1.205	1.158	1.156	1.389	1.532	1.675
400.0	633.0	564.7	427.7	321.3	290.8	276.3	260.0	221.6	173.6	126.8	107.1	101.3	106.6	94.41	92.86	95.12	95.88	101.5	108.8	113.5	112.7	110.7	109.6	105.6	100.7	120.3	155.7	101.7	55.09	42.41	38.53	61.86	182.5	533.3	1881	9677	9999.9	1848	23.10	8.458	6.030	4.855	4.238	3.470	3.315	3.094	2.722	2.627	2.294	1.922	1.798	1.967	1.894	2.051	1.928	1.837	1.895	1.838	1.595	1.688	1.520	1.493	1.296	1.224	1.170	1.114	0.960	1.077	1.092	1.168	1.005	1.182	1.133	1.165	1.150	1.300	1.583
405.0	638.4	603.8	458.0	351.4	324.1	305.6	288.1	243.5	178.6	129.3	102.7	93.95	107.9	93.03	93.57	96.64	103.8	110.8	118.7	125.4	127.2	124.7	122.4	117.6	107.4	110.8	132.9	144.0	76.93	45.28	34.52	33.54	56.27	131.6	433.5	2602	9999.9	9999.9	283.2	16.36	7.187	5.818	4.799	3.819	3.664	3.333	2.998	2.842	2.308	2.012	1.852	1.980	2.073	1.993	1.985	1.934	2.120	1.942	1.834	1.665	1.450	1.444	1.348	1.189	1.024	1.070	0.962	0.986	1.069	1.139	0.963	1.099	1.090	1.129	1.098	1.262	1.258
410.0	671.8	621.1	484.7	359.6	332.4	315.8	306.9	258.4	186.2	126.3	97.21	88.43	103.9	90.28	93.94	98.98	108.6	117.8	125.5	132.8	136.0	137.0	133.3	127.9	116.4	115.0	104.9	125.7	120.1	66.15	36.71	27.11	27.56	41.41	107.0	592.3	2677	8459	9999.9	3855	22.15	7.634	6.129	4.806	4.055	3.711	3.206	3.004	2.464	2.254	1.902	2.167	2.132	2.134	2.158	1.983	2.177	2.003	1.991	1.712	1.678	1.440	1.361	1.215	1.080	1.038	1.015	0.984	0.992	1.042	1.053	1.134	1.117	1.165	1.158	1.212	1.215
415.0	653.7	597.8	475.6	368.3	328.2	318.7	304.0	264.2	184.6	122.6	90.34	80.09	98.10	86.49	90.94	97.65	107.2	118.3	125.1	133.6	137.2	139.6	137.0	128.7	118.6	115.2	95.91	93.43	109.7	104.3	49.03	25.97	20.36	19.94	33.25	140.7	605.0	1922	5069	9999.9	2091	28.72	7.847	5.625	4.573	4.005	3.377	3.175	2.568	2.295	1.922	2.171	2.083	2.124	2.017	1.989	2.058	1.897	1.902	1.932	1.557	1.435	1.379	1.149	1.003	0.926	1.027	0.969	0.939	0.941	1.047	1.038	0.936	1.110	1.193	1.191	1.241
