Sample:	'1
File name:	章丘二厂6.23 10.00 鲁洪对面西 25倍.FD3
Run date:	'09:53:24, 06/24/2025
Operator:	Administrator
Comment:	'

Instrument
Model:	F-2700 FL Spectrophotometer
Serial number:	23B8-004
ROM Version:	4J14000 07

Instrument parameters
Measurement type:	3-D scan
Data mode:	Fluorescence
EX  Start WL:	220.0 nm
EX  End WL:	600.0 nm
EX Sampling interval:	5.0 nm
EM  Start WL:	230.0 nm
EM  End WL:	650.0 nm
EM Sampling interval:	5.0 nm
Scan speed:	12000 nm/min
EX Slit:	5.0 nm
EM Slit:	5.0 nm
PMT Voltage:	700 V
Response:	Auto 
Corrected spectra:	Off
Contour interval:	50.000

Peak integration
Integration method:	Rectangular
Sensitivity:	1
Threshold:	1.000

Peaks
No.	ApexEX/EM(nm)	Height(Data)
1	225.0/305.0	8734
2	225.0/490.0	245.3
3	225.0/595.0	623.4
4	230.0/500.0	229.0
5	235.0/260.0	378.3
6	235.0/515.0	179.0
7	240.0/265.0	445.1
8	240.0/525.0	164.4
9	245.0/270.0	452.8
10	245.0/540.0	147.0
11	250.0/275.0	597.8
12	250.0/550.0	125.7
13	255.0/565.0	128.2
14	260.0/575.0	169.1
15	265.0/590.0	235.9
16	270.0/300.0	3581
17	270.0/600.0	264.5
18	275.0/305.0	3445
19	300.0/335.0	449.6
20	305.0/345.0	375.4
21	310.0/350.0	307.8
22	315.0/355.0	286.8
23	320.0/360.0	271.7
24	325.0/370.0	236.5
25	330.0/375.0	228.0
26	335.0/380.0	230.8
27	345.0/395.0	181.5
28	350.0/400.0	182.3
29	360.0/415.0	150.2
30	365.0/420.0	152.1
31	375.0/435.0	115.3
32	380.0/440.0	109.2
33	390.0/300.0	16.15
34	395.0/460.0	65.76
35	410.0/480.0	37.63
36	415.0/485.0	32.90
37	425.0/500.0	25.21
38	430.0/505.0	22.26
39	440.0/520.0	16.11
40	445.0/525.0	13.95
41	455.0/305.0	21.55
42	455.0/540.0	9.415
43	470.0/560.0	4.847
44	485.0/265.0	2.273
45	495.0/270.0	2.147
46	505.0/275.0	3.180
47	510.0/280.0	3.901
48	545.0/300.0	18.21
49	550.0/305.0	18.31

Data points
	220.0	225.0	230.0	235.0	240.0	245.0	250.0	255.0	260.0	265.0	270.0	275.0	280.0	285.0	290.0	295.0	300.0	305.0	310.0	315.0	320.0	325.0	330.0	335.0	340.0	345.0	350.0	355.0	360.0	365.0	370.0	375.0	380.0	385.0	390.0	395.0	400.0	405.0	410.0	415.0	420.0	425.0	430.0	435.0	440.0	445.0	450.0	455.0	460.0	465.0	470.0	475.0	480.0	485.0	490.0	495.0	500.0	505.0	510.0	515.0	520.0	525.0	530.0	535.0	540.0	545.0	550.0	555.0	560.0	565.0	570.0	575.0	580.0	585.0	590.0	595.0	600.0
230.0	117.3	1514	2160	450.9	14.74	4.420	3.821	3.346	2.768	2.768	2.758	2.513	2.157	1.405	1.135	0.912	0.823	0.699	0.715	0.596	0.580	0.522	0.524	0.430	0.467	0.427	0.393	0.385	0.337	0.335	0.363	0.333	0.310	0.290	0.286	0.275	0.334	0.292	0.236	0.317	0.540	0.894	0.752	0.354	0.269	0.339	2.198	6.761	8.149	4.652	1.374	0.361	0.193	0.185	0.193	0.185	0.202	0.186	0.202	0.179	0.163	0.162	0.163	0.165	0.221	0.158	0.159	0.174	0.179	0.165	0.175	0.158	0.196	0.172	0.160	0.162	0.194
235.0	191.3	453.0	1666	2083	441.1	21.51	3.950	3.648	2.547	2.907	2.464	2.649	2.353	1.467	1.181	0.952	0.918	0.813	0.623	0.659	0.571	0.489	0.563	0.509	0.467	0.540	0.297	0.325	0.310	0.321	0.381	0.339	0.329	0.303	0.279	0.256	0.254	0.337	0.297	0.304	0.347	0.521	0.680	0.679	0.754	0.323	0.651	1.899	3.903	5.952	7.700	6.971	2.813	0.555	0.192	0.200	0.171	0.233	0.194	0.158	0.158	0.161	0.174	0.184	0.159	0.180	0.189	0.172	0.234	0.228	0.202	0.138	0.195	0.187	0.142	0.175	0.196
240.0	302.8	215.2	562.8	2157	1944	327.7	9.810	3.611	3.066	3.715	2.831	2.757	2.118	1.494	1.168	0.923	0.872	0.735	0.665	0.543	0.558	0.500	0.547	0.449	0.411	0.466	0.366	0.354	0.302	0.372	0.365	0.285	0.297	0.331	0.281	0.282	0.255	0.332	0.307	0.280	0.283	0.296	0.451	0.695	0.952	0.802	0.569	0.668	1.048	1.989	5.199	10.46	11.30	6.785	2.068	0.321	0.177	0.224	0.153	0.180	0.162	0.153	0.177	0.183	0.148	0.188	0.166	0.207	0.192	0.197	0.197	0.215	0.173	0.193	0.210	0.140	0.175
245.0	248.9	305.4	190.1	853.8	2552	1795	214.5	6.854	4.005	4.301	3.516	2.996	2.323	1.659	1.527	1.024	0.868	0.905	0.788	0.629	0.619	0.595	0.550	0.578	0.497	0.414	0.444	0.432	0.375	0.296	0.551	0.291	0.266	0.329	0.301	0.238	0.271	0.354	0.308	0.239	0.262	0.228	0.272	0.344	0.566	1.054	1.061	0.806	0.499	0.688	1.449	3.880	9.267	13.89	11.38	5.636	1.133	0.254	0.162	0.178	0.195	0.138	0.203	0.177	0.150	0.174	0.144	0.183	0.161	0.240	0.180	0.236	0.196	0.139	0.193	0.143	0.167
250.0	99.84	258.1	304.0	285.1	929.2	2175	2301	662.7	26.72	5.342	4.061	3.476	2.601	1.967	1.453	1.334	1.107	0.942	0.807	0.654	0.644	0.589	0.586	0.491	0.457	0.408	0.460	0.414	0.377	0.384	0.412	0.309	0.347	0.296	0.314	0.273	0.336	0.303	0.269	0.285	0.277	0.237	0.286	0.290	0.366	0.465	0.674	0.993	1.027	0.833	0.665	1.107	2.456	4.986	8.499	12.60	14.28	11.60	5.496	1.272	0.284	0.187	0.208	0.210	0.205	0.220	0.219	0.163	0.146	0.215	0.177	0.192	0.179	0.148	0.213	0.208	0.165
255.0	45.30	84.49	254.5	372.9	283.0	616.5	2273	2860	287.9	23.55	5.823	4.742	3.511	2.773	1.722	1.553	1.237	0.910	0.955	0.589	0.571	0.779	0.607	0.546	0.535	0.486	0.463	0.387	0.312	0.399	0.389	0.416	0.370	0.343	0.352	0.273	0.318	0.300	0.262	0.316	0.272	0.298	0.392	0.266	0.285	0.371	0.318	0.419	0.629	1.054	1.367	1.246	0.939	1.353	2.096	3.377	6.510	14.26	22.29	18.84	7.533	1.236	0.256	0.197	0.197	0.198	0.203	0.180	0.191	0.173	0.217	0.174	0.160	0.189	0.207	0.248	0.186
260.0	34.24	37.57	111.7	378.3	309.4	193.1	781.1	3254	2326	229.9	11.58	5.786	4.046	2.951	2.230	1.860	1.285	1.038	1.088	0.826	0.708	0.666	0.671	0.557	0.572	0.475	0.469	0.395	0.394	0.463	0.377	0.326	0.460	0.371	0.315	0.352	0.335	0.225	0.276	0.302	0.285	0.307	0.367	0.280	0.281	0.276	0.230	0.276	0.317	0.476	1.007	1.796	1.589	1.062	0.725	1.045	1.736	4.336	10.97	21.53	26.49	18.83	4.779	0.550	0.245	0.193	0.235	0.212	0.283	0.159	0.231	0.212	0.139	0.188	0.248	0.203	0.174
265.0	31.16	26.87	45.22	204.6	445.1	225.2	228.2	1280	4030	2017	162.4	8.204	4.644	3.339	2.772	1.826	1.381	1.002	1.192	0.941	0.776	0.655	0.529	0.520	0.474	0.549	0.563	0.505	0.450	0.486	0.404	0.328	0.402	0.367	0.368	0.359	0.326	0.261	0.307	0.262	0.282	0.286	0.394	0.267	0.324	0.304	0.235	0.250	0.260	0.246	0.404	0.982	2.014	2.273	1.335	0.664	0.704	1.263	2.878	7.133	17.01	31.81	27.95	14.21	2.855	0.314	0.254	0.223	0.215	0.167	0.231	0.182	0.181	0.194	0.214	0.211	0.188
270.0	62.60	56.23	43.07	78.44	270.1	452.8	284.6	351.2	1457	3782	3677	670.1	28.29	5.690	3.490	2.414	1.828	1.333	1.364	1.023	0.939	0.777	0.778	0.604	0.549	0.609	0.477	0.587	0.450	0.459	0.408	0.435	0.400	0.428	0.507	0.400	0.420	0.411	0.311	0.346	0.306	0.315	0.375	0.350	0.376	0.329	0.291	0.335	0.306	0.223	0.265	0.476	0.875	1.478	2.136	2.147	1.735	1.038	1.036	1.957	4.336	9.803	16.23	25.08	28.44	20.59	10.85	2.401	0.354	0.207	0.212	0.248	0.170	0.205	0.211	0.215	0.208
275.0	178.7	181.9	117.4	78.04	114.0	288.5	597.8	310.8	387.7	1028	3794	5949	856.2	23.65	5.555	4.006	2.556	1.891	1.359	1.014	1.041	0.841	0.860	0.740	0.735	0.682	0.526	0.527	0.528	0.504	0.420	0.610	0.501	0.632	0.849	0.650	0.639	0.446	0.505	0.425	0.422	0.444	0.538	0.456	0.519	0.550	0.549	0.732	0.539	0.447	0.313	0.435	0.531	0.675	0.874	1.413	2.630	3.180	2.218	1.067	1.279	2.532	4.023	6.221	10.04	23.11	39.63	30.08	15.81	2.408	0.358	0.315	0.309	0.252	0.258	0.267	0.241
280.0	630.1	659.0	469.2	206.9	114.1	165.9	478.1	654.4	288.5	404.4	1347	5637	5383	140.4	14.48	5.217	3.458	2.030	1.582	1.284	1.216	0.985	0.764	0.796	0.747	0.670	0.557	0.648	0.640	0.436	0.539	0.703	0.898	1.421	1.647	1.541	1.107	0.778	0.800	0.676	0.850	0.866	1.057	1.112	1.298	1.627	1.652	1.747	1.415	1.105	0.723	0.646	0.573	0.519	0.702	0.830	1.428	2.608	3.901	3.009	1.693	1.402	1.652	2.341	3.396	6.863	16.48	32.75	48.98	28.52	9.749	1.132	0.358	0.312	0.290	0.297	0.328
285.0	1929	1713	1187	603.0	213.8	180.8	333.5	806.0	785.1	641.3	948.6	2427	6767	4266	105.0	8.382	4.233	2.324	2.059	1.656	1.187	1.213	0.926	0.889	0.674	0.668	0.708	0.674	0.672	0.536	0.535	0.896	1.941	3.427	4.381	3.672	2.661	1.816	1.728	1.567	1.840	1.891	2.584	2.748	3.689	4.292	4.708	5.152	4.187	3.190	2.029	1.464	0.980	0.638	0.821	0.861	1.068	1.604	2.844	4.617	4.812	3.505	2.676	3.192	3.769	4.626	6.908	11.57	25.88	44.36	34.90	22.06	6.561	0.670	0.452	0.432	0.426
290.0	4599	4924	3573	1506	459.8	284.8	406.3	776.4	1413	1678	1673	1949	3034	5168	4673	413.7	19.76	3.828	2.904	1.987	1.675	1.462	1.173	1.027	1.011	0.829	0.777	0.828	0.670	0.631	0.685	1.480	3.707	6.926	9.445	8.579	5.810	3.705	3.293	3.104	3.618	4.371	5.330	6.471	8.436	10.40	10.79	12.10	9.984	7.435	5.004	3.524	1.896	1.289	1.066	1.297	1.613	1.983	2.698	3.747	5.475	7.024	8.354	7.801	8.132	8.265	9.159	9.425	12.15	17.12	20.11	28.61	32.07	30.19	15.34	6.142	0.952
295.0	6864	7528	5575	2375	701.8	397.0	544.8	921.3	1566	2566	2935	2530	2141	1728	3736	5799	549.3	14.05	4.089	2.828	2.052	1.819	1.432	1.168	1.067	1.039	0.933	0.942	0.815	0.726	0.938	2.003	5.424	9.869	14.36	12.35	8.450	5.563	4.789	5.013	5.122	6.455	8.069	9.973	12.89	15.74	16.33	18.43	16.20	11.37	8.069	5.144	2.991	1.793	1.527	1.693	2.031	2.630	3.384	4.302	5.771	7.333	9.750	12.14	14.59	14.01	13.01	11.75	12.36	11.59	9.376	9.034	9.876	19.72	39.94	51.82	23.58
300.0	8166	8705	6347	2696	820.8	450.4	636.2	1030	1661	2590	3581	3030	2095	946.3	1120	4939	4351	83.05	7.362	3.705	2.919	2.038	1.811	1.358	1.233	1.162	0.874	0.847	0.994	0.800	0.824	2.287	6.184	11.89	16.15	14.48	9.864	6.492	5.475	5.451	6.332	7.306	8.826	11.34	14.14	17.69	19.07	21.32	18.22	13.21	8.994	6.211	3.504	2.223	1.618	1.868	2.428	2.981	3.545	4.699	6.282	7.933	9.941	11.70	15.52	18.21	16.60	13.72	12.49	11.61	7.324	4.616	3.648	5.947	13.54	32.03	45.76
305.0	8148	8734	6510	2751	844.5	470.1	658.1	1053	1668	2482	3384	3445	2153	801.1	386.2	1558	4801	3199	62.19	5.406	3.233	2.350	2.030	1.628	1.418	1.296	1.039	1.019	0.936	0.941	0.960	2.481	6.271	12.06	16.03	14.77	10.43	6.824	5.639	5.311	6.403	7.569	9.075	12.02	14.31	18.05	19.40	21.55	18.83	13.77	9.362	6.244	3.656	2.252	2.030	1.891	2.398	3.098	4.059	4.971	6.521	7.601	9.646	11.69	14.61	16.63	18.31	16.20	13.70	10.82	7.010	3.771	2.365	2.574	4.004	8.772	17.53
310.0	7060	7839	5692	2467	784.2	463.5	622.5	980.6	1515	2187	2792	2972	2309	830.7	242.2	418.8	1452	3312	3157	290.8	14.40	3.088	2.319	1.876	1.561	1.326	1.194	1.084	0.969	1.018	0.943	2.148	5.370	10.97	14.81	13.56	9.248	6.113	5.023	5.130	5.717	6.833	8.367	10.59	12.96	15.96	17.10	19.03	16.70	12.18	8.022	5.731	3.319	2.120	1.861	1.857	2.503	2.951	3.736	4.644	5.959	7.222	9.003	10.39	12.55	13.47	13.99	14.37	13.88	11.71	7.906	3.849	2.308	1.822	2.006	3.029	4.852
315.0	5460	6255	4505	1977	677.4	435.6	575.5	852.0	1286	1813	2227	2220	1885	1091	294.6	188.0	389.2	813.8	2268	3807	425.0	11.72	3.302	2.310	1.742	1.563	1.287	1.096	0.908	0.910	0.954	1.841	4.688	9.073	11.90	10.91	7.784	5.238	4.296	4.349	4.892	5.637	6.868	8.595	10.21	12.86	13.34	15.18	13.17	9.543	6.410	4.880	2.733	1.909	1.624	1.840	2.173	2.871	3.212	4.022	5.120	5.890	7.630	8.669	9.806	10.90	11.06	10.92	10.53	9.676	8.324	6.084	3.217	1.794	1.565	1.651	1.972
320.0	4517	5022	3614	1636	596.5	416.2	548.3	792.8	1133	1534	1847	1816	1462	1031	531.1	178.6	166.8	234.8	622.6	2861	3255	64.43	6.261	2.984	2.152	1.665	1.398	1.199	1.051	1.064	0.978	1.564	3.931	7.309	9.721	9.106	6.438	4.561	3.623	3.870	3.930	4.825	5.460	7.069	8.719	10.75	11.11	12.04	10.75	7.647	5.473	3.816	2.323	1.928	1.751	1.877	2.266	2.677	2.990	3.789	4.597	5.360	6.728	7.484	8.276	8.626	9.231	8.508	8.651	7.588	6.253	5.752	5.086	3.613	1.911	1.462	1.448
325.0	3638	4005	2956	1353	532.9	410.8	516.8	713.6	1000	1320	1574	1527	1209	764.7	675.5	308.6	128.1	115.7	179.6	840.2	3245	2635	53.74	4.356	2.541	2.131	1.590	1.344	1.286	1.066	1.020	1.655	3.289	6.172	7.789	7.187	5.312	3.765	3.215	3.398	3.310	4.033	4.638	5.887	7.537	8.747	9.221	9.760	8.432	6.316	4.350	3.188	2.334	1.747	1.682	1.776	1.993	2.467	2.923	3.401	4.089	4.755	5.691	6.432	7.111	7.682	7.748	7.265	7.275	6.238	4.809	3.771	4.106	4.293	3.563	2.137	1.551
330.0	2823	3029	2235	1085	500.1	401.8	491.3	652.0	870.6	1093	1287	1250	999.7	615.7	497.4	492.3	260.6	113.4	92.77	224.5	944.1	2457	2482	240.4	13.78	2.706	1.839	1.405	1.283	1.073	0.939	1.528	2.601	4.448	5.982	5.391	4.122	2.956	2.537	2.909	2.835	3.285	3.832	4.586	5.614	6.526	6.735	7.476	6.593	4.938	3.471	2.683	2.046	1.692	1.657	1.778	2.017	2.454	2.686	3.193	3.773	4.174	4.786	5.440	5.937	6.154	6.301	6.051	6.090	5.188	4.152	3.278	2.838	3.083	3.342	3.415	3.031
335.0	2208	2266	1722	877.4	477.5	397.3	475.1	609.7	761.4	921.5	1061	1038	853.2	560.2	398.4	375.4	449.6	220.9	91.72	98.20	240.4	589.3	1665	3152	381.8	12.85	2.478	1.737	1.734	1.220	1.188	1.345	1.961	3.357	4.396	3.983	3.240	2.441	2.096	2.224	2.320	2.697	2.974	3.581	4.253	4.858	5.049	5.470	4.959	3.721	2.835	2.537	1.837	1.618	1.616	1.841	1.959	2.361	2.721	2.902	3.503	3.902	4.224	4.602	4.938	5.067	5.210	4.928	4.781	4.526	3.818	3.055	2.599	2.369	2.265	2.330	2.980
340.0	1788	1856	1408	775.0	452.4	399.1	463.1	570.6	690.9	827.5	935.0	906.6	767.3	530.9	376.8	293.9	378.4	372.0	134.4	78.16	90.66	156.2	447.0	2288	2898	302.7	5.244	2.278	1.709	1.512	1.200	1.434	1.926	2.773	3.691	3.341	2.645	2.436	1.945	2.028	2.078	2.339	2.608	3.066	3.453	4.001	4.214	4.675	3.950	3.181	2.372	2.062	1.785	1.593	1.660	1.787	1.947	2.284	2.556	2.946	3.287	3.506	3.624	4.081	4.401	4.572	4.278	4.628	4.064	3.912	3.517	2.983	2.566	2.453	2.028	2.129	1.983
345.0	1548	1541	1148	674.8	427.9	391.2	444.6	534.7	644.8	750.6	840.2	808.5	704.2	512.7	372.2	278.9	267.8	375.4	253.3	85.08	64.50	65.65	122.2	661.3	2766	2721	47.41	3.142	2.081	1.645	1.344	1.418	1.605	2.259	2.765	2.641	2.522	2.026	1.754	1.691	1.653	2.077	2.427	2.452	3.098	3.343	3.544	3.805	3.347	2.725	2.144	1.864	1.777	1.550	1.625	1.707	1.829	2.109	2.278	2.781	3.029	3.286	3.625	3.773	3.828	4.101	4.147	3.822	3.878	3.677	3.018	2.848	2.444	2.352	1.994	1.885	1.771
350.0	1237	1234	938.0	578.6	407.4	380.7	423.9	503.4	582.8	672.3	729.5	720.4	625.9	485.4	370.0	280.2	232.7	250.8	307.8	203.3	83.39	58.00	57.85	170.3	794.7	2379	2052	213.9	12.86	2.213	1.562	1.552	1.461	1.862	2.327	2.172	1.969	1.666	1.616	1.660	1.493	1.811	2.049	2.152	2.610	2.876	2.890	3.025	2.639	2.142	1.752	1.788	1.548	1.490	1.511	1.663	1.779	2.139	2.131	2.410	2.765	3.197	3.202	3.504	3.472	3.693	3.632	3.640	3.449	3.237	2.906	2.749	2.518	2.274	2.038	1.791	1.739
355.0	1073	1017	769.3	499.4	389.5	368.0	404.5	477.0	542.5	604.0	651.2	638.8	570.1	462.4	365.5	282.9	234.9	205.2	216.5	286.8	180.8	73.07	56.96	69.25	199.1	566.1	1340	2501	348.6	11.76	2.167	1.725	1.624	1.511	1.921	1.791	1.727	1.565	1.453	1.413	1.422	1.600	1.621	1.903	2.323	2.334	2.463	2.622	2.179	1.726	1.541	1.805	1.402	1.376	1.445	1.644	1.743	2.039	2.180	2.318	2.606	2.788	3.010	3.076	3.037	3.467	3.383	3.157	3.045	3.015	2.801	2.734	2.494	2.215	2.056	1.899	1.780
360.0	927.3	876.1	695.6	455.9	363.2	364.1	393.1	460.4	504.7	561.8	593.3	592.4	537.9	447.0	360.2	284.9	242.5	203.1	183.8	232.4	271.7	125.0	66.02	55.74	72.87	146.7	358.5	1831	2580	280.6	5.076	2.397	1.671	1.648	1.781	1.588	1.573	1.539	1.403	1.412	1.335	1.568	1.555	1.726	2.043	2.135	2.126	2.159	1.962	1.571	1.380	1.609	1.474	1.405	1.560	1.525	1.788	1.917	2.121	2.320	2.498	2.655	2.915	2.969	2.857	3.136	2.999	2.985	2.766	2.830	2.726	2.533	2.438	2.266	2.152	2.040	1.795
365.0	844.8	783.4	613.3	441.9	350.5	357.6	383.5	450.9	487.0	534.4	564.0	565.9	512.8	433.9	361.0	290.8	250.8	211.0	187.5	186.4	258.2	217.6	94.21	60.98	51.10	58.38	97.61	536.0	2474	2391	45.06	3.300	2.003	1.628	1.813	1.537	1.470	1.485	1.534	1.332	1.447	1.410	1.600	1.618	1.629	2.014	1.944	1.970	1.725	1.375	1.341	1.479	1.418	1.401	1.429	1.482	1.725	1.865	2.072	2.276	2.306	2.558	2.833	2.826	2.970	2.949	2.828	2.707	2.705	2.707	2.499	2.429	2.349	2.172	2.097	1.949	1.851
370.0	777.4	727.7	544.5	422.6	342.5	351.1	379.2	426.2	461.2	512.4	534.1	526.6	474.3	416.2	353.4	299.7	259.5	232.8	207.5	184.2	195.0	236.5	191.0	91.52	59.04	48.21	45.41	136.4	706.7	2128	2303	199.4	11.54	2.105	1.942	1.716	1.589	1.413	1.424	1.321	1.407	1.373	1.544	1.527	1.708	1.856	1.763	1.857	1.588	1.252	1.192	1.479	1.347	1.315	1.451	1.434	1.675	1.757	1.930	2.134	2.278	2.430	2.552	2.715	2.753	2.805	2.734	2.661	2.551	2.538	2.419	2.310	2.241	2.097	2.039	1.946	2.008
375.0	694.1	668.1	504.5	396.8	341.3	350.6	364.0	411.2	444.8	479.3	497.3	491.2	459.7	401.0	348.6	300.3	268.6	246.2	223.1	201.1	186.2	180.0	228.0	177.8	82.42	56.10	41.62	52.73	172.7	505.3	1560	2900	299.1	9.984	2.359	2.004	1.567	1.455	1.501	1.273	1.235	1.390	1.441	1.516	1.727	1.548	1.646	1.685	1.550	1.288	1.093	1.332	1.470	1.331	1.448	1.324	1.563	1.741	1.864	1.954	2.197	2.164	2.520	2.470	2.523	2.720	2.454	2.590	2.402	2.361	2.269	2.524	2.168	2.199	2.037	1.961	2.023
380.0	657.4	614.5	480.5	368.3	334.7	337.1	358.6	392.5	423.9	456.8	475.0	466.2	439.2	387.3	344.2	301.6	277.8	251.6	233.5	211.1	189.2	167.2	191.5	230.8	128.9	67.49	47.77	38.87	58.24	127.3	418.4	2304	2138	222.8	4.538	2.135	1.706	1.558	1.388	1.350	1.296	1.351	1.343	1.351	1.586	1.585	1.696	1.549	1.359	1.349	1.178	1.461	1.422	1.347	1.448	1.288	1.552	1.508	1.858	1.943	2.039	2.104	2.203	2.544	2.438	2.502	2.276	2.312	2.197	2.312	1.998	2.437	2.185	2.011	2.229	2.012	1.955
385.0	620.9	580.6	462.1	365.3	314.3	334.2	360.2	380.4	419.5	436.8	462.9	445.5	416.8	382.1	335.1	300.0	276.9	257.4	241.3	218.6	198.4	172.3	165.9	210.5	192.3	93.70	57.13	42.20	37.75	47.21	107.9	679.4	2074	1723	36.25	2.895	2.036	1.663	1.436	1.356	1.377	1.337	1.249	1.340	1.660	1.545	1.528	1.430	1.358	1.287	1.116	1.383	1.322	1.308	1.444	1.229	1.598	1.604	1.734	1.763	1.991	2.159	2.299	2.321	2.212	2.378	2.535	2.248	2.284	2.346	2.086	2.081	2.161	2.015	2.138	1.915	1.978
390.0	595.4	535.9	431.5	356.2	309.4	319.4	342.9	367.2	394.1	417.5	436.5	429.7	396.5	367.3	328.6	296.3	274.6	260.9	248.3	227.4	206.8	182.7	164.8	164.6	191.7	164.3	85.84	53.41	42.31	36.75	43.99	167.1	600.5	1528	1677	155.7	10.02	2.164	1.611	1.485	1.399	1.339	1.390	1.407	1.486	1.379	1.453	1.390	1.270	1.169	1.057	1.330	1.265	1.213	1.329	1.335	1.651	1.623	1.774	1.801	1.845	1.985	2.165	2.047	2.169	2.254	2.194	2.110	2.184	2.038	1.997	2.035	1.985	2.016	2.010	2.019	1.946
395.0	548.3	488.0	420.2	344.0	308.0	309.6	327.7	345.9	372.3	394.9	410.3	406.4	379.2	349.0	319.7	289.6	272.6	264.1	250.8	231.6	211.4	193.3	171.8	155.9	151.2	181.5	151.7	74.94	54.21	43.62	36.99	57.68	148.3	365.5	1202	2062	255.9	8.065	1.940	1.740	1.330	1.423	1.246	1.382	1.474	1.383	1.345	1.303	1.243	1.071	1.084	1.212	1.377	1.181	1.279	1.405	1.497	1.651	1.567	1.764	1.732	1.897	1.793	2.008	2.226	2.142	2.106	2.042	2.033	1.901	1.945	1.924	1.684	1.735	1.999	2.019	2.128
400.0	529.5	473.1	397.8	331.7	303.9	309.1	308.3	336.1	359.8	378.7	394.0	389.9	362.3	337.0	311.1	282.5	271.1	258.9	248.8	232.0	214.5	194.6	177.0	156.6	142.0	150.4	182.3	114.5	65.73	51.62	40.49	37.17	50.39	94.82	331.4	1592	1811	37.76	3.717	1.854	1.571	1.430	1.335	1.393	1.290	1.346	1.296	1.256	1.101	1.069	1.037	1.235	1.276	1.267	1.292	1.308	1.350	1.512	1.543	1.662	1.836	1.646	1.998	2.001	2.057	1.874	1.985	1.967	1.833	2.030	1.836	1.957	1.860	1.789	1.888	1.859	2.050
405.0	503.5	449.9	390.8	314.4	288.3	306.9	302.4	324.7	340.1	363.3	376.8	374.5	347.6	325.1	301.0	274.2	261.7	255.2	244.6	231.0	213.8	196.8	175.9	160.0	142.8	131.8	161.8	158.0	89.56	59.39	46.62	36.37	32.72	36.09	85.51	469.6	1762	1556	31.83	2.563	1.724	1.446	1.458	1.312	1.331	1.307	1.252	1.291	1.159	1.014	1.122	1.250	1.209	1.104	1.313	1.235	1.431	1.328	1.470	1.604	1.638	1.701	1.765	2.149	2.063	1.884	1.841	1.926	1.909	1.794	1.898	1.883	1.761	1.914	1.938	1.836	2.027
410.0	468.7	420.6	368.2	301.3	285.5	288.2	292.2	306.5	324.9	344.9	360.4	357.5	329.0	306.4	284.3	264.5	250.4	246.1	234.9	225.9	209.9	195.4	179.3	163.0	147.5	132.2	131.3	154.6	140.8	84.44	58.18	44.86	34.84	27.82	32.59	115.4	513.4	1456	1300	142.4	7.933	1.726	1.573	1.302	1.384	1.292	1.173	1.257	1.087	0.966	0.914	1.172	1.182	1.109	1.134	1.176	1.394	1.331	1.499	1.422	1.632	1.721	1.623	1.884	1.825	1.882	1.930	1.893	1.893	1.582	1.771	1.829	1.776	1.769	1.799	1.660	1.838
415.0	446.4	418.1	337.4	295.9	280.3	268.1	279.0	291.0	303.0	322.1	336.7	337.1	307.8	286.8	265.3	246.4	236.4	234.7	223.8	212.1	201.4	186.7	175.0	161.6	148.5	136.1	126.3	126.3	150.2	134.6	76.60	52.91	41.20	30.53	25.52	37.85	124.4	349.0	931.9	1477	212.1	6.360	1.761	1.636	1.701	1.349	1.168	1.238	1.068	1.088	0.911	0.999	1.193	1.236	1.114	1.292	1.378	1.290	1.349	1.309	1.658	1.604	1.613	1.625	1.703	1.757	1.774	1.665	1.707	1.493	1.592	1.764	1.679	1.750	1.599	1.653	1.715
