Sample:	'1
File name:	T2025031814ÖÜ´å¹ú¿Ø 5±¶.FD3
Run date:	'15:06:04, 03/19/2025
Operator:	Administrator
Comment:	'

Instrument
Model:	F-2700 FL Spectrophotometer
Serial number:	23B8-004
ROM Version:	4J14000 07

Instrument parameters
Measurement type:	3-D scan
Data mode:	Fluorescence
EX  Start WL:	220.0 nm
EX  End WL:	600.0 nm
EX Sampling interval:	5.0 nm
EM  Start WL:	230.0 nm
EM  End WL:	650.0 nm
EM Sampling interval:	5.0 nm
Scan speed:	12000 nm/min
EX Slit:	5.0 nm
EM Slit:	5.0 nm
PMT Voltage:	700 V
Response:	Auto 
Corrected spectra:	Off
Contour interval:	50.000

Peak integration
Integration method:	Rectangular
Sensitivity:	1
Threshold:	1.000

Peaks
No.	ApexEX/EM(nm)	Height(Data)
1	225.0/635.0	115.7
2	230.0/340.0	5933
3	240.0/265.0	394.5
4	245.0/270.0	392.7
5	250.0/275.0	489.7
6	250.0/455.0	1651
7	255.0/280.0	574.7
8	255.0/560.0	158.7
9	260.0/285.0	537.5
10	260.0/575.0	108.5
11	265.0/585.0	95.64
12	275.0/320.0	3545
13	275.0/615.0	210.6
14	280.0/625.0	196.0
15	295.0/445.0	433.3
16	330.0/375.0	351.7
17	335.0/380.0	325.2
18	345.0/395.0	250.2
19	350.0/400.0	259.8
20	355.0/405.0	244.6
21	355.0/445.0	226.8
22	360.0/415.0	213.1
23	365.0/420.0	209.9
24	430.0/505.0	23.31
25	445.0/525.0	13.56
26	455.0/540.0	9.550
27	475.0/340.0	20.79
28	485.0/265.0	2.576
29	495.0/270.0	2.596
30	505.0/275.0	3.454
31	505.0/455.0	7.763
32	515.0/280.0	3.740
33	520.0/285.0	4.367
34	530.0/290.0	3.813
35	560.0/320.0	18.53
36	585.0/325.0	17.38

Data points
	220.0	225.0	230.0	235.0	240.0	245.0	250.0	255.0	260.0	265.0	270.0	275.0	280.0	285.0	290.0	295.0	300.0	305.0	310.0	315.0	320.0	325.0	330.0	335.0	340.0	345.0	350.0	355.0	360.0	365.0	370.0	375.0	380.0	385.0	390.0	395.0	400.0	405.0	410.0	415.0	420.0	425.0	430.0	435.0	440.0	445.0	450.0	455.0	460.0	465.0	470.0	475.0	480.0	485.0	490.0	495.0	500.0	505.0	510.0	515.0	520.0	525.0	530.0	535.0	540.0	545.0	550.0	555.0	560.0	565.0	570.0	575.0	580.0	585.0	590.0	595.0	600.0
230.0	78.33	853.4	2141	627.6	32.54	12.24	9.081	7.933	6.757	6.068	5.476	5.218	4.688	4.006	3.592	3.013	2.641	2.281	1.955	1.730	1.634	1.503	1.462	1.400	1.318	1.208	1.206	1.227	1.123	1.098	1.045	1.008	0.965	0.910	0.832	0.839	0.704	0.738	0.707	0.703	0.766	0.950	0.901	0.729	0.641	0.624	1.191	4.495	7.420	5.662	2.678	0.797	0.502	0.538	0.525	0.543	0.518	0.549	0.565	0.534	0.555	0.536	0.574	0.541	0.556	0.551	0.549	0.563	0.580	0.568	0.573	0.571	0.565	0.599	0.583	0.589	0.561
235.0	144.1	263.3	1349	2230	516.6	63.75	9.591	9.199	6.771	6.199	5.609	5.459	4.327	4.382	3.717	3.107	2.607	2.455	2.182	1.846	1.694	1.673	1.397	1.429	1.309	1.308	1.173	1.189	1.196	1.057	1.056	1.009	1.004	0.909	0.788	0.725	0.801	0.789	0.703	0.676	0.765	0.798	0.894	0.944	0.873	0.711	0.748	1.507	2.900	4.857	9.035	8.614	4.482	1.340	0.611	0.555	0.579	0.496	0.538	0.542	0.537	0.547	0.509	0.534	0.550	0.595	0.629	0.562	0.617	0.605	0.491	0.574	0.568	0.547	0.591	0.557	0.545
240.0	194.9	176.5	416.9	1870	2417	448.1	26.12	9.026	7.407	7.106	6.040	5.859	4.731	4.294	3.964	3.088	2.743	2.410	2.345	1.956	1.904	1.511	1.476	1.363	1.294	1.222	1.164	1.216	1.123	1.045	1.047	1.045	0.988	0.914	0.899	0.779	0.769	0.750	0.746	0.748	0.820	0.662	0.779	0.760	0.930	1.103	0.831	0.840	1.093	1.679	4.496	9.498	12.94	8.986	3.872	0.945	0.586	0.480	0.532	0.519	0.502	0.572	0.559	0.515	0.524	0.544	0.555	0.559	0.547	0.522	0.508	0.565	0.579	0.534	0.576	0.552	0.588
245.0	157.4	259.1	176.0	646.9	2584	2967	299.6	14.98	9.016	6.619	6.468	5.918	5.734	4.619	4.147	3.163	2.961	2.367	2.263	2.136	1.687	1.590	1.607	1.508	1.225	1.318	1.124	1.247	1.124	1.116	1.156	0.978	0.970	0.906	0.929	0.787	0.780	0.732	0.765	0.756	0.720	0.628	0.653	0.672	0.740	1.140	1.166	1.123	0.792	0.784	1.423	3.493	8.282	14.51	15.24	8.905	3.147	0.760	0.565	0.545	0.621	0.569	0.523	0.519	0.528	0.526	0.594	0.589	0.556	0.584	0.555	0.562	0.596	0.588	0.586	0.572	0.567
250.0	81.44	193.4	278.1	252.1	834.6	2737	3077	1084	69.70	9.125	7.908	6.541	5.971	4.959	4.103	3.482	2.836	2.510	2.217	2.011	1.814	1.616	1.593	1.496	1.407	1.277	1.140	1.259	1.265	1.251	1.012	1.029	0.946	0.967	0.856	0.792	0.848	0.741	0.739	0.762	0.711	0.710	0.669	0.659	0.664	0.755	0.793	1.135	1.309	1.211	0.963	1.264	2.401	4.720	8.685	13.07	18.52	16.95	9.611	3.177	0.847	0.559	0.562	0.552	0.570	0.538	0.555	0.546	0.530	0.575	0.554	0.543	0.571	0.576	0.550	0.580	0.576
255.0	51.58	79.80	194.3	349.4	292.9	697.4	2272	4841	1546	75.69	10.04	8.128	7.098	5.590	4.410	3.491	3.212	2.591	2.430	1.895	1.634	1.611	1.501	1.510	1.513	1.352	1.230	1.217	1.248	1.287	1.113	1.124	1.020	0.885	0.821	0.693	0.883	0.781	0.767	0.723	0.719	0.693	0.696	0.724	0.720	0.711	0.616	0.757	0.838	1.166	1.499	1.638	1.381	1.535	2.415	3.500	6.282	14.61	25.98	27.78	15.73	3.640	0.740	0.607	0.633	0.601	0.608	0.560	0.544	0.658	0.575	0.530	0.574	0.597	0.654	0.643	0.627
260.0	48.40	44.22	80.59	303.3	350.0	226.2	673.7	3756	5523	1246	37.39	10.11	7.944	6.126	5.249	4.158	3.337	2.810	2.418	2.098	1.965	1.697	1.649	1.639	1.510	1.292	1.220	1.272	1.262	1.103	1.209	1.138	1.032	0.948	0.866	0.775	0.803	0.769	0.751	0.770	0.692	0.839	0.729	0.704	0.712	0.706	0.606	0.653	0.688	0.701	1.076	1.938	2.173	1.493	1.187	1.304	2.008	4.171	9.910	23.00	34.90	27.03	12.49	2.334	0.660	0.613	0.566	0.641	0.565	0.577	0.695	0.573	0.564	0.680	0.718	0.627	0.640
265.0	57.87	41.57	40.75	144.6	394.5	265.7	196.2	1229	5303	6296	216.9	19.22	9.501	6.991	5.767	4.135	3.454	2.782	2.351	2.187	2.122	1.559	1.727	1.742	1.559	1.489	1.356	1.312	1.271	1.286	1.231	1.186	0.972	0.925	0.907	0.856	0.835	0.844	0.785	0.794	0.729	0.809	0.683	0.704	0.717	0.765	0.637	0.658	0.571	0.508	0.586	1.141	2.162	2.576	1.967	1.181	1.030	1.439	2.783	6.701	16.25	33.00	42.49	25.39	8.674	1.208	0.669	0.666	0.610	0.586	0.699	0.679	0.581	0.648	0.686	0.618	0.652
270.0	62.32	44.94	38.02	58.60	187.4	392.7	296.9	335.5	1606	5377	6538	2360	62.55	9.943	7.416	5.672	4.405	3.556	2.840	2.516	2.260	1.880	1.710	1.919	1.549	1.559	1.455	1.397	1.306	1.260	1.258	1.173	1.121	0.968	0.957	0.945	0.872	0.850	0.774	0.752	0.694	0.762	0.726	0.724	0.672	0.702	0.621	0.672	0.580	0.521	0.532	0.762	0.992	1.528	2.179	2.596	2.284	1.726	1.338	2.089	4.256	9.253	17.69	30.99	30.63	34.31	17.09	7.868	1.437	0.669	0.653	0.656	0.651	0.636	0.636	0.603	0.668
275.0	74.78	66.20	49.58	41.66	73.42	180.5	489.7	346.3	406.9	1294	3803	9999.9	1240	69.73	10.31	7.286	5.867	4.220	3.032	2.879	2.477	2.033	1.986	1.960	1.779	1.610	1.558	1.733	1.325	1.416	1.343	1.174	1.144	1.015	0.979	0.908	0.860	0.873	0.833	0.839	0.771	0.748	0.699	0.775	0.739	0.741	0.688	0.710	0.670	0.584	0.533	0.652	0.737	0.805	1.025	1.383	2.413	3.454	3.274	1.627	1.607	2.758	4.590	7.612	8.688	19.05	40.72	56.66	27.58	9.710	1.082	0.629	0.736	0.651	0.672	0.670	0.692
280.0	96.50	92.48	73.21	50.17	47.11	82.56	285.5	574.7	263.4	342.8	1028	6271	9670	959.3	44.06	9.284	7.375	5.289	3.579	3.167	2.979	2.260	2.099	1.916	1.826	1.567	1.623	1.489	1.470	1.426	1.383	1.201	1.222	1.140	1.061	1.003	0.978	0.954	0.894	0.975	0.903	0.815	0.721	0.803	0.818	0.779	0.773	0.799	0.773	0.675	0.582	0.659	0.699	0.731	0.762	0.842	1.279	2.137	3.687	3.740	2.325	1.368	1.593	2.441	2.661	5.165	12.62	31.58	56.53	58.85	23.16	5.475	0.837	0.684	0.680	0.709	0.719
285.0	129.3	126.0	99.58	61.46	51.68	60.01	123.6	453.9	537.5	197.6	300.3	1761	7616	8266	679.9	18.50	8.981	5.512	4.862	3.352	3.026	2.320	2.490	2.087	1.880	1.605	1.575	1.518	1.508	1.412	1.350	1.415	1.225	1.156	1.198	1.158	1.040	0.995	0.905	0.936	0.946	0.903	0.901	0.975	0.805	0.992	0.875	0.924	0.836	0.724	0.647	0.713	0.648	0.714	0.688	0.790	0.955	1.193	1.998	3.396	4.367	2.968	1.587	1.319	1.309	1.918	3.690	8.218	19.22	42.00	61.87	33.26	17.21	2.948	0.754	0.747	0.670
290.0	179.9	181.7	141.3	89.28	66.53	64.41	84.79	195.9	494.9	492.9	221.8	507.6	2073	6189	7771	2320	42.31	9.514	6.258	4.453	3.557	3.051	2.647	2.439	2.203	1.864	1.609	1.712	1.531	1.437	1.396	1.457	1.281	1.317	1.324	1.202	1.170	1.020	1.035	1.044	0.959	0.946	1.048	1.050	1.000	1.115	1.078	1.135	1.019	0.814	0.772	0.834	0.739	0.742	0.818	0.761	0.897	1.002	1.153	1.641	2.496	3.330	3.813	3.361	2.097	1.539	1.877	2.832	5.303	10.83	20.22	30.66	44.64	43.91	38.42	12.72	3.248
295.0	246.4	287.4	246.8	179.8	125.9	126.7	150.5	202.4	322.9	637.3	785.6	300.8	619.5	1579	3816	9721	3279	56.31	10.57	5.657	4.416	3.714	2.749	2.746	2.590	2.263	1.981	2.033	1.601	1.729	1.549	1.476	1.312	1.261	1.459	1.233	1.296	1.165	1.121	1.196	1.065	1.140	1.166	1.194	1.196	1.205	1.350	1.328	1.273	1.172	1.071	1.045	0.904	1.095	1.083	1.093	1.162	1.411	1.424	1.580	1.776	2.143	2.705	4.219	5.535	4.298	2.773	2.503	2.905	4.028	5.983	8.218	11.57	17.27	41.72	69.09	35.07
300.0	439.1	530.5	490.0	357.1	295.4	312.1	375.4	366.1	703.3	986.6	1541	1240	992.3	998.0	1471	5578	9999.9	645.3	44.64	9.365	5.741	4.348	3.505	3.130	2.935	2.432	2.151	2.211	2.004	1.745	1.614	1.465	1.322	1.492	1.587	1.417	1.439	1.526	1.326	1.532	1.289	1.450	1.486	1.651	1.626	1.733	1.933	2.032	2.067	1.841	1.562	1.577	1.535	1.709	1.797	1.704	2.316	2.604	2.783	3.071	3.499	3.871	4.383	5.598	6.958	8.575	8.627	6.832	5.657	5.605	5.724	5.549	6.067	7.668	13.89	29.40	55.47
305.0	786.6	989.8	881.3	659.5	561.2	541.8	833.2	1101	1488	1946	2497	2980	2319	1748	1641	2377	7871	8869	511.2	21.14	8.338	5.550	4.538	3.732	3.260	2.675	2.303	2.364	2.174	1.729	1.724	1.556	1.517	1.787	1.808	1.780	1.772	2.041	1.887	1.810	1.877	1.837	1.942	2.223	2.272	2.713	3.014	3.444	3.414	2.865	2.478	2.670	2.573	2.560	2.934	3.115	3.915	4.733	5.477	6.152	6.868	7.904	8.678	10.27	10.88	13.13	14.72	15.57	13.63	11.58	10.38	9.466	8.854	9.855	10.34	12.89	20.67
310.0	1121	1436	1358	1004	857.4	879.8	1186	1532	1892	2425	2918	3418	3346	2520	2061	1781	3155	6118	6567	1894	33.80	7.922	5.633	4.691	3.904	3.245	2.573	2.683	2.383	2.040	1.845	1.862	1.655	1.809	1.925	1.919	2.078	2.278	2.164	2.193	2.230	2.301	2.603	2.699	2.964	3.745	4.305	4.819	4.877	4.118	3.569	4.008	3.806	3.765	4.086	4.274	5.472	6.180	7.276	7.894	8.335	9.772	10.85	12.58	13.48	14.53	15.84	17.20	17.97	17.57	15.14	13.47	11.98	12.11	11.17	10.52	11.58
315.0	1407	1923	1875	1403	1120	1139	1441	1747	2070	2613	3112	3543	3541	3219	2488	1808	1992	2111	3434	8509	2763	38.12	8.042	6.125	4.620	3.859	2.978	3.126	2.547	2.355	2.125	1.856	1.745	1.897	1.980	2.124	2.217	2.401	2.381	2.453	2.521	2.618	2.781	3.158	3.828	4.592	5.661	6.459	6.286	5.288	4.704	4.999	4.920	4.832	4.985	5.093	6.278	7.412	8.378	8.816	9.365	10.32	12.04	13.35	14.23	15.36	15.81	17.35	18.24	18.04	17.58	17.67	15.75	14.41	12.62	10.93	10.51
320.0	1612	2255	2251	1676	1299	1241	1514	1829	2095	2598	3120	3545	3522	3288	2851	1908	1756	1223	1002	4649	8648	492.9	25.51	7.985	5.659	4.303	3.279	3.553	2.819	2.676	2.269	2.047	1.962	1.950	2.158	2.052	2.301	2.293	2.424	2.476	2.497	2.865	3.115	3.475	4.312	5.052	6.175	7.258	7.396	6.184	5.637	5.918	5.503	5.467	5.298	5.962	6.698	7.823	8.651	8.802	9.459	10.45	11.94	13.00	14.06	15.23	16.33	17.15	18.53	17.51	17.80	17.13	17.14	16.98	13.47	11.50	10.22
325.0	1906	2716	2802	2164	1533	1311	1517	1791	1975	2429	2933	3347	3340	3066	2868	2015	1634	1005	439.3	1269	6068	6959	394.8	15.85	7.398	5.165	3.512	3.541	2.965	2.853	2.410	2.116	1.995	1.908	2.048	2.135	2.252	2.455	2.446	2.400	2.852	3.074	3.375	3.879	4.716	6.183	7.040	9.046	9.238	7.772	7.080	7.517	6.474	5.857	5.745	5.867	6.619	7.403	8.706	9.098	9.092	9.860	11.00	12.15	12.88	14.41	15.21	16.19	17.02	16.87	16.44	15.72	15.78	17.38	15.42	12.35	10.47
330.0	2384	3563	4123	3584	2572	1739	1572	1740	1857	2243	2701	3143	3201	2936	2649	2163	1746	1010	428.2	472.4	1677	4717	5404	1615	29.68	7.405	4.810	4.313	3.495	3.140	2.622	2.253	2.155	2.077	2.074	2.100	2.219	2.520	2.461	2.674	2.751	3.315	3.795	4.540	5.780	7.661	9.094	11.62	12.68	11.86	11.45	12.39	10.93	9.554	7.886	6.838	7.183	7.593	8.330	8.671	8.649	9.191	10.42	11.37	12.50	13.24	14.41	15.18	16.47	16.21	16.04	15.33	15.27	15.44	14.63	13.76	12.51
335.0	2824	4483	5616	5443	4190	2509	1766	1770	1806	2140	2588	3032	3162	2995	2671	2169	1982	1266	601.7	437.9	624.4	1263	3041	8443	2467	33.51	6.923	5.604	3.991	3.447	2.910	2.397	2.501	2.211	2.335	2.252	2.165	2.762	2.545	2.851	3.217	3.795	4.176	5.039	6.828	8.934	11.25	14.44	16.58	16.23	16.51	18.99	17.96	15.50	11.66	8.493	8.135	8.371	8.735	8.653	8.632	9.027	9.674	10.77	11.93	13.24	13.96	14.40	15.94	16.10	16.56	15.87	15.97	15.40	14.37	13.17	13.33
340.0	2948	4676	5933	5857	4567	2678	1760	1680	1676	1952	2363	2790	2942	2835	2514	2041	1814	1380	690.5	447.8	408.7	495.1	915.9	5027	8323	421.8	20.34	7.104	4.906	4.105	3.106	2.572	2.383	2.150	2.340	2.366	2.228	2.660	2.562	2.902	3.049	3.661	4.191	5.221	6.820	9.263	11.62	15.43	17.66	17.55	17.67	20.79	19.85	17.32	12.47	9.459	8.166	8.103	8.451	8.342	8.072	8.781	8.977	10.26	11.14	11.86	12.57	13.66	14.74	15.36	15.19	15.20	14.97	14.94	13.45	12.47	12.04
345.0	2780	4544	5797	5778	4477	2580	1654	1530	1538	1757	2112	2468	2631	2550	2273	1847	1557	1253	791.8	456.2	353.7	328.1	381.3	1421	6249	6589	340.4	11.47	5.716	4.246	3.462	2.717	2.402	2.418	2.217	2.397	2.275	2.558	2.538	2.703	2.822	3.563	3.930	5.024	6.798	9.036	11.20	14.80	16.84	17.29	17.82	20.43	18.95	16.86	12.36	8.959	8.042	7.544	7.968	7.229	7.526	7.682	8.278	9.053	9.730	10.60	11.21	12.00	13.22	13.58	13.48	13.44	13.73	13.63	12.02	11.67	11.09
350.0	2627	4254	5493	5645	4511	2545	1539	1374	1360	1531	1822	2129	2288	2244	2028	1672	1389	1060	807.9	577.0	378.8	303.6	280.2	447.8	1691	4693	4578	1407	22.48	5.489	4.120	3.223	2.748	2.534	2.320	2.174	2.253	2.329	2.291	2.618	2.763	3.438	3.810	4.889	6.444	8.208	10.34	14.00	16.00	16.56	17.19	19.94	19.13	16.72	12.59	8.655	7.222	7.088	6.962	6.712	6.868	6.972	7.281	8.096	8.513	9.311	9.820	10.47	11.46	11.95	12.10	12.29	12.45	12.08	10.95	10.23	10.09
355.0	2305	3802	4896	5173	4244	2443	1411	1223	1182	1319	1549	1800	1935	1932	1757	1475	1227	931.9	679.7	617.3	463.6	309.7	261.9	238.3	439.3	1098	2724	7825	1964	25.92	5.521	4.044	3.347	2.693	2.385	2.223	2.146	2.257	2.356	2.362	2.663	3.281	3.334	4.503	5.638	7.345	9.116	12.23	14.38	14.92	15.72	18.36	17.71	16.22	11.86	8.250	7.095	6.679	6.288	5.962	6.297	6.108	6.560	6.820	7.526	8.028	8.407	9.137	9.883	10.01	10.70	10.49	10.69	10.65	9.654	9.531	9.265
360.0	2056	3289	4240	4523	3715	2169	1259	1085	1041	1139	1340	1540	1652	1648	1507	1274	1071	817.7	591.5	517.8	511.4	343.2	251.4	188.3	170.9	286.2	701.9	5059	6966	374.6	14.60	5.128	3.627	2.821	2.497	2.316	2.215	2.181	2.223	2.157	2.452	2.851	3.222	3.959	5.082	6.557	8.301	10.83	12.69	12.92	13.98	16.38	15.56	14.19	10.57	7.527	6.307	5.668	5.595	5.376	5.500	5.544	5.639	5.755	6.509	6.917	7.360	7.701	8.444	8.758	8.898	9.115	9.113	9.137	9.025	8.639	7.720
365.0	1776	2782	3710	3963	3275	1922	1142	960.8	924.9	1010	1165	1347	1419	1419	1307	1107	941.4	726.8	538.4	440.3	458.3	406.8	260.6	177.0	117.6	113.0	190.4	1391	5858	5293	297.6	8.033	4.574	3.418	2.684	2.380	2.085	2.222	2.028	2.039	2.472	2.557	3.063	3.689	4.550	5.625	7.069	9.264	10.86	11.52	12.16	14.27	13.66	12.29	9.539	6.628	5.879	5.256	4.876	4.839	4.835	4.887	4.946	5.564	5.781	6.125	6.555	6.989	7.312	7.601	8.083	8.001	8.182	8.177	7.745	7.311	7.513
370.0	1500	2332	3126	3331	2818	1691	998.5	848.8	804.6	880.3	999.9	1134	1200	1196	1105	950.2	811.3	647.9	492.6	401.6	370.9	393.2	337.8	201.5	119.4	89.80	88.65	349.0	1619	4202	4400	1148	19.25	4.666	3.552	2.659	2.223	2.198	1.987	2.113	2.201	2.288	2.723	3.370	3.849	4.964	5.877	7.822	9.197	9.736	10.31	12.20	11.99	10.72	8.373	5.824	4.979	4.653	4.548	4.247	4.375	4.244	4.238	4.755	5.152	5.242	5.714	5.946	6.341	6.598	6.721	7.137	6.775	6.930	6.581	6.243	6.491
375.0	1220	1919	2542	2714	2348	1453	873.8	742.5	707.7	752.5	858.6	961.2	1017	1012	922.3	804.0	693.1	569.2	452.4	373.4	329.8	314.0	351.7	281.1	150.2	105.1	90.74	137.8	404.9	1000	2879	5850	1609	21.06	4.735	3.429	2.702	2.451	2.113	2.258	2.223	2.169	2.480	2.757	3.302	4.372	4.860	6.690	7.550	8.000	8.429	10.18	9.695	9.021	7.208	5.340	4.550	4.197	4.062	3.963	3.932	3.854	3.760	4.073	4.450	4.546	4.719	5.056	5.257	5.727	6.000	5.746	5.820	5.685	5.652	5.548	5.474
380.0	1071	1612	2123	2316	2011	1309	797.6	685.1	648.1	683.5	770.3	845.1	904.1	887.6	799.4	708.2	616.0	513.0	421.7	355.2	313.9	289.4	303.2	325.2	201.2	126.0	107.6	106.2	148.3	270.6	778.8	4036	5539	303.5	10.75	3.899	3.045	2.501	2.445	2.287	2.039	2.130	2.378	2.820	2.979	3.821	4.332	5.610	6.418	6.831	7.102	8.656	8.372	8.097	6.268	4.843	4.035	3.927	3.670	3.539	3.640	3.741	3.458	3.937	3.943	4.121	4.485	4.490	4.683	4.973	5.379	5.156	5.543	5.225	4.850	4.704	4.667
385.0	969.2	1380	1811	1990	1766	1190	753.8	638.3	606.2	622.4	700.4	761.0	811.5	788.0	712.7	630.7	555.3	472.9	397.6	344.0	308.0	280.2	270.3	295.5	267.7	160.0	123.9	110.6	101.5	116.7	228.7	1165	4826	2699	41.77	5.724	3.475	2.790	2.345	2.171	2.261	2.179	2.294	2.688	2.742	3.470	3.984	5.054	5.679	5.966	6.168	7.540	7.484	7.006	5.621	4.475	3.884	3.601	3.526	3.286	3.466	3.363	3.362	3.506	3.496	3.815	3.933	4.183	4.485	4.839	4.714	4.611	4.843	4.558	4.359	4.315	4.223
390.0	813.5	1189	1520	1679	1528	1076	728.3	616.7	568.7	576.8	632.6	675.3	719.2	690.0	627.5	558.2	495.9	434.5	376.2	334.6	302.7	279.0	261.4	249.4	264.2	231.1	158.0	122.5	101.2	89.91	107.0	305.7	1344	3117	3316	859.1	14.59	3.463	2.804	2.421	2.248	2.222	2.170	2.444	2.646	3.016	3.409	4.343	4.993	4.971	5.279	6.458	6.404	6.113	5.119	4.250	3.989	3.438	3.491	3.273	3.101	3.258	3.057	3.151	3.285	3.363	3.488	3.640	3.944	4.013	4.099	4.149	4.198	3.986	3.942	3.972	3.780
395.0	721.5	1033	1315	1438	1340	1001	735.1	610.0	550.6	540.8	577.7	608.5	644.5	621.8	562.4	504.2	451.4	402.5	358.5	324.0	299.2	280.0	260.9	241.8	230.0	250.2	228.4	153.1	117.4	95.75	91.17	121.6	328.5	737.2	2241	4325	292.1	15.80	3.665	2.856	2.419	2.251	2.189	2.251	2.506	2.825	3.008	3.763	4.097	4.097	4.569	5.472	5.591	5.305	4.773	4.074	3.953	3.596	3.298	3.150	3.300	3.074	3.080	3.126	3.206	3.133	3.227	3.338	3.612	3.821	3.627	3.886	3.744	3.702	3.569	3.608	3.442
400.0	689.8	927.9	1158	1293	1254	961.8	742.1	613.1	542.7	519.6	549.3	586.6	608.5	585.1	522.2	469.5	422.9	382.9	343.9	316.2	293.4	277.0	267.0	244.1	227.3	227.9	259.8	200.3	134.4	111.4	99.41	89.13	107.5	186.1	593.5	3067	3552	254.3	8.564	3.460	2.755	2.295	2.093	2.299	2.355	2.592	2.872	3.445	3.800	3.799	4.055	5.269	5.078	5.053	4.598	4.061	3.816	3.842	3.360	3.236	3.137	3.039	3.020	3.031	3.107	3.033	3.304	3.217	3.509	3.615	3.772	3.687	3.497	3.846	3.478	3.488	3.450
405.0	622.6	856.9	1059	1203	1151	924.0	749.1	611.9	525.6	508.4	536.2	560.6	583.5	555.5	492.5	443.7	403.7	364.1	327.7	311.4	290.5	276.4	267.4	247.5	228.8	217.1	243.9	244.6	161.5	120.7	107.9	85.86	64.02	66.25	149.3	878.2	3296	2278	37.20	4.631	3.063	2.431	2.290	2.428	2.226	2.547	2.689	3.382	3.453	3.584	3.863	4.717	4.601	4.727	4.330	3.945	3.701	3.552	3.543	3.372	3.054	2.821	2.862	3.017	2.862	3.021	3.255	3.146	3.214	3.462	3.841	3.385	3.636	3.681	3.244	3.267	3.183
410.0	593.8	783.2	967.9	1080	1072	916.6	765.5	642.5	538.2	494.4	510.6	528.5	541.6	515.5	462.5	418.0	382.3	346.1	319.5	301.6	281.5	269.4	261.1	249.6	230.2	215.9	215.3	232.5	210.7	147.5	114.8	88.85	59.25	44.41	53.64	210.9	923.3	2381	2662	792.1	13.23	2.990	2.627	2.507	2.322	2.410	2.601	3.025	3.156	3.226	3.489	4.345	4.399	4.473	4.342	3.932	3.829	3.650	3.435	3.310	3.023	2.777	2.866	2.807	2.893	2.930	3.048	2.933	2.924	3.157	3.304	3.142	3.152	3.390	3.201	3.183	3.130
415.0	560.9	726.2	874.2	992.5	1000	914.7	809.7	679.1	565.7	493.6	482.6	496.0	501.0	483.2	433.3	398.2	364.9	334.2	311.0	293.0	272.6	259.6	255.2	244.3	230.9	216.4	207.2	202.0	213.1	191.2	132.8	95.22	65.58	46.77	37.65	66.23	218.8	560.7	1685	3509	267.4	14.52	3.189	2.850	2.601	2.485	2.544	2.867	3.021	3.074	3.382	4.036	4.358	4.343	4.268	4.164	4.277	3.988	3.729	3.664	3.160	2.987	2.976	2.747	2.895	2.972	2.994	2.787	2.989	3.028	3.015	3.167	3.109	2.995	3.171	3.193	2.966
420.0	519.4	698.0	819.7	946.5	994.0	923.4	858.9	727.6	584.0	499.0	477.6	479.0	482.3	464.7	419.9	392.8	358.2	329.6	312.6	291.8	265.4	253.4	249.4	240.6	230.0	217.2	208.7	194.0	196.3	209.9	164.6	104.6	73.57	53.79	40.31	37.57	65.10	137.1	436.3	2334	3191	235.9	7.492	3.222	2.713	2.658	2.762	3.044	2.946	2.946	3.149	4.029	4.246	4.142	4.239	4.116	4.270	4.259	4.061	3.737	3.414	3.009	2.860	2.993	2.757	2.817	2.845	2.805	2.653	2.862	3.107	3.118	3.062	3.046	3.046	2.921	2.785
