Sample:	'1
File name:	T2025032003º«µêºÓ3.FD3
Run date:	'09:33:52, 03/21/2025
Operator:	Administrator
Comment:	'

Instrument
Model:	F-2700 FL Spectrophotometer
Serial number:	23B8-004
ROM Version:	4J14000 07

Instrument parameters
Measurement type:	3-D scan
Data mode:	Fluorescence
EX  Start WL:	220.0 nm
EX  End WL:	600.0 nm
EX Sampling interval:	5.0 nm
EM  Start WL:	230.0 nm
EM  End WL:	650.0 nm
EM Sampling interval:	5.0 nm
Scan speed:	12000 nm/min
EX Slit:	5.0 nm
EM Slit:	5.0 nm
PMT Voltage:	700 V
Response:	Auto 
Corrected spectra:	Off
Contour interval:	50.000

Peak integration
Integration method:	Rectangular
Sensitivity:	1
Threshold:	1.000

Peaks
No.	ApexEX/EM(nm)	Height(Data)
1	225.0/490.0	278.6
2	225.0/635.0	27.93
3	230.0/340.0	874.6
4	230.0/500.0	257.3
5	235.0/255.0	381.6
6	235.0/515.0	203.7
7	240.0/265.0	443.3
8	240.0/525.0	194.3
9	245.0/270.0	424.8
10	245.0/540.0	164.8
11	250.0/275.0	537.1
12	250.0/445.0	304.9
13	250.0/550.0	140.7
14	255.0/280.0	622.2
15	255.0/565.0	129.8
16	260.0/290.0	568.4
17	260.0/575.0	110.2
18	265.0/295.0	639.6
19	265.0/590.0	91.99
20	270.0/300.0	895.7
21	270.0/600.0	82.05
22	275.0/305.0	931.8
23	275.0/610.0	65.60
24	280.0/310.0	814.3
25	280.0/625.0	60.10
26	285.0/315.0	801.1
27	285.0/635.0	45.89
28	290.0/325.0	747.4
29	295.0/330.0	553.7
30	300.0/335.0	491.6
31	310.0/350.0	302.5
32	315.0/355.0	281.3
33	320.0/360.0	274.2
34	325.0/370.0	237.7
35	330.0/375.0	235.5
36	335.0/380.0	238.7
37	345.0/395.0	189.8
38	350.0/400.0	197.5
39	355.0/405.0	174.9
40	360.0/415.0	150.2
41	365.0/420.0	153.2
42	370.0/425.0	134.3
43	380.0/440.0	102.6
44	385.0/445.0	90.35
45	395.0/460.0	64.33
46	400.0/465.0	56.23
47	410.0/480.0	38.90
48	415.0/485.0	34.25
49	430.0/505.0	21.85
50	440.0/520.0	16.19
51	445.0/525.0	13.94
52	455.0/340.0	2.468
53	460.0/335.0	2.474
54	470.0/560.0	4.405
55	475.0/565.0	3.496
56	480.0/260.0	1.834
57	485.0/265.0	2.163
58	495.0/270.0	2.142
59	505.0/275.0	3.224
60	510.0/280.0	3.392
61	520.0/285.0	3.758
62	530.0/290.0	3.365
63	540.0/295.0	4.367
64	545.0/300.0	4.854
65	550.0/305.0	4.890
66	560.0/310.0	4.252
67	570.0/315.0	4.785
68	580.0/320.0	4.893
69	585.0/325.0	4.553

Data points
	220.0	225.0	230.0	235.0	240.0	245.0	250.0	255.0	260.0	265.0	270.0	275.0	280.0	285.0	290.0	295.0	300.0	305.0	310.0	315.0	320.0	325.0	330.0	335.0	340.0	345.0	350.0	355.0	360.0	365.0	370.0	375.0	380.0	385.0	390.0	395.0	400.0	405.0	410.0	415.0	420.0	425.0	430.0	435.0	440.0	445.0	450.0	455.0	460.0	465.0	470.0	475.0	480.0	485.0	490.0	495.0	500.0	505.0	510.0	515.0	520.0	525.0	530.0	535.0	540.0	545.0	550.0	555.0	560.0	565.0	570.0	575.0	580.0	585.0	590.0	595.0	600.0
230.0	58.88	946.4	1879	474.6	12.94	2.880	2.244	1.830	1.658	1.590	1.344	1.099	1.046	0.799	0.705	0.596	0.508	0.496	0.422	0.389	0.321	0.344	0.329	0.258	0.245	0.249	0.175	0.224	0.171	0.206	0.148	0.166	0.136	0.149	0.123	0.129	0.123	0.143	0.133	0.185	0.358	0.656	0.564	0.271	0.132	0.138	1.187	4.376	6.704	4.001	1.209	0.224	0.085	0.064	0.077	0.071	0.071	0.070	0.089	0.056	0.071	0.050	0.070	0.061	0.057	0.061	0.060	0.063	0.073	0.059	0.070	0.047	0.055	0.051	0.057	0.053	0.065
235.0	183.1	278.0	1210	1705	442.7	21.94	3.252	1.934	1.554	1.675	1.511	1.323	0.893	0.760	0.889	0.531	0.560	0.424	0.425	0.419	0.386	0.328	0.369	0.294	0.304	0.221	0.218	0.286	0.193	0.182	0.203	0.139	0.169	0.124	0.140	0.143	0.135	0.180	0.137	0.123	0.174	0.276	0.526	0.640	0.494	0.253	0.389	1.175	2.755	4.505	5.864	5.249	2.347	0.460	0.095	0.092	0.087	0.054	0.073	0.052	0.066	0.069	0.067	0.062	0.052	0.054	0.072	0.061	0.054	0.061	0.052	0.062	0.052	0.057	0.055	0.067	0.060
240.0	258.7	183.6	376.2	1537	1770	329.2	10.50	3.322	2.134	1.641	1.939	1.508	1.252	0.962	0.744	0.781	0.641	0.483	0.480	0.481	0.393	0.389	0.382	0.282	0.291	0.267	0.228	0.264	0.181	0.171	0.223	0.166	0.135	0.177	0.135	0.168	0.109	0.123	0.130	0.086	0.132	0.168	0.225	0.442	0.774	0.706	0.440	0.404	0.760	1.347	3.456	7.231	8.685	5.366	1.762	0.228	0.081	0.048	0.075	0.060	0.078	0.059	0.061	0.060	0.063	0.081	0.069	0.068	0.064	0.062	0.047	0.069	0.063	0.090	0.053	0.068	0.118
245.0	189.5	294.2	152.9	549.0	2064	1743	226.1	5.970	3.433	2.263	1.955	1.726	1.372	1.208	0.729	0.724	0.554	0.691	0.480	0.536	0.408	0.348	0.314	0.251	0.269	0.171	0.257	0.207	0.170	0.188	0.220	0.153	0.138	0.172	0.165	0.150	0.126	0.105	0.144	0.116	0.140	0.153	0.155	0.189	0.352	0.752	0.958	0.718	0.396	0.400	0.888	2.578	6.430	10.46	9.538	4.299	1.107	0.124	0.103	0.058	0.096	0.097	0.075	0.067	0.073	0.066	0.051	0.065	0.077	0.050	0.060	0.055	0.089	0.070	0.052	0.094	0.083
250.0	61.61	216.5	300.5	223.9	680.0	1858	2206	711.1	33.33	3.438	2.466	1.970	1.582	1.120	1.016	0.849	0.748	0.670	0.418	0.425	0.372	0.343	0.314	0.315	0.298	0.201	0.252	0.266	0.230	0.208	0.184	0.160	0.155	0.160	0.138	0.148	0.131	0.118	0.113	0.178	0.127	0.123	0.150	0.136	0.176	0.283	0.485	0.952	1.005	0.891	0.541	0.765	1.651	3.463	6.274	8.970	11.42	9.639	4.783	1.133	0.137	0.096	0.072	0.067	0.069	0.062	0.051	0.070	0.080	0.070	0.056	0.098	0.082	0.062	0.053	0.080	0.058
255.0	26.54	62.56	220.3	381.6	245.1	482.3	1847	2859	293.1	27.80	4.234	3.119	2.258	1.567	1.487	1.019	0.822	0.765	0.635	0.612	0.431	0.495	0.268	0.351	0.250	0.236	0.256	0.303	0.219	0.236	0.160	0.173	0.166	0.198	0.183	0.119	0.151	0.124	0.135	0.172	0.140	0.154	0.145	0.141	0.129	0.191	0.184	0.374	0.480	0.893	1.393	1.351	0.810	0.907	1.528	2.257	4.503	10.19	18.06	16.37	6.987	1.225	0.095	0.081	0.084	0.080	0.080	0.109	0.079	0.071	0.059	0.103	0.067	0.063	0.080	0.078	0.065
260.0	18.00	25.16	82.12	341.2	332.0	160.1	570.4	2809	2325	238.2	14.01	3.862	2.556	2.208	1.589	0.958	0.921	0.792	0.764	0.607	0.492	0.467	0.362	0.385	0.309	0.315	0.238	0.325	0.215	0.232	0.187	0.169	0.257	0.232	0.168	0.183	0.159	0.137	0.159	0.105	0.149	0.172	0.133	0.120	0.111	0.158	0.125	0.185	0.191	0.351	0.884	1.755	1.834	0.854	0.544	0.638	1.172	2.848	8.145	16.83	21.83	15.97	4.917	0.451	0.147	0.135	0.085	0.106	0.089	0.082	0.074	0.089	0.068	0.070	0.076	0.062	0.062
265.0	15.62	16.21	26.87	158.7	443.3	242.0	158.0	984.4	3721	2012	177.5	7.164	3.751	2.572	2.106	1.490	1.220	0.919	0.847	0.684	0.618	0.453	0.400	0.432	0.425	0.386	0.354	0.304	0.307	0.313	0.229	0.248	0.296	0.248	0.188	0.176	0.203	0.141	0.157	0.168	0.134	0.171	0.145	0.142	0.131	0.162	0.114	0.125	0.119	0.154	0.345	0.961	1.827	2.163	1.168	0.535	0.413	0.804	2.037	5.098	12.48	22.66	24.79	12.89	2.783	0.240	0.126	0.103	0.085	0.093	0.074	0.082	0.098	0.101	0.085	0.072	0.075
270.0	25.93	20.41	18.26	48.97	208.1	424.8	269.6	263.7	1222	3263	3514	702.5	32.06	3.966	2.799	2.057	1.398	1.034	0.862	0.789	0.675	0.556	0.464	0.475	0.385	0.359	0.405	0.349	0.366	0.310	0.270	0.252	0.261	0.265	0.251	0.220	0.224	0.181	0.219	0.212	0.169	0.134	0.170	0.157	0.184	0.176	0.128	0.156	0.127	0.125	0.146	0.327	0.643	1.155	1.890	2.142	1.722	0.890	0.653	1.347	3.075	6.608	12.92	19.23	23.05	18.95	10.31	2.392	0.262	0.130	0.120	0.084	0.103	0.107	0.078	0.116	0.092
275.0	72.03	43.39	31.03	24.93	58.47	186.0	537.1	304.3	316.9	837.6	2978	5767	924.9	25.38	4.407	2.827	1.992	1.382	0.993	1.044	0.769	0.674	0.506	0.480	0.564	0.435	0.381	0.393	0.346	0.330	0.278	0.268	0.277	0.296	0.374	0.356	0.358	0.329	0.280	0.257	0.238	0.233	0.235	0.249	0.322	0.244	0.170	0.177	0.188	0.128	0.121	0.172	0.274	0.340	0.596	1.002	2.373	3.224	2.176	0.869	0.939	1.647	3.141	4.759	7.190	15.56	29.78	28.70	15.11	2.597	0.194	0.149	0.115	0.107	0.108	0.099	0.090
280.0	121.5	85.12	43.51	27.53	31.32	62.21	338.6	622.2	220.0	238.9	880.0	4551	5307	141.8	10.80	4.314	2.326	1.649	1.470	1.041	0.834	0.755	0.563	0.582	0.579	0.467	0.405	0.453	0.319	0.394	0.261	0.291	0.350	0.310	0.467	0.618	0.499	0.478	0.367	0.402	0.309	0.334	0.374	0.403	0.432	0.301	0.274	0.227	0.257	0.150	0.171	0.164	0.223	0.180	0.260	0.358	0.887	2.184	3.392	3.006	1.282	0.681	0.976	1.331	1.948	4.169	10.76	23.20	34.36	26.28	10.12	1.114	0.179	0.127	0.162	0.125	0.108
285.0	185.7	123.0	67.26	40.68	28.03	33.76	125.6	558.0	520.6	156.0	268.1	1406	5413	4157	103.4	6.143	2.910	2.166	1.686	1.338	0.997	0.916	0.670	0.721	0.502	0.586	0.621	0.400	0.344	0.333	0.267	0.302	0.344	0.379	0.618	0.688	0.653	0.675	0.472	0.477	0.450	0.499	0.459	0.497	0.495	0.356	0.336	0.333	0.292	0.173	0.212	0.195	0.159	0.193	0.195	0.221	0.440	0.783	1.670	3.371	3.758	2.195	0.795	0.621	0.811	1.321	2.905	6.216	14.50	29.17	33.37	22.03	5.629	0.416	0.150	0.164	0.113
290.0	223.6	168.1	97.44	58.02	39.90	39.29	64.30	218.3	568.4	492.1	199.5	403.4	1593	3911	3976	423.5	21.08	3.263	2.275	1.738	1.360	1.031	0.917	0.716	0.696	0.574	0.600	0.419	0.393	0.411	0.359	0.385	0.446	0.534	0.742	0.783	0.859	0.750	0.575	0.540	0.576	0.566	0.570	0.537	0.557	0.532	0.517	0.487	0.380	0.300	0.249	0.259	0.252	0.222	0.218	0.250	0.335	0.360	0.633	1.205	2.194	3.078	3.365	2.428	1.206	0.853	1.153	1.816	3.731	7.766	13.59	21.25	24.88	24.44	14.58	4.985	0.563
295.0	253.0	218.2	139.5	81.40	58.70	55.55	61.65	111.1	234.7	639.6	633.8	234.4	441.8	969.9	2593	4794	586.9	18.10	3.533	2.406	1.774	1.286	1.160	0.993	0.654	0.653	0.568	0.412	0.493	0.439	0.325	0.397	0.420	0.597	0.750	0.956	0.914	0.734	0.660	0.568	0.588	0.657	0.646	0.657	0.640	0.577	0.560	0.537	0.534	0.414	0.341	0.304	0.292	0.254	0.254	0.349	0.347	0.388	0.491	0.635	0.864	1.099	1.920	3.567	4.367	2.522	1.163	1.027	1.359	2.203	3.472	5.093	6.761	12.48	26.13	32.65	21.64
300.0	271.9	235.6	178.3	108.3	79.37	85.10	82.38	110.1	162.2	365.2	895.7	478.8	233.1	312.5	737.6	3519	4253	85.83	7.962	2.931	1.970	1.476	1.316	1.009	0.862	0.815	0.565	0.473	0.486	0.531	0.410	0.379	0.403	0.550	0.720	0.935	0.830	0.736	0.813	0.611	0.645	0.693	0.624	0.634	0.751	0.648	0.674	0.640	0.599	0.588	0.382	0.416	0.403	0.381	0.320	0.382	0.442	0.501	0.476	0.660	0.652	0.692	1.039	1.750	3.538	4.854	3.814	1.595	1.030	1.083	1.342	1.652	2.017	3.369	7.938	18.75	34.15
305.0	304.8	285.6	227.3	154.9	112.0	110.8	126.2	146.8	185.7	277.2	665.1	931.8	364.4	206.9	275.7	1092	4140	3266	66.84	4.618	2.452	1.601	1.448	1.166	0.986	0.758	0.636	0.561	0.590	0.587	0.433	0.362	0.480	0.544	0.715	1.010	0.857	0.828	0.876	0.712	0.812	0.748	0.747	0.665	0.721	0.717	0.758	0.770	0.737	0.730	0.548	0.579	0.539	0.557	0.514	0.573	0.615	0.663	0.756	0.860	0.816	0.988	1.062	1.277	1.963	3.255	4.890	4.706	2.830	1.420	1.099	1.211	1.327	1.518	2.438	5.150	12.13
310.0	347.6	354.0	284.5	209.8	156.3	142.8	169.3	195.3	223.3	289.4	432.4	756.3	814.3	391.7	237.3	362.5	1252	2954	3020	292.9	16.53	2.626	1.993	1.459	1.181	0.887	0.714	0.681	0.602	0.585	0.412	0.459	0.442	0.529	0.717	0.896	0.836	0.839	0.769	0.715	0.786	0.772	0.739	0.812	0.849	0.886	0.863	0.976	0.899	0.808	0.653	0.759	0.640	0.673	0.638	0.671	0.732	0.844	0.835	1.026	0.959	1.046	1.330	1.370	1.597	2.084	2.672	3.844	4.252	4.139	2.997	1.783	1.320	1.251	1.348	1.901	3.310
315.0	456.8	447.3	377.7	248.6	188.9	175.7	200.8	226.5	257.1	315.2	396.5	506.3	714.8	801.1	342.2	226.6	392.2	748.7	1924	3589	443.1	12.59	3.052	1.780	1.415	1.159	0.760	0.671	0.676	0.634	0.528	0.536	0.440	0.613	0.811	0.837	0.890	0.799	0.833	0.827	0.910	0.924	0.905	0.982	0.992	1.020	1.036	1.337	1.072	0.933	0.849	0.886	0.868	0.742	0.732	0.771	0.887	1.046	0.876	0.926	1.078	1.203	1.378	1.445	1.636	1.828	2.077	2.381	2.703	3.229	4.785	4.397	3.015	1.708	1.425	1.257	1.531
320.0	559.9	548.0	453.8	297.7	213.7	183.7	209.5	244.7	274.3	330.8	406.9	475.4	538.5	792.1	614.9	240.6	215.5	242.7	524.5	2564	3136	65.25	6.243	2.239	1.738	1.391	0.932	0.840	0.840	0.654	0.518	0.589	0.526	0.508	0.751	0.755	0.840	1.001	0.877	0.914	0.913	0.899	1.151	1.309	1.296	1.382	1.318	1.504	1.408	1.060	1.081	1.038	0.851	0.845	0.867	0.804	0.934	1.193	1.338	1.157	1.210	1.234	1.303	1.600	1.753	1.927	2.112	2.049	2.295	2.554	3.339	4.306	4.893	3.343	1.853	1.462	1.172
325.0	615.8	675.1	584.1	386.5	243.3	191.6	215.2	256.9	280.3	340.1	410.9	475.7	482.7	583.9	747.4	381.3	187.1	135.8	157.2	759.5	2955	2437	53.22	3.665	2.210	1.401	1.277	0.988	0.793	0.651	0.652	0.706	0.643	0.589	0.733	0.691	0.887	1.025	0.889	1.038	1.113	0.977	1.235	1.241	1.356	1.609	1.716	1.858	1.804	1.364	1.224	1.176	1.013	0.923	0.821	0.974	0.951	1.037	1.221	1.328	1.287	1.231	1.395	1.635	1.775	2.039	2.023	2.057	2.091	2.386	2.699	2.992	3.887	4.553	3.765	2.142	1.327
330.0	684.7	796.0	754.2	565.5	332.9	225.9	222.8	252.9	272.7	341.0	408.9	465.1	474.3	467.9	525.2	553.7	317.4	127.9	85.06	203.6	854.4	2192	2327	238.9	13.09	2.246	1.593	1.007	0.953	0.790	0.713	0.572	0.621	0.618	0.692	0.613	0.879	0.872	0.873	0.937	1.027	1.012	1.268	1.416	1.663	1.892	1.883	2.195	2.273	1.929	1.734	1.716	1.372	1.076	0.889	0.873	1.064	0.998	1.137	1.336	1.226	1.300	1.443	1.644	1.810	1.979	2.063	2.088	2.094	2.233	2.304	2.297	2.653	2.937	3.383	3.430	3.116
335.0	768.9	839.9	863.6	677.2	402.8	250.8	222.0	245.4	273.1	321.2	396.5	448.0	457.5	422.7	382.1	391.9	491.6	232.7	82.59	87.38	222.0	532.5	1567	2845	364.7	10.30	2.189	1.288	1.270	0.988	0.882	0.766	0.655	0.729	0.742	0.738	0.821	0.845	0.834	0.900	1.183	1.038	1.201	1.409	1.688	1.879	2.050	2.463	2.474	2.192	2.082	2.072	1.569	1.221	1.039	0.799	1.017	0.984	0.983	1.287	1.202	1.180	1.401	1.600	1.789	1.741	1.980	2.160	2.044	2.214	2.198	2.314	2.144	2.063	2.062	2.025	2.631
340.0	723.9	830.9	874.6	726.7	431.4	261.1	226.0	241.9	264.0	311.8	371.4	421.4	427.9	398.8	339.5	285.6	388.2	382.6	126.2	68.86	85.45	147.9	430.9	2121	2513	55.10	4.425	1.683	1.345	1.061	0.736	0.829	0.761	0.662	0.676	0.735	0.880	0.808	0.855	0.939	1.036	1.100	1.139	1.382	1.544	1.784	1.947	2.468	2.373	2.379	2.038	2.075	1.770	1.413	1.080	0.831	0.931	1.002	1.061	1.281	1.260	1.230	1.321	1.479	1.476	1.625	2.021	1.931	1.997	2.062	1.911	2.165	1.878	1.848	1.667	1.670	1.789
345.0	667.6	823.7	860.7	730.6	447.1	267.1	225.6	236.4	254.7	297.7	351.1	395.9	402.2	374.1	317.9	249.0	260.3	380.9	251.8	79.33	62.24	67.31	123.6	635.6	2460	1929	46.11	2.853	1.780	1.352	0.927	0.695	0.885	0.680	0.639	0.783	0.975	0.655	0.723	0.941	0.847	1.132	1.062	1.221	1.466	1.768	1.919	2.415	2.233	2.405	2.234	2.212	1.818	1.448	1.105	0.936	0.890	0.978	1.068	1.072	1.067	1.342	1.335	1.452	1.669	1.612	1.841	1.867	1.762	2.037	1.840	1.928	1.922	1.753	1.522	1.470	1.448
350.0	629.8	748.8	794.8	699.3	462.2	282.4	221.5	228.0	244.7	275.7	323.9	362.4	363.0	343.1	293.1	235.2	203.9	232.9	302.5	199.6	81.77	59.56	62.56	167.7	730.9	1788	1792	208.3	10.71	1.723	1.169	0.948	0.886	0.808	0.622	0.725	0.834	0.665	0.762	0.831	0.855	0.950	1.072	1.127	1.269	1.668	1.629	2.087	2.144	2.251	2.049	2.176	1.812	1.357	1.126	1.007	0.928	0.952	0.996	0.984	1.039	1.253	1.144	1.338	1.484	1.462	1.686	1.564	1.672	1.797	1.587	1.754	1.722	1.618	1.487	1.340	1.298
355.0	571.8	665.6	712.8	638.4	452.5	290.7	229.5	231.2	237.9	261.1	296.6	320.3	319.8	307.2	269.3	221.5	188.1	170.3	189.5	281.3	180.7	72.39	58.78	71.12	186.7	435.7	1271	2187	315.5	7.169	1.787	1.029	0.934	0.815	0.722	0.738	0.750	0.849	0.807	0.848	0.877	0.985	0.931	0.988	1.194	1.357	1.627	1.857	1.933	1.940	1.876	1.994	1.648	1.350	1.206	1.003	1.122	0.972	1.101	0.829	1.067	1.071	1.183	1.319	1.361	1.382	1.495	1.546	1.554	1.488	1.471	1.651	1.565	1.609	1.305	1.237	1.310
360.0	508.4	608.4	653.6	581.3	427.1	298.4	234.4	235.8	239.9	255.2	283.3	294.4	298.9	287.9	256.8	217.1	185.4	160.9	149.9	215.6	274.2	126.5	68.21	58.19	72.95	120.0	357.3	1741	1946	49.64	3.380	1.378	1.171	1.039	0.795	0.652	0.756	0.871	0.683	0.788	0.779	0.797	0.863	0.950	1.101	1.323	1.476	1.566	1.918	1.869	1.678	1.871	1.715	1.411	1.170	1.104	1.097	1.067	1.109	1.039	1.047	1.135	1.158	1.193	1.344	1.284	1.325	1.364	1.319	1.409	1.496	1.464	1.456	1.536	1.140	1.128	1.277
365.0	493.3	554.5	590.5	556.4	423.2	305.6	244.7	231.4	236.1	250.3	266.1	287.3	285.9	271.0	247.2	213.1	187.8	162.7	147.7	160.2	256.4	219.8	92.88	64.04	55.95	55.92	102.0	540.1	2029	1538	39.81	2.448	1.391	1.007	0.987	0.796	0.881	0.817	0.675	0.658	0.831	0.789	0.870	0.877	1.023	1.191	1.235	1.520	1.643	1.706	1.583	1.787	1.675	1.465	1.226	1.105	1.167	1.053	1.059	1.007	1.067	1.246	1.237	1.235	1.273	1.279	1.363	1.224	1.321	1.453	1.298	1.352	1.417	1.329	1.176	1.298	1.303
370.0	446.0	499.0	532.5	502.2	408.8	310.8	258.8	242.0	239.2	250.7	258.3	275.3	268.8	257.7	236.7	209.0	192.9	172.6	156.6	147.7	176.7	237.7	194.6	93.78	64.04	51.77	52.69	143.4	616.7	1538	1497	178.5	8.444	1.484	1.153	0.893	0.955	0.907	0.718	0.669	0.722	0.815	0.872	0.961	0.955	1.192	1.103	1.476	1.376	1.389	1.456	1.751	1.534	1.435	1.305	1.125	1.044	1.118	1.105	1.057	1.195	1.157	1.212	1.170	1.193	1.283	1.181	1.210	1.281	1.338	1.326	1.367	1.303	1.369	1.277	1.283	1.266
375.0	417.2	469.4	492.1	458.6	397.3	326.7	269.8	247.9	242.4	249.2	256.9	261.0	262.8	251.1	231.4	207.7	192.7	181.0	166.2	155.4	153.0	171.0	235.5	182.2	87.42	62.28	52.62	62.70	160.8	380.8	1133	1759	255.0	5.975	1.457	1.149	0.955	0.845	0.797	0.776	0.805	0.760	0.804	0.897	0.909	1.029	1.124	1.287	1.278	1.274	1.274	1.578	1.341	1.362	1.391	1.142	1.076	1.058	1.217	1.153	1.213	1.166	1.176	1.241	1.167	1.139	1.119	1.230	1.278	1.153	1.199	1.332	1.255	1.386	1.179	1.241	1.247
380.0	387.4	453.5	456.5	453.1	394.3	330.5	281.2	256.4	245.6	250.5	255.3	259.0	261.5	250.1	227.1	206.2	196.7	183.4	173.8	161.2	152.4	148.5	188.5	238.7	136.1	74.75	60.17	52.43	63.75	106.9	325.8	1453	1481	41.01	2.606	1.313	1.172	0.934	0.820	0.785	0.824	0.780	0.811	0.970	0.866	1.068	0.988	1.049	1.172	1.172	1.231	1.543	1.446	1.442	1.414	1.184	1.064	1.169	1.251	1.131	1.098	1.039	1.241	1.067	1.160	1.094	1.236	1.132	1.317	1.181	1.156	1.172	1.185	1.271	1.172	1.282	1.286
385.0	372.1	422.7	442.6	426.1	387.6	334.0	283.1	268.9	257.5	256.7	251.9	255.2	261.2	242.4	222.9	204.8	196.6	183.9	179.1	166.2	160.3	150.2	154.5	213.3	205.2	101.9	71.79	57.14	49.28	49.24	94.92	460.8	1554	1086	30.86	1.878	1.379	0.924	0.808	0.816	0.790	0.835	0.663	0.884	0.813	0.892	1.040	1.118	1.196	1.139	1.181	1.413	1.478	1.355	1.291	1.277	1.199	1.273	1.198	1.144	1.295	1.106	1.175	1.099	1.165	1.179	1.088	1.222	1.225	1.122	1.229	1.257	1.234	1.242	1.021	1.233	1.371
390.0	356.5	405.4	412.7	402.0	378.1	333.5	292.8	274.7	262.1	260.0	250.8	255.5	251.9	235.1	220.1	206.9	194.6	187.1	183.5	173.5	164.5	155.7	149.6	161.5	200.9	175.4	98.53	67.14	53.28	44.10	47.24	122.6	474.1	1088	805.3	137.3	6.495	1.240	0.959	0.886	0.785	0.847	0.838	0.901	0.839	0.931	0.986	1.130	1.146	1.090	1.132	1.401	1.413	1.345	1.342	1.309	1.311	1.232	1.267	1.110	1.191	1.175	1.149	1.130	1.174	1.135	1.233	1.181	1.151	1.178	1.295	1.168	1.292	1.211	1.160	1.173	1.242
395.0	338.1	379.6	396.2	393.6	371.8	332.2	304.7	276.9	264.1	264.2	258.2	248.4	244.7	231.6	216.7	202.0	196.3	187.2	184.5	178.1	169.9	161.0	153.6	147.1	151.7	189.8	167.0	88.89	62.81	50.83	43.58	50.29	121.2	269.3	735.0	1203	203.6	4.452	1.289	0.996	0.815	0.773	0.825	0.840	0.801	0.989	1.035	1.101	1.186	1.079	1.148	1.322	1.325	1.303	1.239	1.208	1.299	1.178	1.316	1.219	1.223	1.127	1.249	1.183	1.250	1.165	1.241	1.230	1.086	1.141	1.252	1.237	1.232	1.219	1.210	1.256	1.236
400.0	331.1	380.0	384.7	380.9	368.7	322.0	309.4	282.0	268.0	262.0	251.9	249.4	243.5	232.0	216.3	200.1	194.5	186.7	185.8	177.9	172.2	164.6	156.3	145.1	139.1	155.3	197.5	128.1	74.07	57.88	47.53	39.06	45.66	73.00	212.6	979.8	1061	34.71	2.077	1.224	0.918	0.821	0.829	0.834	0.787	0.925	0.871	1.060	1.060	1.030	1.118	1.198	1.201	1.379	1.312	1.214	1.304	1.283	1.360	1.321	1.157	1.134	1.231	1.243	1.266	1.166	1.295	1.201	1.212	1.053	1.223	1.211	1.181	1.243	1.153	1.329	1.327
405.0	333.4	365.2	384.2	386.7	360.5	322.5	310.5	286.1	273.3	263.3	256.3	251.7	243.4	227.9	208.1	195.4	192.4	184.4	184.5	177.5	172.1	168.5	156.8	147.2	137.2	133.5	170.8	174.9	98.80	64.92	53.96	41.58	32.12	31.04	58.41	304.7	1079	763.6	27.07	1.694	1.026	0.993	0.906	0.923	0.778	0.931	0.906	1.043	1.022	0.951	1.155	1.219	1.179	1.198	1.274	1.129	1.383	1.285	1.203	1.277	1.236	1.290	1.163	1.212	1.225	1.267	1.192	1.089	1.084	1.170	1.206	1.182	1.079	1.173	1.099	1.041	1.279
410.0	336.5	355.1	368.4	366.6	345.0	323.6	305.5	300.9	279.5	270.1	258.8	250.3	234.4	220.4	206.0	192.5	187.0	182.3	181.6	173.3	170.3	166.3	156.3	149.2	137.5	128.6	134.3	162.1	148.9	89.05	61.06	45.97	33.67	26.34	26.36	78.27	322.1	745.1	595.0	125.2	5.659	1.251	0.912	1.015	0.850	0.914	0.968	1.148	0.962	0.900	1.087	1.193	1.224	1.233	1.165	1.237	1.298	1.254	1.289	1.273	1.219	1.269	1.255	1.272	1.142	1.282	1.072	1.019	1.017	1.037	1.210	1.172	1.188	1.178	1.053	1.175	1.262
