Sample:	'1
File name:	Default_20231106_140723.FD3
Run date:	'14:01:02, 11/06/2023
Operator:	user
Comment:	'

Instrument
Model:	F-2700 FL Spectrophotometer
Serial number:	2190-003
ROM Version:	4J14000 07

Instrument parameters
Measurement type:	3-D scan
Data mode:	Fluorescence
EX  Start WL:	220.0 nm
EX  End WL:	600.0 nm
EX Sampling interval:	5.0 nm
EM  Start WL:	230.0 nm
EM  End WL:	650.0 nm
EM Sampling interval:	5.0 nm
Scan speed:	12000 nm/min
EX Slit:	5.0 nm
EM Slit:	5.0 nm
PMT Voltage:	700 V
Response:	Auto 
Corrected spectra:	Off
Contour interval:	50.000

Peak integration
Integration method:	Rectangular
Sensitivity:	1
Threshold:	1.000

Peaks
No.	ApexEX/EM(nm)	Height(Data)
1	225.0/305.0	224.8
2	225.0/510.0	211.7
3	225.0/540.0	206.1
4	225.0/630.0	184.1
5	230.0/300.0	234.4
6	230.0/500.0	214.6
7	235.0/505.0	229.9
8	235.0/535.0	176.7
9	235.0/560.0	165.2
10	235.0/615.0	134.3
11	245.0/265.0	228.1
12	245.0/525.0	188.1
13	245.0/575.0	112.2
14	245.0/635.0	111.9
15	250.0/360.0	 1414
16	250.0/540.0	157.5
17	255.0/275.0	320.5
18	255.0/550.0	143.1
19	255.0/595.0	89.85
20	260.0/285.0	401.3
21	260.0/565.0	136.6
22	260.0/620.0	70.55
23	265.0/290.0	431.3
24	265.0/580.0	123.4
25	265.0/625.0	66.34
26	270.0/240.0	57.29
27	270.0/295.0	584.9
28	270.0/590.0	108.2
29	270.0/635.0	69.53
30	275.0/305.0	707.0
31	275.0/605.0	103.0
32	280.0/310.0	680.4
33	280.0/330.0	420.9
34	280.0/615.0	87.01
35	285.0/315.0	642.0
36	285.0/400.0	440.5
37	285.0/625.0	67.04
38	290.0/320.0	614.1
39	300.0/335.0	417.4
40	305.0/340.0	456.8
41	310.0/275.0	15.29
42	310.0/345.0	396.3
43	310.0/400.0	405.9
44	315.0/355.0	351.7
45	315.0/585.0	21.71
46	320.0/360.0	391.0
47	320.0/395.0	409.6
48	325.0/365.0	380.4
49	330.0/375.0	360.1
50	335.0/305.0	10.84
51	335.0/380.0	388.7
52	335.0/605.0	13.69
53	340.0/385.0	377.8
54	345.0/280.0	7.825
55	350.0/295.0	7.924
56	350.0/400.0	335.1
57	355.0/305.0	7.986
58	355.0/405.0	323.3
59	360.0/260.0	8.238
60	360.0/625.0	9.601
61	365.0/290.0	7.025
62	365.0/415.0	276.3
63	370.0/240.0	6.444
64	370.0/285.0	6.668
65	370.0/425.0	260.5
66	380.0/335.0	6.836
67	380.0/640.0	6.687
68	400.0/295.0	5.192
69	410.0/475.0	83.65
70	415.0/355.0	4.653
71	415.0/485.0	70.69
72	425.0/260.0	4.558
73	430.0/505.0	42.76
74	435.0/365.0	5.122
75	440.0/515.0	30.39
76	445.0/385.0	4.513
77	445.0/525.0	25.78
78	450.0/530.0	20.51
79	455.0/540.0	17.68
80	485.0/360.0	5.903
81	485.0/575.0	6.405
82	495.0/600.0	4.701
83	505.0/275.0	3.741
84	530.0/290.0	4.071
85	545.0/300.0	4.387
86	550.0/305.0	4.516
87	555.0/310.0	4.438
88	570.0/315.0	4.304
89	575.0/320.0	4.634
90	580.0/445.0	4.008

Data points
	220.0	225.0	230.0	235.0	240.0	245.0	250.0	255.0	260.0	265.0	270.0	275.0	280.0	285.0	290.0	295.0	300.0	305.0	310.0	315.0	320.0	325.0	330.0	335.0	340.0	345.0	350.0	355.0	360.0	365.0	370.0	375.0	380.0	385.0	390.0	395.0	400.0	405.0	410.0	415.0	420.0	425.0	430.0	435.0	440.0	445.0	450.0	455.0	460.0	465.0	470.0	475.0	480.0	485.0	490.0	495.0	500.0	505.0	510.0	515.0	520.0	525.0	530.0	535.0	540.0	545.0	550.0	555.0	560.0	565.0	570.0	575.0	580.0	585.0	590.0	595.0	600.0
230.0	187.1	198.9	919.4	996.7	200.9	89.48	77.84	67.75	52.45	49.29	42.62	39.28	31.62	26.58	24.14	20.44	16.59	14.21	12.43	10.84	9.667	9.215	8.137	8.353	7.932	7.021	6.900	6.617	6.716	6.221	5.716	6.076	5.197	5.179	4.655	4.150	4.321	3.773	4.230	4.104	3.815	3.646	3.735	3.349	3.208	3.093	2.985	3.127	3.983	4.117	2.950	2.887	2.617	2.813	2.597	2.594	2.695	2.940	2.772	2.815	2.576	2.655	2.781	2.684	2.458	2.612	2.332	2.676	2.561	2.916	2.538	2.922	2.995	2.578	2.439	2.642	3.026
235.0	192.8	167.2	420.5	 1274	 1263	229.7	76.79	70.45	56.57	50.00	42.24	40.42	31.22	27.77	21.25	20.18	18.67	14.45	11.49	11.04	10.44	9.418	8.894	8.182	7.489	8.039	6.239	6.176	6.285	6.754	6.068	5.998	4.916	5.471	4.802	4.025	4.383	3.784	3.933	3.438	3.094	3.650	4.200	3.173	3.281	3.386	2.415	3.243	3.218	3.322	4.188	5.546	3.608	2.888	2.417	3.226	2.429	2.839	2.773	2.937	2.316	2.819	2.766	2.587	2.336	2.638	2.317	2.085	2.544	2.897	2.707	2.695	2.410	2.835	2.433	2.155	3.035
240.0	162.9	193.3	218.1	625.3	 1832	 1170	145.7	75.96	60.15	50.59	57.29	37.82	34.00	26.01	23.78	20.47	15.34	14.53	12.19	12.47	11.08	10.97	8.113	9.091	8.033	8.561	5.942	5.223	6.054	6.305	6.444	5.355	4.601	4.296	4.065	4.508	4.348	4.275	3.715	4.455	2.657	3.662	4.414	3.504	2.905	3.607	2.544	3.106	2.812	2.175	2.644	5.397	6.126	5.901	2.841	3.183	2.463	2.583	3.032	2.968	2.352	2.226	2.517	2.635	2.561	2.665	2.570	2.615	2.372	2.961	2.687	2.578	2.628	2.679	3.122	2.698	2.626
245.0	165.6	164.0	181.5	230.3	 1037	 2344	 1046	109.7	58.89	57.85	43.37	42.59	32.53	27.75	22.01	19.35	16.38	14.01	12.59	13.39	9.662	9.696	8.933	7.842	8.513	7.111	6.608	6.743	5.357	4.728	5.066	6.068	5.665	5.864	4.571	4.274	4.007	3.608	4.460	4.271	4.215	4.147	3.868	3.117	3.366	3.451	2.904	2.780	2.938	2.033	2.308	3.465	4.846	7.163	7.085	5.614	2.924	2.554	2.618	2.918	2.601	2.535	2.777	2.720	2.297	2.746	2.565	2.682	2.345	3.011	2.652	2.850	2.385	2.805	2.801	3.041	2.950
250.0	158.3	163.1	179.8	172.3	333.2	 1100	 2262	 1684	325.5	52.89	43.36	38.21	33.83	28.16	23.03	18.07	18.55	14.57	11.65	12.39	11.36	8.406	9.269	7.143	8.003	7.192	7.140	7.012	5.419	5.675	5.608	5.177	5.095	5.489	4.719	4.052	4.250	3.445	4.009	3.870	3.851	3.953	3.562	3.330	3.255	3.101	2.719	2.677	2.891	2.434	2.510	2.893	2.718	4.107	4.735	6.075	6.846	6.274	4.477	3.013	2.621	2.537	2.598	2.866	2.645	2.800	2.300	2.539	2.369	2.760	2.948	2.587	2.177	2.785	2.744	2.687	2.560
255.0	196.8	162.4	165.2	180.7	222.2	326.7	763.0	 2864	 2237	346.1	54.34	38.66	31.50	29.34	22.01	18.49	18.65	15.46	12.32	11.91	9.491	8.732	8.761	7.911	7.184	6.665	7.250	6.515	7.040	5.910	5.525	5.276	4.401	4.129	4.058	3.872	4.029	4.374	4.062	3.770	3.504	4.505	3.782	2.950	3.352	3.374	2.715	3.053	2.656	2.230	2.627	2.435	3.070	2.688	2.855	3.155	4.249	6.464	8.867	8.684	4.939	3.088	2.870	2.654	2.547	2.876	2.414	2.529	2.387	2.825	3.251	2.735	2.630	2.821	2.414	2.765	3.157
260.0	203.8	147.3	129.3	155.1	226.7	195.0	248.8	 1156	 3606	 1878	192.2	46.58	33.36	27.74	21.96	18.28	17.31	15.94	11.67	12.69	10.37	9.945	7.958	7.402	8.024	7.165	6.668	5.749	8.238	6.200	5.637	5.425	5.178	4.839	4.980	4.405	3.304	4.123	3.415	3.533	3.196	4.558	3.421	2.844	2.954	3.815	3.018	2.956	2.540	2.318	2.324	2.964	3.023	2.589	2.237	3.060	3.301	4.535	5.596	8.167	11.05	8.316	4.064	2.910	2.393	2.526	2.934	2.856	2.386	2.510	2.720	2.796	2.428	2.600	2.598	2.967	2.739
265.0	160.6	147.1	156.6	138.4	163.5	228.1	145.7	331.2	 1679	 3971	 1442	97.18	38.32	28.14	20.87	21.11	15.53	15.00	12.45	10.11	11.65	11.11	7.374	7.957	7.481	6.313	7.100	6.295	6.990	6.423	5.895	5.091	5.110	4.704	4.526	5.012	3.786	4.503	3.669	4.203	4.307	3.755	4.029	3.703	3.110	3.624	2.542	2.904	2.184	2.235	2.043	2.901	2.657	2.785	2.557	2.972	3.292	2.789	3.175	4.185	6.624	10.63	10.85	6.332	3.028	2.326	2.599	2.756	2.428	2.538	2.288	2.797	2.851	2.375	2.361	3.213	2.890
270.0	199.7	157.1	160.0	127.5	113.1	168.7	232.2	179.5	453.3	 1615	 3134	 2407	345.6	34.24	23.07	20.35	16.02	13.34	13.68	12.97	11.19	10.68	8.936	8.099	6.444	6.801	6.505	6.640	6.742	5.751	5.850	5.343	5.687	4.717	4.764	4.589	3.797	3.714	3.628	3.705	4.172	3.331	3.926	3.388	3.453	3.271	2.840	2.512	2.461	2.407	2.096	2.942	2.517	2.767	2.707	3.374	3.306	2.626	2.527	3.147	3.747	4.569	6.803	10.16	10.40	9.796	5.660	3.064	1.909	2.842	2.377	2.664	2.502	2.558	2.504	3.055	2.788
275.0	186.8	181.8	163.2	153.0	106.3	101.0	191.2	320.5	184.0	413.3	934.2	 3229	 3490	314.3	25.19	22.82	17.48	13.82	15.29	12.54	11.94	10.55	9.249	7.759	6.795	7.135	6.792	6.782	7.044	5.488	5.282	6.232	4.244	4.549	3.942	4.711	3.641	3.971	3.711	3.912	3.893	3.584	3.826	3.698	3.999	3.266	2.952	2.810	3.093	2.475	2.331	2.648	2.389	3.025	2.570	2.627	3.124	3.741	2.495	2.485	3.034	3.024	3.584	4.332	5.735	8.683	14.54	13.05	5.652	2.798	2.257	3.322	2.209	2.744	2.718	2.837	2.832
280.0	208.8	166.6	167.2	146.7	129.2	107.2	126.0	279.2	282.7	185.0	295.8	 1194	 4370	 1189	137.3	21.87	19.07	15.57	14.70	14.06	13.23	10.71	8.277	8.247	5.952	7.825	7.376	6.465	6.497	6.870	5.616	5.717	4.903	4.984	3.748	3.950	3.765	4.291	3.563	4.145	3.523	3.617	3.552	3.386	3.340	3.559	3.519	2.989	3.030	2.431	2.210	2.714	2.253	2.896	2.900	2.985	3.019	3.555	2.957	3.216	3.323	3.320	2.809	3.197	3.404	4.019	8.206	14.51	16.29	10.27	3.989	3.225	2.505	2.737	2.937	2.618	2.651
285.0	204.5	177.1	180.2	142.8	128.6	125.5	96.50	174.5	401.3	248.5	165.1	394.6	 1849	 4628	889.7	51.53	19.38	14.98	14.89	12.03	11.45	9.226	8.821	7.804	7.492	7.188	7.182	5.636	5.788	6.193	6.668	6.521	5.102	5.084	4.298	3.520	4.917	4.760	3.464	4.292	3.005	4.055	3.829	3.093	3.150	3.917	3.183	2.851	2.630	2.486	2.120	2.503	2.763	2.909	2.783	2.928	3.152	3.354	3.171	3.699	3.757	3.016	2.611	2.937	2.772	2.789	4.083	6.424	11.70	16.10	16.03	7.284	3.607	3.067	2.875	2.693	2.455
290.0	215.7	202.7	180.6	145.7	141.4	131.7	112.2	137.1	236.4	431.3	328.8	260.4	587.4	 1895	 3605	 2304	208.2	17.72	14.19	13.18	10.62	9.774	9.336	8.818	7.326	6.571	7.166	6.266	5.751	7.025	5.938	6.896	5.416	4.847	4.526	4.006	4.943	4.553	3.590	4.015	3.028	3.706	3.551	3.132	3.097	3.324	3.165	3.267	2.578	2.368	2.267	2.605	2.951	2.898	2.589	2.693	2.857	2.600	3.104	3.127	3.368	3.383	4.071	3.213	2.918	2.984	3.218	3.945	5.176	6.923	11.08	13.63	13.41	10.59	6.165	2.826	3.093
295.0	203.2	205.1	195.6	166.9	139.5	127.4	131.2	130.8	165.1	283.1	584.9	398.3	328.9	548.6	 1072	 3726	 3285	208.5	12.70	13.17	11.28	10.44	9.282	8.855	7.687	6.826	7.924	6.372	6.104	6.794	6.298	5.581	5.199	4.774	4.409	4.171	5.192	4.258	2.973	3.151	3.375	3.713	3.044	3.428	3.340	3.627	3.032	3.183	2.636	2.287	2.738	2.794	3.007	2.345	2.987	2.691	2.896	2.915	2.932	3.097	3.166	3.595	3.308	3.992	3.721	3.137	3.232	3.348	3.644	4.448	4.587	5.239	6.912	13.17	18.96	15.14	7.019
300.0	196.7	208.2	234.4	202.0	172.2	145.1	147.6	145.1	171.1	217.6	486.1	675.7	366.9	282.3	335.1	 1373	 4678	 2324	92.56	12.87	11.99	11.05	9.336	9.919	7.031	7.544	5.714	7.056	5.987	5.532	6.377	5.919	4.883	5.045	4.507	3.960	4.375	3.574	3.394	3.660	3.335	4.034	3.177	2.904	3.388	3.897	2.736	2.831	2.674	2.129	2.596	2.810	2.236	2.603	2.836	3.125	2.768	2.909	3.289	2.953	3.167	3.023	2.598	3.273	4.374	4.387	3.382	3.489	3.354	3.687	3.254	3.106	3.340	5.692	10.32	17.50	20.34
305.0	220.5	224.8	210.6	200.2	164.7	159.1	146.8	156.1	182.1	230.9	368.6	707.0	607.2	280.8	200.8	399.0	 2053	 4677	515.7	33.72	13.89	10.74	8.365	10.84	6.433	7.155	7.749	7.986	6.502	6.249	5.302	5.521	4.957	4.479	4.760	4.390	4.335	3.896	3.943	3.828	3.737	4.248	3.309	3.182	3.415	3.236	2.838	2.297	2.580	2.437	2.184	3.385	2.854	2.888	2.720	2.201	3.668	3.032	3.265	3.134	3.189	2.865	3.126	3.864	3.885	3.920	4.516	3.971	3.263	2.927	3.240	2.991	2.977	3.696	4.230	7.915	15.00
310.0	192.5	223.6	240.7	197.6	174.5	163.6	167.5	177.5	198.5	248.7	321.2	477.9	680.4	519.6	229.8	186.6	542.9	 1967	 3259	 1769	134.7	11.62	10.34	9.095	9.305	7.719	7.487	7.027	6.549	5.492	6.066	6.455	5.084	5.440	4.198	4.655	4.365	4.089	4.350	3.569	3.262	3.609	3.578	3.145	3.205	3.306	2.926	2.973	2.893	2.967	2.471	3.476	2.438	2.905	2.914	2.809	3.285	3.254	3.148	2.973	2.893	3.244	3.089	3.639	3.208	3.645	3.804	4.438	4.413	3.641	3.374	3.120	2.948	3.184	2.753	4.011	5.624
315.0	199.8	214.3	236.2	212.2	169.3	158.4	173.4	188.8	212.9	263.6	324.8	395.4	452.7	642.0	444.8	175.0	205.7	500.9	 1033	 3583	 2522	146.7	12.84	10.94	8.720	8.214	6.825	6.808	7.028	6.043	6.970	5.785	5.379	4.369	4.860	4.647	4.191	3.807	3.887	3.803	3.043	3.568	3.941	3.174	3.146	3.659	2.659	2.884	2.639	2.640	2.393	3.492	2.823	2.931	2.386	2.905	3.193	3.336	3.082	2.959	3.183	3.494	2.906	3.371	2.945	3.070	3.494	3.756	3.819	4.221	4.304	3.786	3.235	3.195	3.132	3.284	3.806
320.0	207.2	227.2	260.0	200.8	192.5	201.0	192.5	203.1	231.3	262.1	338.9	380.3	410.4	499.6	614.1	279.6	147.7	190.4	276.4	 1426	 4178	 1763	62.74	10.50	9.135	9.289	7.240	8.060	7.521	6.435	6.904	5.937	5.283	4.645	4.797	5.216	4.402	3.980	4.114	4.188	3.913	3.648	3.757	3.666	3.214	3.519	3.077	3.233	2.879	2.423	2.171	3.125	3.037	2.591	3.006	2.944	3.384	2.681	3.130	2.929	3.140	3.021	3.381	3.268	2.984	3.289	3.859	3.875	3.510	3.274	3.981	4.634	3.752	3.196	2.785	3.372	3.206
325.0	203.9	223.7	275.6	238.1	227.3	254.7	224.1	238.3	280.9	295.0	340.7	390.9	395.6	388.6	540.5	479.0	170.5	133.6	121.5	374.7	 2033	 4037	355.0	23.99	8.995	9.054	8.000	6.476	7.228	7.062	6.883	6.088	5.204	4.575	4.475	5.465	4.303	4.379	4.243	4.447	3.581	3.452	3.850	3.647	3.049	3.534	3.010	3.601	2.889	2.758	2.752	2.642	2.899	3.187	3.211	2.670	2.837	2.707	2.929	2.648	3.269	3.149	3.372	2.934	3.187	3.558	3.509	3.387	3.679	3.524	3.971	3.966	4.038	3.874	3.202	3.171	3.348
330.0	210.2	281.2	361.1	367.6	360.0	367.5	386.9	361.2	357.5	368.9	379.7	391.4	420.9	390.2	396.2	465.9	370.0	173.0	102.1	139.8	519.4	 1878	 2663	 1293	97.22	10.17	8.217	7.635	6.592	6.757	6.567	5.545	5.730	5.440	5.256	4.725	4.340	3.846	3.797	3.983	3.435	3.609	3.611	3.754	3.841	3.501	3.281	3.588	2.997	2.772	2.833	2.903	2.728	3.259	3.259	3.549	3.345	3.264	3.079	3.292	3.248	3.698	3.288	2.833	3.649	3.212	3.760	3.208	3.325	3.562	3.454	3.763	3.436	4.005	3.886	3.966	3.627
335.0	234.5	325.5	405.3	521.7	555.7	611.6	568.6	545.5	512.4	460.7	434.4	416.3	407.1	407.1	376.3	335.3	417.4	362.1	142.8	110.1	172.8	464.2	966.8	 3374	 1881	103.2	9.293	8.929	7.195	7.682	6.527	5.815	6.836	5.155	5.403	4.662	4.265	4.224	3.602	4.112	3.336	3.399	3.732	3.968	3.620	3.598	3.292	3.514	3.373	3.050	2.628	3.336	3.155	3.151	3.808	3.808	3.443	3.975	3.563	3.724	3.937	3.412	3.626	3.575	3.599	3.137	3.662	3.519	3.299	3.237	2.998	3.928	3.544	3.574	3.686	3.920	4.782
340.0	236.1	359.6	431.3	664.8	698.0	794.9	802.5	682.3	624.6	558.5	462.5	460.6	432.0	443.2	382.4	326.4	336.3	456.8	258.1	125.3	108.8	156.6	263.4	 1520	 3785	 1360	47.13	9.011	7.486	6.902	6.648	5.918	6.040	4.861	5.731	4.859	4.444	3.194	3.729	3.903	3.629	4.013	3.912	3.424	3.700	3.297	3.096	3.552	3.589	3.038	2.624	3.904	3.902	4.277	4.159	4.227	4.721	4.547	4.452	3.762	3.939	3.458	3.114	3.285	3.828	3.398	3.376	3.857	2.986	3.551	3.167	3.642	3.264	3.373	3.372	3.304	4.249
345.0	246.9	356.1	560.0	747.4	894.9	955.5	971.8	855.3	721.6	654.6	494.3	482.3	425.9	437.9	391.8	324.4	293.4	380.5	396.3	175.0	110.9	103.6	109.1	402.1	 2155	 3587	275.4	19.93	8.376	7.698	7.150	5.159	5.490	6.300	5.028	3.969	3.733	3.991	4.222	4.153	4.461	4.010	3.997	3.394	3.738	3.532	3.456	3.245	3.917	3.288	3.242	3.659	4.150	5.043	4.403	5.109	4.881	4.992	4.394	3.923	4.348	3.693	3.328	3.773	3.856	3.447	4.119	3.526	3.486	3.332	3.616	3.696	3.852	3.794	3.074	3.564	3.936
350.0	305.3	408.2	589.2	839.7	 1028	 1098	 1145	 1012	859.0	736.5	552.2	471.3	431.3	436.8	415.7	349.5	310.9	298.4	369.4	340.3	182.7	119.1	97.05	147.3	565.0	 1887	 2355	 1055	83.99	8.844	7.509	6.184	6.388	5.394	4.762	4.317	4.229	4.463	4.087	4.400	4.393	3.670	3.646	3.527	3.494	3.750	3.371	3.422	3.521	3.380	3.649	3.903	4.672	4.966	4.941	5.356	5.131	5.046	4.802	4.145	4.542	3.969	3.834	4.037	3.353	3.558	3.565	3.635	3.564	3.475	3.759	3.820	3.594	3.687	3.088	3.772	3.788
355.0	280.5	426.1	619.5	950.9	 1073	 1261	 1309	 1093	940.9	801.0	620.3	502.8	455.4	451.8	420.1	377.1	328.8	308.3	297.7	351.7	343.8	178.4	125.0	108.2	186.2	466.4	 1022	 3084	 1555	79.75	7.355	6.585	5.619	5.336	4.733	3.464	4.002	4.267	4.105	4.653	3.995	3.898	3.789	3.565	3.530	3.412	3.095	3.722	3.493	3.180	3.679	4.488	4.574	5.372	4.868	5.128	5.092	5.534	4.844	4.983	4.609	5.022	4.172	4.279	3.515	3.836	3.433	3.423	3.638	3.679	4.203	3.825	3.461	3.244	3.466	3.674	3.083
360.0	272.6	418.0	621.9	960.5	 1117	 1311	 1414	 1177	980.2	827.0	631.0	499.6	446.1	443.8	437.4	381.3	348.8	316.3	297.9	306.7	391.0	281.2	158.2	126.9	117.0	159.8	278.9	 1538	 3331	 1124	33.02	8.216	6.349	5.823	5.056	3.909	4.065	3.961	4.100	3.981	3.806	3.341	3.777	3.908	4.221	3.497	3.405	3.304	3.616	3.222	3.867	4.882	4.959	5.903	4.847	5.292	5.787	5.397	5.178	5.055	4.700	4.277	4.839	4.133	3.948	3.847	3.670	3.458	3.498	3.961	4.112	4.209	3.762	3.126	3.605	3.715	3.784
365.0	247.0	427.6	636.2	919.7	 1144	 1335	 1394	 1216	 1010	856.1	615.5	467.1	463.2	446.4	432.6	396.6	363.4	339.1	315.1	291.9	341.3	380.4	229.9	149.9	120.6	105.2	114.9	413.1	 2019	 3183	236.4	14.31	7.324	6.714	5.702	4.800	4.657	4.044	4.094	4.398	4.068	3.622	3.370	5.122	3.699	3.758	3.321	2.617	3.461	3.392	3.615	4.575	4.848	5.037	5.363	5.052	5.644	5.637	5.140	4.512	4.869	4.189	4.277	3.852	3.960	3.717	3.656	4.197	3.863	4.037	4.290	4.372	3.583	4.025	3.894	3.708	3.208
370.0	253.4	421.2	643.6	919.2	 1189	 1334	 1379	 1239	985.4	843.9	633.1	511.7	451.2	450.5	435.2	407.5	378.9	372.1	343.8	327.2	314.2	362.3	352.4	231.8	153.2	119.1	97.35	143.0	534.4	 1767	 2154	905.3	66.16	6.807	5.759	5.330	4.777	4.930	4.023	3.693	3.901	3.957	3.856	4.550	3.980	3.824	3.825	3.718	3.243	3.240	3.880	4.400	4.759	5.363	5.204	5.381	4.937	5.478	4.984	4.402	4.871	4.549	4.054	4.255	3.631	3.545	3.600	3.850	3.696	3.775	3.929	3.774	3.883	3.507	4.070	3.877	3.312
375.0	303.2	393.8	597.1	813.4	 1120	 1269	 1328	 1141	975.0	810.8	618.1	505.6	447.7	455.2	445.5	406.7	397.3	388.3	366.1	356.3	323.1	322.6	360.1	355.4	219.8	145.8	115.3	104.5	168.7	432.1	982.0	 2876	 1301	68.17	6.765	5.431	4.468	4.049	4.541	3.085	3.949	3.891	3.282	4.717	3.413	3.186	3.598	3.848	3.482	3.412	3.782	4.746	4.490	5.470	5.235	5.192	5.356	4.971	5.285	4.774	4.372	5.234	4.357	4.661	3.798	4.180	3.859	3.887	3.865	3.463	3.552	3.761	3.895	4.157	3.808	3.411	3.839
380.0	291.1	402.7	564.0	786.3	 1045	 1164	 1257	 1082	874.1	791.5	595.5	487.5	469.9	455.8	453.0	425.7	402.4	392.2	389.3	368.8	349.7	335.7	336.6	388.7	311.6	185.3	138.9	108.6	97.53	141.5	258.8	 1493	 2992	935.9	27.83	5.868	5.295	4.470	3.935	3.765	4.118	3.646	3.838	4.697	2.866	3.699	3.291	3.464	3.470	3.475	3.443	4.458	5.009	4.634	5.115	5.244	4.991	4.734	5.096	4.427	4.382	3.983	3.960	3.943	4.038	3.710	3.580	3.935	3.563	3.778	3.741	3.806	3.895	3.537	3.838	3.298	3.750
385.0	248.6	390.3	538.2	769.1	984.2	 1112	 1152	 1076	883.4	776.0	603.4	492.5	448.6	455.8	438.5	419.1	404.6	400.2	399.3	387.7	372.3	351.4	332.8	348.7	377.8	245.4	161.6	126.3	101.1	84.84	97.69	396.3	 1892	 2714	184.7	11.09	6.055	4.913	4.257	4.353	3.691	3.883	4.680	4.063	3.498	4.513	3.396	3.331	3.375	3.576	3.475	4.719	4.648	4.944	4.780	5.151	4.713	4.748	4.598	4.475	4.401	4.092	4.270	3.661	4.051	3.292	3.444	3.495	4.066	3.894	3.598	3.451	3.714	3.770	3.606	3.854	4.164
390.0	255.3	344.3	515.0	753.6	875.0	 1051	 1032	950.6	787.9	701.0	561.3	473.2	438.5	441.9	437.3	415.5	415.4	402.2	404.0	394.6	393.3	359.3	347.3	333.3	347.7	340.2	229.0	159.0	121.7	93.23	78.75	126.0	500.9	 1525	 1721	689.4	54.41	5.861	5.103	4.837	3.520	4.147	3.727	3.796	3.455	4.002	3.853	3.320	3.475	3.112	3.450	4.411	4.086	4.889	5.125	4.909	4.723	5.079	4.554	4.293	4.419	4.848	4.142	3.402	3.450	3.206	3.472	3.390	3.653	3.575	3.592	3.455	3.636	4.014	3.676	4.030	3.802
395.0	239.0	306.0	497.3	680.2	798.3	915.1	926.3	887.8	730.7	688.8	510.6	452.0	430.8	436.1	438.1	410.9	402.8	395.5	401.9	404.8	409.6	379.8	367.6	341.8	318.3	333.0	321.1	217.6	151.5	115.2	89.17	84.85	149.7	369.7	807.0	 2259	 1027	57.48	5.596	5.106	4.573	4.025	3.802	3.263	4.096	3.746	3.695	3.367	3.261	3.185	3.258	3.823	3.828	4.653	4.845	4.802	4.609	5.196	4.318	4.160	4.100	4.457	3.927	3.456	3.344	3.528	3.988	3.772	4.116	3.505	3.366	3.111	4.503	3.701	3.905	4.361	3.826
400.0	244.4	332.7	451.7	598.2	694.8	838.9	884.4	818.4	691.5	634.7	492.6	442.2	425.8	440.5	419.7	402.1	406.3	401.7	405.9	405.7	405.3	383.5	366.1	349.9	328.4	311.8	335.1	288.8	181.3	139.4	108.5	81.96	83.11	115.8	212.7	 1147	 2317	760.5	24.62	5.575	4.514	5.052	3.563	3.125	3.545	3.187	3.509	3.385	3.341	2.966	2.852	3.977	3.673	4.375	4.126	4.214	4.417	4.422	4.589	3.981	3.650	4.179	3.779	3.606	3.193	3.509	4.204	3.532	3.482	3.834	3.718	3.210	3.811	3.515	3.409	4.013	3.464
