Sample:	'1
File name:	T2025032007º«µêºÓ7.FD3
Run date:	'10:04:11, 03/21/2025
Operator:	Administrator
Comment:	'

Instrument
Model:	F-2700 FL Spectrophotometer
Serial number:	23B8-004
ROM Version:	4J14000 07

Instrument parameters
Measurement type:	3-D scan
Data mode:	Fluorescence
EX  Start WL:	220.0 nm
EX  End WL:	600.0 nm
EX Sampling interval:	5.0 nm
EM  Start WL:	230.0 nm
EM  End WL:	650.0 nm
EM Sampling interval:	5.0 nm
Scan speed:	12000 nm/min
EX Slit:	5.0 nm
EM Slit:	5.0 nm
PMT Voltage:	700 V
Response:	Auto 
Corrected spectra:	Off
Contour interval:	50.000

Peak integration
Integration method:	Rectangular
Sensitivity:	1
Threshold:	1.000

Peaks
No.	ApexEX/EM(nm)	Height(Data)
1	225.0/615.0	38.28
2	225.0/640.0	42.55
3	230.0/340.0	1369
4	230.0/500.0	238.6
5	230.0/570.0	33.11
6	230.0/635.0	41.12
7	235.0/510.0	227.2
8	240.0/265.0	407.8
9	240.0/525.0	213.4
10	245.0/270.0	413.6
11	245.0/535.0	187.3
12	250.0/275.0	529.5
13	250.0/440.0	519.7
14	250.0/550.0	153.6
15	255.0/280.0	609.3
16	255.0/560.0	137.0
17	260.0/290.0	570.3
18	260.0/575.0	115.3
19	265.0/585.0	101.4
20	270.0/600.0	92.38
21	275.0/615.0	117.8
22	280.0/315.0	1687
23	280.0/385.0	601.5
24	280.0/625.0	104.5
25	285.0/320.0	1652
26	285.0/635.0	85.18
27	315.0/355.0	358.1
28	320.0/360.0	334.7
29	325.0/370.0	297.7
30	330.0/375.0	299.8
31	335.0/380.0	324.4
32	345.0/395.0	275.0
33	350.0/400.0	306.8
34	355.0/405.0	298.7
35	365.0/420.0	210.5
36	370.0/405.0	179.9
37	370.0/425.0	197.5
38	395.0/460.0	78.71
39	410.0/480.0	45.18
40	415.0/485.0	40.49
41	430.0/505.0	25.42
42	455.0/540.0	11.22
43	475.0/340.0	4.394
44	485.0/265.0	2.199
45	495.0/270.0	2.157
46	505.0/275.0	3.318
47	510.0/280.0	3.772
48	520.0/285.0	3.848
49	530.0/290.0	3.521
50	555.0/305.0	8.080
51	560.0/310.0	8.823
52	570.0/315.0	9.038
53	580.0/320.0	8.933
54	585.0/325.0	8.820

Data points
	220.0	225.0	230.0	235.0	240.0	245.0	250.0	255.0	260.0	265.0	270.0	275.0	280.0	285.0	290.0	295.0	300.0	305.0	310.0	315.0	320.0	325.0	330.0	335.0	340.0	345.0	350.0	355.0	360.0	365.0	370.0	375.0	380.0	385.0	390.0	395.0	400.0	405.0	410.0	415.0	420.0	425.0	430.0	435.0	440.0	445.0	450.0	455.0	460.0	465.0	470.0	475.0	480.0	485.0	490.0	495.0	500.0	505.0	510.0	515.0	520.0	525.0	530.0	535.0	540.0	545.0	550.0	555.0	560.0	565.0	570.0	575.0	580.0	585.0	590.0	595.0	600.0
230.0	29.20	548.2	1268	395.8	16.23	4.057	3.312	2.920	2.439	2.204	2.212	1.938	1.678	1.552	1.225	1.138	0.809	0.766	0.649	0.567	0.613	0.585	0.489	0.477	0.413	0.407	0.344	0.343	0.387	0.348	0.321	0.297	0.272	0.280	0.234	0.223	0.218	0.180	0.180	0.192	0.230	0.251	0.258	0.197	0.155	0.185	0.683	2.535	4.332	3.163	1.142	0.270	0.127	0.122	0.131	0.132	0.126	0.140	0.139	0.135	0.134	0.118	0.127	0.124	0.138	0.132	0.133	0.144	0.147	0.122	0.123	0.130	0.154	0.171	0.138	0.141	0.153
235.0	66.19	164.5	979.9	1678	439.0	25.90	4.429	3.533	2.948	2.413	2.216	1.932	1.953	1.602	1.594	1.108	0.953	0.739	0.698	0.576	0.665	0.508	0.494	0.359	0.426	0.421	0.331	0.408	0.337	0.375	0.355	0.289	0.241	0.266	0.194	0.232	0.201	0.258	0.206	0.167	0.179	0.197	0.263	0.337	0.319	0.226	0.285	0.751	1.947	3.606	5.503	5.786	2.513	0.544	0.156	0.143	0.126	0.140	0.141	0.131	0.113	0.128	0.120	0.142	0.142	0.124	0.131	0.123	0.121	0.135	0.131	0.123	0.130	0.125	0.201	0.133	0.135
240.0	116.5	112.4	320.0	1636	1934	356.9	13.81	3.989	3.454	2.848	2.682	2.140	1.885	1.751	1.624	1.169	1.025	0.962	0.752	0.642	0.623	0.462	0.526	0.417	0.431	0.403	0.336	0.510	0.293	0.333	0.314	0.312	0.288	0.244	0.214	0.190	0.209	0.211	0.252	0.176	0.213	0.198	0.204	0.273	0.423	0.439	0.353	0.337	0.632	1.232	3.181	7.727	9.515	6.464	2.145	0.308	0.172	0.139	0.135	0.149	0.120	0.130	0.149	0.133	0.152	0.150	0.135	0.137	0.133	0.136	0.124	0.155	0.137	0.179	0.159	0.173	0.131
245.0	99.05	176.0	131.4	588.1	2289	2150	249.7	7.797	3.980	3.505	2.721	2.633	1.951	1.694	1.610	1.442	1.142	0.938	1.040	0.678	0.601	0.560	0.572	0.499	0.424	0.397	0.370	0.423	0.307	0.404	0.340	0.272	0.262	0.260	0.256	0.179	0.192	0.265	0.253	0.199	0.223	0.223	0.212	0.231	0.315	0.520	0.679	0.607	0.318	0.415	0.849	2.896	7.051	11.80	10.93	5.944	1.441	0.246	0.172	0.162	0.179	0.158	0.180	0.155	0.127	0.135	0.130	0.129	0.142	0.155	0.134	0.127	0.148	0.134	0.153	0.234	0.117
250.0	40.22	141.7	234.7	217.9	776.3	2406	2611	867.3	44.48	4.632	3.361	2.801	2.687	2.017	1.816	1.524	1.262	0.979	0.921	0.730	0.627	0.534	0.523	0.487	0.427	0.484	0.394	0.380	0.416	0.339	0.371	0.327	0.316	0.294	0.257	0.210	0.198	0.241	0.203	0.193	0.173	0.224	0.211	0.185	0.209	0.281	0.426	0.707	0.830	0.743	0.548	0.851	1.850	3.879	7.327	11.03	13.85	12.10	6.338	1.709	0.252	0.182	0.163	0.154	0.161	0.142	0.147	0.140	0.130	0.175	0.170	0.133	0.156	0.185	0.137	0.160	0.167
255.0	24.14	46.84	182.4	329.3	263.4	626.6	2188	4096	1189	37.67	4.541	3.669	3.533	3.038	1.708	1.604	1.194	1.170	0.790	0.756	0.619	0.683	0.656	0.568	0.438	0.447	0.532	0.468	0.414	0.404	0.397	0.360	0.343	0.340	0.235	0.279	0.217	0.231	0.209	0.221	0.247	0.221	0.195	0.221	0.233	0.235	0.215	0.301	0.403	0.947	1.270	1.209	0.786	1.034	1.819	2.746	5.200	12.89	21.66	20.78	9.380	1.663	0.217	0.169	0.186	0.154	0.178	0.168	0.146	0.175	0.144	0.115	0.132	0.160	0.181	0.132	0.165
260.0	20.48	23.15	70.75	291.2	323.9	194.3	674.8	3491	4405	245.5	19.10	6.139	4.355	3.219	1.943	1.667	1.299	1.265	0.956	0.837	0.784	0.631	0.653	0.592	0.460	0.499	0.526	0.472	0.377	0.397	0.458	0.280	0.372	0.324	0.284	0.277	0.244	0.259	0.227	0.181	0.265	0.246	0.240	0.213	0.169	0.234	0.176	0.210	0.274	0.419	0.872	1.631	1.545	0.925	0.659	0.792	1.389	3.544	9.443	20.97	27.90	20.30	6.792	0.894	0.186	0.169	0.157	0.175	0.173	0.177	0.158	0.155	0.149	0.155	0.180	0.147	0.153
265.0	21.24	19.87	26.52	141.1	407.8	242.6	188.4	1199	4790	4157	190.6	10.27	5.339	3.766	2.542	2.042	1.681	1.273	1.138	0.997	0.857	0.701	0.648	0.640	0.545	0.500	0.424	0.538	0.416	0.434	0.337	0.352	0.406	0.342	0.330	0.267	0.254	0.228	0.217	0.223	0.284	0.235	0.223	0.226	0.219	0.205	0.203	0.188	0.206	0.192	0.324	0.829	1.710	2.199	1.437	0.630	0.487	1.018	2.466	6.294	15.37	28.15	29.82	17.54	3.988	0.355	0.206	0.178	0.227	0.194	0.172	0.163	0.201	0.150	0.156	0.154	0.153
270.0	29.75	22.57	22.30	47.75	201.8	413.6	279.9	319.1	1531	4312	4150	754.4	39.24	5.412	3.510	2.601	2.083	1.452	1.271	1.073	0.827	0.801	0.657	0.710	0.682	0.611	0.452	0.573	0.437	0.485	0.443	0.409	0.468	0.354	0.330	0.332	0.324	0.272	0.266	0.209	0.237	0.208	0.261	0.258	0.206	0.225	0.217	0.225	0.186	0.197	0.221	0.363	0.633	1.166	1.843	2.157	1.846	1.044	0.919	1.690	3.796	8.188	15.11	24.26	27.20	25.27	12.70	3.638	0.503	0.219	0.196	0.191	0.210	0.189	0.150	0.155	0.186
275.0	61.08	55.40	43.25	37.02	70.38	196.1	529.5	323.8	390.4	1086	3468	7224	1039	35.71	5.444	3.816	2.710	1.851	1.609	1.327	0.932	0.823	0.741	0.742	0.613	0.561	0.666	0.549	0.393	0.501	0.508	0.512	0.454	0.391	0.405	0.420	0.309	0.339	0.289	0.261	0.232	0.249	0.321	0.318	0.314	0.299	0.333	0.240	0.276	0.244	0.218	0.234	0.309	0.441	0.691	1.081	2.333	3.318	2.422	1.052	1.143	2.154	3.696	5.855	8.210	18.53	36.44	31.36	19.62	3.800	0.365	0.278	0.271	0.192	0.145	0.188	0.157
280.0	97.77	97.45	67.56	46.79	44.66	82.66	339.0	609.3	252.2	307.3	1016	5425	6856	717.6	17.13	5.096	3.395	2.566	1.878	1.435	1.155	1.051	0.829	0.903	0.678	0.730	0.697	0.574	0.510	0.536	0.411	0.477	0.458	0.456	0.460	0.459	0.465	0.400	0.372	0.303	0.292	0.297	0.401	0.360	0.407	0.401	0.429	0.407	0.364	0.301	0.267	0.239	0.265	0.305	0.394	0.465	0.985	2.233	3.772	3.128	1.457	0.974	1.248	1.699	2.248	4.826	12.40	26.75	43.49	29.67	14.41	1.893	0.325	0.217	0.205	0.252	0.215
285.0	135.6	149.9	107.4	64.18	46.34	58.61	144.1	535.1	546.8	192.1	319.4	1634	6560	5716	114.3	8.417	4.591	3.208	2.303	1.791	1.535	1.296	0.990	0.936	0.794	0.643	0.704	0.669	0.544	0.447	0.407	0.468	0.565	0.545	0.521	0.495	0.500	0.415	0.451	0.393	0.312	0.357	0.438	0.428	0.425	0.450	0.419	0.477	0.418	0.372	0.356	0.336	0.321	0.307	0.370	0.376	0.448	0.896	1.881	3.443	3.848	2.071	1.010	0.930	1.005	1.669	3.333	7.050	17.02	34.09	46.87	25.83	8.290	0.805	0.255	0.255	0.198
290.0	180.8	195.6	166.5	99.49	66.63	63.09	89.09	232.4	570.3	517.4	238.7	490.9	1890	4888	5207	444.0	27.69	4.988	2.824	2.175	1.638	1.307	1.176	1.027	0.768	0.760	0.774	0.672	0.583	0.514	0.457	0.485	0.533	0.611	0.528	0.572	0.492	0.503	0.499	0.436	0.409	0.462	0.437	0.453	0.533	0.584	0.557	0.589	0.616	0.490	0.433	0.447	0.436	0.382	0.311	0.371	0.464	0.586	0.822	1.377	2.281	3.188	3.521	2.585	1.527	1.104	1.364	2.304	4.457	9.019	17.26	25.92	28.20	31.03	17.01	7.229	1.066
295.0	217.7	246.2	224.7	146.9	104.2	90.53	108.8	158.5	288.9	660.9	718.1	294.9	566.3	1228	3092	6259	652.6	30.29	4.969	2.882	2.362	1.670	1.357	1.222	0.873	0.790	0.800	0.741	0.632	0.551	0.644	0.570	0.466	0.506	0.643	0.659	0.571	0.470	0.591	0.490	0.423	0.446	0.493	0.495	0.642	0.695	0.760	0.864	0.762	0.659	0.559	0.583	0.504	0.515	0.486	0.499	0.519	0.624	0.772	0.943	1.107	1.416	2.231	3.675	4.847	3.165	1.668	1.524	1.770	2.957	4.507	6.476	7.499	14.59	30.28	45.51	26.63
300.0	254.8	321.1	294.4	221.4	163.7	158.8	203.0	247.6	310.5	570.6	1105	760.2	486.7	529.0	971.8	4281	5489	503.0	17.02	4.243	3.226	2.183	1.674	1.273	1.293	1.082	0.863	0.828	0.717	0.625	0.658	0.605	0.496	0.598	0.705	0.691	0.611	0.570	0.508	0.448	0.474	0.507	0.482	0.631	0.668	0.817	0.913	1.009	0.960	0.869	0.799	0.674	0.698	0.643	0.768	0.684	0.819	0.935	1.285	1.292	1.407	1.672	2.089	2.835	4.421	5.793	5.149	3.101	2.538	2.525	2.598	2.789	3.171	4.588	9.388	23.14	40.56
305.0	330.3	423.8	423.9	332.7	265.5	288.8	382.8	487.8	621.7	848.1	1286	1575	1001	714.8	712.3	1500	5192	4588	76.38	8.459	3.760	2.606	2.033	1.902	1.369	1.165	1.077	0.777	0.900	0.845	0.769	0.585	0.684	0.695	0.725	0.727	0.758	0.665	0.550	0.492	0.544	0.664	0.552	0.782	0.905	1.059	1.202	1.295	1.385	1.223	1.170	1.083	1.209	1.077	1.341	1.214	1.528	1.811	2.072	2.308	2.482	2.768	3.491	4.094	4.752	6.043	7.551	8.080	6.307	4.675	3.957	3.617	3.767	4.042	4.771	7.626	14.79
310.0	411.8	554.4	613.3	477.6	397.8	408.6	530.2	674.7	813.9	1049	1308	1666	1684	1086	835.9	824.9	1834	3900	4119	1120	20.95	3.953	2.753	1.962	1.572	1.356	1.138	1.005	0.886	0.785	0.778	0.703	0.688	0.631	0.734	0.724	0.701	0.710	0.665	0.640	0.654	0.705	0.694	0.819	1.013	1.206	1.470	1.634	1.921	1.741	1.473	1.658	1.520	1.508	1.670	1.716	2.178	2.639	2.815	3.203	3.386	3.755	4.506	4.827	5.288	6.080	6.777	8.013	8.823	8.311	6.896	5.461	4.921	4.892	4.473	4.688	5.891
315.0	489.7	723.5	781.5	617.7	502.3	507.1	636.2	770.3	897.3	1135	1354	1556	1687	1624	1042	750.1	921.6	1182	2345	5073	493.6	19.73	3.715	2.661	1.977	1.533	1.370	1.247	0.893	1.018	0.820	0.690	0.701	0.827	0.642	0.694	0.709	0.798	0.782	0.743	0.714	0.703	0.775	0.905	1.209	1.532	1.866	2.137	2.423	2.177	1.886	2.177	1.905	2.025	2.217	2.047	2.546	3.031	3.352	3.507	3.794	4.277	4.664	5.233	5.760	6.248	6.659	7.157	7.791	8.221	9.038	8.500	7.091	5.650	4.770	4.278	4.472
320.0	549.0	862.5	917.6	717.9	574.6	551.4	674.2	816.4	944.6	1147	1365	1565	1573	1652	1359	794.3	740.5	575.5	665.8	3223	4073	388.2	9.131	3.603	2.631	1.953	1.521	1.165	1.171	1.021	0.938	0.886	0.695	0.964	0.747	0.727	0.829	0.684	0.753	0.721	0.760	0.729	0.869	1.015	1.346	1.654	2.036	2.764	2.683	2.485	2.100	2.366	2.208	2.307	2.356	2.279	2.589	3.319	3.451	3.603	3.733	4.195	5.018	5.512	5.673	6.053	6.835	7.296	7.809	7.221	7.804	8.692	8.933	7.622	5.380	4.414	4.255
325.0	592.8	938.9	1005	824.8	614.1	553.6	655.5	792.3	877.9	1081	1283	1478	1448	1414	1439	915.9	671.9	432.4	243.5	915.0	3714	3433	58.02	5.944	3.325	2.164	1.735	1.420	1.262	1.193	1.034	0.875	0.804	0.836	0.846	0.773	0.808	0.763	0.782	0.733	0.661	0.764	0.912	1.057	1.410	1.808	2.256	2.985	3.134	2.751	2.500	2.585	2.364	2.107	2.228	2.284	2.691	3.018	3.584	3.719	3.641	4.146	4.559	5.106	5.324	5.684	6.380	6.830	7.089	6.913	7.077	7.405	8.005	8.820	7.271	5.063	4.205
330.0	612.9	1006	1226	1093	790.2	603.7	612.8	723.1	793.8	963.5	1157	1316	1311	1206	1149	1008	745.7	392.2	174.8	271.9	1050	2850	3256	904.3	16.71	3.214	2.264	1.629	1.405	1.223	1.054	0.946	0.911	0.816	0.744	0.777	0.775	0.719	0.730	0.741	0.744	0.745	0.910	1.045	1.453	1.836	2.417	3.237	3.493	3.356	3.170	3.557	3.002	2.715	2.476	2.215	2.461	2.734	3.124	3.308	3.412	3.729	4.134	4.542	4.963	5.304	5.737	6.184	6.511	6.183	6.399	6.228	6.238	6.619	6.201	6.181	5.286
335.0	599.1	1057	1348	1280	1002	659.6	565.4	650.5	699.7	850.7	1007	1143	1158	1058	928.3	801.4	850.2	476.3	184.5	151.2	298.0	705.0	1981	4114	406.4	15.96	3.284	2.019	1.645	1.712	1.187	0.977	0.895	0.811	0.843	0.781	0.696	0.670	0.683	0.651	0.770	0.797	0.920	1.073	1.333	1.897	2.404	3.427	3.802	3.802	3.836	4.360	3.801	3.533	2.770	2.336	2.275	2.616	2.863	3.015	3.127	3.259	3.605	4.109	4.351	4.557	5.039	5.210	5.703	5.735	5.779	5.338	5.278	5.353	4.794	4.702	4.835
340.0	598.2	1013	1369	1292	1039	663.3	531.2	585.2	628.0	746.1	881.8	1005	1025	938.8	816.7	655.7	697.2	594.3	231.9	135.7	143.2	215.0	546.0	2786	3318	322.9	7.110	2.702	1.976	1.701	1.360	1.112	0.885	0.835	0.747	0.726	0.702	0.713	0.692	0.625	0.681	0.712	0.768	1.007	1.390	1.862	2.452	3.083	3.690	3.964	3.883	4.394	3.956	3.553	2.834	2.207	2.263	2.372	2.545	2.572	2.899	2.880	3.199	3.572	3.566	3.917	4.504	4.878	5.074	5.145	5.112	4.626	4.896	4.516	4.121	3.644	3.822
345.0	541.9	968.8	1304	1297	1040	656.8	504.7	525.5	574.4	659.2	779.1	881.6	905.3	838.6	715.4	575.2	532.5	562.7	352.6	150.8	117.8	116.6	174.9	803.4	3202	2819	49.61	4.310	2.423	1.951	1.428	1.145	0.942	0.889	0.845	0.808	0.738	0.633	0.684	0.592	0.680	0.580	0.716	1.097	1.291	1.663	2.210	3.023	3.419	3.871	3.862	4.347	4.152	3.524	2.891	2.108	2.025	2.101	2.357	2.314	2.460	2.783	2.960	2.958	3.482	3.219	3.842	4.093	4.189	4.870	4.371	4.174	4.191	3.891	3.503	3.211	3.215
350.0	486.1	836.5	1197	1261	1066	670.4	480.9	486.2	515.3	592.5	676.6	757.2	765.9	723.4	626.4	508.3	440.1	400.1	400.7	276.8	142.1	110.4	107.1	223.2	924.1	2425	2542	218.1	13.48	2.407	1.699	1.326	1.042	0.912	0.827	0.774	0.719	0.620	0.687	0.542	0.629	0.629	0.683	0.859	1.221	1.641	1.899	2.890	3.176	3.541	3.755	4.388	4.047	3.827	2.898	2.228	2.023	1.989	2.212	2.212	2.239	2.385	2.638	2.882	2.964	3.122	3.372	3.512	3.552	3.718	3.728	3.916	3.633	3.567	3.213	2.897	2.905
355.0	433.9	720.3	1020	1155	1002	673.0	482.1	468.4	482.4	525.9	587.7	647.3	653.0	621.7	549.2	453.7	391.1	326.0	293.7	358.1	243.6	126.9	104.2	107.5	242.7	585.6	1671	3054	353.8	11.11	2.698	1.715	1.288	0.897	0.888	0.718	0.662	0.601	0.661	0.619	0.565	0.598	0.749	0.905	1.150	1.459	1.792	2.314	2.816	3.044	3.405	4.104	3.505	3.947	2.872	2.037	1.933	1.916	2.221	2.059	2.148	2.208	2.451	2.592	2.736	2.889	2.753	2.975	3.143	3.074	3.284	3.249	3.159	2.935	2.835	2.859	2.549
360.0	384.8	645.4	935.0	1062	946.4	653.5	473.7	460.4	469.3	501.9	541.2	587.5	591.3	560.9	494.9	421.7	367.2	299.8	254.1	293.1	334.7	181.4	117.0	90.72	100.9	163.6	457.9	2312	2756	263.5	5.220	2.290	1.443	1.159	0.949	0.804	0.739	0.690	0.640	0.695	0.581	0.535	0.669	0.818	1.037	1.354	1.624	2.017	2.733	2.598	3.043	3.740	3.518	3.496	2.782	2.123	1.993	2.063	1.985	2.035	2.159	1.975	2.270	2.395	2.474	2.673	2.657	2.728	2.766	2.738	2.745	2.935	2.926	2.778	2.681	2.657	2.530
365.0	346.7	569.6	850.2	980.3	906.5	647.8	471.2	457.4	452.1	489.0	517.8	537.1	543.5	514.4	461.0	396.7	351.1	296.3	249.3	240.9	314.5	275.6	143.3	99.18	79.59	78.16	132.2	696.2	2755	2254	44.32	4.003	2.183	1.388	1.119	0.856	0.723	0.732	0.681	0.627	0.599	0.604	0.610	0.712	1.009	1.152	1.420	2.035	2.437	2.469	2.876	3.467	3.188	3.484	2.812	2.225	1.925	1.934	2.091	2.149	2.113	2.056	1.910	2.363	2.351	2.399	2.453	2.522	2.518	2.784	2.661	2.766	2.454	2.750	2.563	2.533	2.392
370.0	320.6	535.2	775.6	901.2	860.8	643.0	480.3	452.5	450.1	480.4	498.4	510.5	514.0	489.2	434.8	377.8	339.9	297.1	255.8	233.9	245.5	297.7	246.0	137.0	97.45	78.61	81.33	195.6	829.0	2123	2158	192.9	14.07	3.002	1.494	1.015	0.826	0.787	0.683	0.611	0.558	0.610	0.688	0.797	0.882	1.013	1.284	1.859	2.102	2.259	2.576	3.162	3.009	3.415	2.693	2.104	1.925	2.004	1.833	2.062	2.049	2.132	2.101	2.261	2.277	2.268	2.311	2.393	2.417	2.494	2.527	2.508	2.377	2.525	2.404	2.297	2.402
375.0	301.1	467.6	715.1	827.7	852.7	672.2	500.6	463.0	470.5	491.9	509.8	518.8	553.2	494.3	412.0	367.2	334.7	300.8	270.6	244.0	231.8	244.9	299.8	250.6	145.5	117.1	123.2	142.2	252.4	559.2	1614	2537	293.3	13.13	2.580	1.462	1.018	0.856	0.758	0.625	0.526	0.662	0.638	0.723	0.849	1.034	1.282	1.751	1.926	2.073	2.411	2.856	3.056	3.442	2.769	2.321	2.030	2.022	1.951	2.146	2.161	2.282	2.275	2.152	2.286	2.395	2.337	2.306	2.408	2.785	2.814	2.422	2.266	2.162	2.144	2.091	2.250
380.0	304.7	457.4	669.2	820.3	851.8	690.1	526.9	475.0	475.3	508.7	533.5	530.2	591.9	509.3	404.1	360.4	331.7	306.1	278.4	258.4	241.2	232.3	270.6	324.4	214.0	154.7	166.5	169.4	153.8	214.9	548.2	2093	2125	207.4	4.870	1.800	1.218	1.005	0.760	0.661	0.565	0.678	0.678	0.602	0.785	1.016	1.119	1.730	1.971	1.917	2.261	2.926	3.096	3.233	2.999	2.405	2.046	2.201	2.211	2.210	2.028	2.070	2.214	2.333	2.373	2.620	2.696	2.387	2.619	3.138	3.348	2.658	2.299	2.067	2.277	2.092	2.289
385.0	277.8	447.8	637.6	789.4	835.9	692.7	533.8	490.0	485.8	505.8	537.2	531.2	601.5	522.0	393.1	355.1	324.4	303.5	282.3	265.5	253.3	238.6	246.0	310.6	295.2	193.9	196.5	193.8	148.4	149.8	260.4	745.3	2198	1596	34.42	2.963	1.661	1.013	0.829	0.789	0.758	0.568	0.650	0.784	0.828	1.097	1.095	1.551	1.784	1.856	2.152	2.826	2.921	3.183	2.637	2.245	2.106	2.336	2.125	2.076	2.182	2.139	2.211	2.321	2.403	2.679	2.585	2.400	2.530	3.102	3.140	2.808	2.269	2.183	2.177	2.068	2.228
390.0	258.3	407.3	582.1	712.8	760.0	654.2	522.3	481.9	471.9	481.6	511.0	500.8	550.2	481.9	379.4	340.3	320.4	301.2	284.5	268.8	257.4	241.7	237.3	253.5	285.9	257.2	207.3	185.8	138.7	128.3	171.6	270.3	680.6	1540	1439	148.6	7.788	1.549	1.076	0.880	0.793	0.704	0.727	0.675	0.786	0.929	1.060	1.398	1.624	1.800	1.879	2.414	2.649	3.024	2.596	2.332	2.289	2.182	2.168	1.934	2.118	2.132	2.171	2.267	2.233	2.459	2.369	2.336	2.407	2.750	2.852	2.441	2.115	2.108	2.120	2.036	2.062
395.0	249.4	398.8	540.6	661.0	721.2	633.3	522.6	486.5	467.7	473.4	495.1	479.6	520.4	461.9	364.8	327.5	312.6	301.1	280.5	271.7	260.8	245.1	241.0	239.9	237.7	275.0	269.1	201.4	145.3	128.3	156.5	163.4	197.3	383.2	1080	1685	226.8	5.615	1.411	0.976	0.862	0.728	0.782	0.679	0.773	0.994	0.981	1.369	1.413	1.599	1.839	2.290	2.635	2.716	2.561	2.324	2.246	2.118	2.157	1.922	2.207	1.963	2.074	2.255	2.447	2.299	2.164	2.291	2.258	2.652	2.817	2.271	2.100	1.862	1.997	2.181	2.045
400.0	250.7	374.3	526.3	634.7	679.5	619.3	519.2	485.2	464.8	468.2	491.6	480.3	517.7	451.2	358.4	325.2	310.9	293.4	281.1	271.3	264.7	251.2	247.1	244.8	231.1	245.0	306.8	249.4	165.6	145.7	167.8	155.2	96.03	109.1	304.1	1367	1431	35.85	2.730	1.201	1.026	0.836	0.754	0.712	0.856	0.973	1.073	1.265	1.421	1.655	1.833	2.338	2.450	2.508	2.540	2.124	2.313	2.108	2.190	2.066	2.024	2.051	2.028	2.170	2.276	2.447	2.005	2.100	2.246	2.639	2.661	2.195	2.168	2.005	1.895	1.950	1.822
405.0	244.8	364.1	502.0	620.5	654.6	606.4	523.4	484.3	471.1	469.7	487.9	476.4	513.2	444.3	354.3	317.2	303.3	290.1	277.7	267.8	265.6	252.3	251.3	249.3	235.9	228.0	290.3	298.7	187.6	157.8	179.9	159.6	79.86	50.81	84.07	420.7	1469	1074	29.03	1.852	1.215	0.885	0.742	0.856	0.746	0.962	0.978	1.285	1.549	1.547	1.630	2.172	2.280	2.443	2.366	2.254	2.359	2.017	2.124	1.966	2.075	2.186	2.218	2.057	2.252	2.306	2.163	1.873	2.135	2.492	2.660	2.167	1.998	2.055	1.825	1.870	1.914
410.0	231.1	332.7	469.0	575.1	622.9	582.9	507.9	477.3	466.8	453.3	461.3	446.3	470.4	411.7	338.6	303.3	290.0	280.4	272.2	258.9	254.1	245.6	243.1	242.0	226.3	215.8	236.7	268.2	227.2	165.1	162.2	141.2	73.69	42.36	38.32	107.8	437.0	1048	1023	134.5	6.493	1.067	0.910	0.818	0.775	0.919	0.948	1.247	1.457	1.446	1.494	1.972	2.079	2.214	2.329	2.135	2.281	2.078	1.996	2.031	2.069	2.068	2.081	2.054	2.197	2.248	2.137	2.032	2.150	2.321	2.450	2.146	2.043	2.009	1.743	1.832	1.846
