Sample:	'1
File name:	Default_20231029_111143.FD3
Run date:	'11:05:22, 10/29/2023
Operator:	user
Comment:	'

Instrument
Model:	F-2700 FL Spectrophotometer
Serial number:	2190-003
ROM Version:	4J14000 07

Instrument parameters
Measurement type:	3-D scan
Data mode:	Fluorescence
EX  Start WL:	220.0 nm
EX  End WL:	600.0 nm
EX Sampling interval:	5.0 nm
EM  Start WL:	230.0 nm
EM  End WL:	650.0 nm
EM Sampling interval:	5.0 nm
Scan speed:	12000 nm/min
EX Slit:	5.0 nm
EM Slit:	5.0 nm
PMT Voltage:	700 V
Response:	Auto 
Corrected spectra:	Off
Contour interval:	50.000

Peak integration
Integration method:	Rectangular
Sensitivity:	1
Threshold:	1.000

Peaks
No.	ApexEX/EM(nm)	Height(Data)
1	240.0/620.0	-42.18
2	245.0/265.0	105.4
3	250.0/365.0	 1339
4	250.0/545.0	37.20
5	250.0/625.0	-30.12
6	255.0/550.0	30.48
7	260.0/285.0	287.8
8	260.0/565.0	23.46
9	265.0/290.0	325.0
10	265.0/575.0	37.43
11	270.0/295.0	494.3
12	270.0/460.0	254.3
13	270.0/590.0	35.67
14	275.0/300.0	583.3
15	275.0/445.0	284.5
16	275.0/600.0	35.23
17	275.0/640.0	-4.218
18	280.0/310.0	580.3
19	280.0/615.0	33.24
20	285.0/235.0	-12.87
21	285.0/315.0	548.1
22	285.0/405.0	291.6
23	285.0/625.0	22.01
24	290.0/320.0	518.9
25	290.0/380.0	307.7
26	290.0/395.0	292.2
27	290.0/640.0	16.16
28	295.0/270.0	-7.283
29	295.0/385.0	295.6
30	295.0/460.0	188.2
31	300.0/335.0	337.6
32	300.0/395.0	289.0
33	305.0/265.0	-5.693
34	305.0/275.0	-4.304
35	305.0/340.0	362.8
36	310.0/345.0	322.0
37	315.0/240.0	-5.130
38	315.0/255.0	-4.726
39	315.0/355.0	275.0
40	320.0/360.0	310.6
41	320.0/415.0	253.5
42	325.0/260.0	-3.848
43	325.0/365.0	298.7
44	330.0/370.0	264.4
45	335.0/380.0	279.1
46	335.0/585.0	2.796
47	340.0/275.0	-2.645
48	340.0/385.0	278.5
49	345.0/390.0	247.0
50	350.0/400.0	237.5
51	350.0/590.0	1.365
52	355.0/305.0	-1.340
53	355.0/405.0	233.6
54	355.0/605.0	-0.243
55	360.0/245.0	-2.033
56	360.0/410.0	210.8
57	365.0/415.0	197.1
58	370.0/425.0	193.4
59	375.0/275.0	-1.469
60	375.0/430.0	164.6
61	380.0/435.0	153.6
62	385.0/445.0	138.9
63	390.0/450.0	119.3
64	395.0/455.0	104.3
65	405.0/470.0	72.14
66	415.0/485.0	51.32
67	420.0/490.0	44.36
68	425.0/320.0	0.092
69	435.0/510.0	24.56
70	440.0/515.0	21.72
71	445.0/525.0	18.23
72	450.0/530.0	15.19
73	455.0/295.0	0.363
74	455.0/540.0	12.51
75	470.0/560.0	6.091
76	475.0/565.0	5.193
77	485.0/385.0	2.622
78	490.0/380.0	2.952
79	495.0/360.0	3.469
80	535.0/295.0	0.523
81	555.0/310.0	0.683
82	575.0/320.0	0.394

Data points
	220.0	225.0	230.0	235.0	240.0	245.0	250.0	255.0	260.0	265.0	270.0	275.0	280.0	285.0	290.0	295.0	300.0	305.0	310.0	315.0	320.0	325.0	330.0	335.0	340.0	345.0	350.0	355.0	360.0	365.0	370.0	375.0	380.0	385.0	390.0	395.0	400.0	405.0	410.0	415.0	420.0	425.0	430.0	435.0	440.0	445.0	450.0	455.0	460.0	465.0	470.0	475.0	480.0	485.0	490.0	495.0	500.0	505.0	510.0	515.0	520.0	525.0	530.0	535.0	540.0	545.0	550.0	555.0	560.0	565.0	570.0	575.0	580.0	585.0	590.0	595.0	600.0
230.0	-130.6	-85.48	710.1	720.9	33.26	-47.61	-48.14	-42.81	-37.69	-30.02	-27.81	-23.15	-18.01	-15.14	-13.28	-9.847	-10.52	-9.136	-6.919	-6.883	-4.670	-4.991	-5.024	-4.746	-4.399	-4.280	-3.823	-4.089	-3.377	-3.213	-3.293	-2.765	-2.710	-2.669	-1.798	-1.508	-1.778	-1.532	-1.694	-1.594	-1.180	-1.651	-1.365	-1.207	-1.153	-0.723	-0.826	-0.385	0.752	1.844	0.623	-0.315	-0.535	-0.443	-0.726	-0.735	-0.862	-0.879	-1.212	-1.000	-0.963	-1.075	-1.215	-1.199	-1.082	-1.049	-1.301	-1.453	-1.302	-1.564	-1.337	-1.549	-1.666	-1.691	-1.406	-1.709	-1.755
235.0	-137.4	-100.7	189.5	973.7	 1062	113.1	-48.02	-39.80	-36.62	-28.96	-22.07	-21.71	-16.76	-12.87	-15.29	-10.28	-9.623	-7.316	-6.892	-6.183	-5.222	-4.526	-4.864	-4.520	-3.194	-3.707	-4.370	-3.113	-3.899	-3.020	-3.546	-3.229	-2.536	-3.196	-2.176	-1.097	-1.275	-1.014	-1.407	-1.378	-1.555	-1.501	-1.378	-1.190	-0.771	-0.647	-0.550	-0.641	-0.343	1.163	1.835	2.532	1.524	-0.315	-0.656	-1.058	-0.780	-0.628	-0.886	-1.088	-0.878	-1.180	-1.023	-0.742	-1.127	-1.191	-1.659	-0.885	-1.358	-1.458	-1.362	-1.550	-1.620	-1.835	-1.747	-1.811	-1.687
240.0	-125.1	-107.0	-30.17	388.7	 1737	 1437	44.35	-45.94	-30.83	-30.95	-29.19	-21.75	-18.60	-17.51	-13.76	-8.915	-8.230	-8.210	-8.480	-5.130	-5.935	-6.446	-4.509	-4.937	-4.130	-4.172	-4.222	-2.538	-3.606	-3.284	-4.078	-2.533	-2.544	-2.155	-2.024	-1.677	-1.302	-1.228	-1.473	-1.303	-1.654	-1.102	-1.434	-0.984	-1.247	-1.096	-1.145	-1.053	-0.237	0.377	0.696	2.367	4.137	3.362	0.231	-1.421	-0.603	-1.063	-0.768	-0.929	-0.839	-1.319	-1.243	-1.225	-1.357	-1.035	-1.314	-1.437	-1.660	-2.031	-1.725	-1.708	-1.459	-1.784	-1.909	-1.675	-1.544
245.0	-154.4	-87.44	-57.87	68.58	817.4	 2828	980.9	8.590	-28.59	-28.61	-27.07	-23.03	-18.20	-18.92	-12.95	-11.75	-8.906	-8.806	-8.690	-5.693	-6.259	-6.517	-5.044	-4.214	-4.407	-4.603	-3.450	-2.279	-2.033	-2.962	-3.461	-2.641	-1.968	-2.140	-2.339	-1.942	-1.985	-1.556	-1.270	-1.516	-1.145	-1.368	-1.273	-0.976	-1.265	-0.652	-1.192	-0.665	-0.183	-0.544	-0.707	0.253	2.059	4.194	5.122	1.654	0.015	-0.935	-0.802	-0.730	-1.013	-1.743	-1.379	-1.347	-1.396	-1.219	-1.412	-1.433	-1.707	-1.597	-1.490	-1.722	-1.481	-1.501	-1.624	-1.756	-1.677
250.0	-116.2	-104.9	-60.92	-7.137	165.7	 1182	 2263	 1704	270.0	-24.06	-28.90	-22.81	-17.79	-16.45	-13.62	-11.03	-8.306	-7.399	-7.140	-6.870	-5.445	-5.890	-4.487	-5.338	-4.356	-3.539	-4.326	-2.925	-2.494	-3.426	-3.588	-2.709	-2.187	-2.498	-1.931	-1.589	-1.478	-1.360	-1.867	-1.693	-1.159	-1.242	-1.503	-0.867	-1.043	-1.034	-0.904	-0.365	-0.442	-0.345	-0.676	-0.322	-0.336	0.329	2.152	3.888	5.361	4.391	2.288	-0.365	-0.602	-1.336	-1.428	-0.885	-1.131	-1.321	-1.626	-1.372	-1.635	-1.390	-1.507	-1.643	-1.782	-1.478	-1.481	-1.748	-1.448
255.0	-111.6	-102.6	-90.05	-25.24	58.50	240.1	695.2	 2894	 2245	311.4	-22.87	-22.08	-16.91	-13.85	-12.29	-10.87	-9.786	-6.551	-6.884	-4.726	-5.831	-5.640	-4.564	-4.118	-5.230	-5.201	-4.302	-2.857	-3.398	-3.165	-2.470	-2.705	-2.217	-2.104	-2.181	-1.648	-1.938	-1.460	-1.503	-1.691	-1.474	-1.079	-1.604	-0.715	-0.973	-1.237	-1.050	-0.895	-0.502	-0.473	-0.282	-0.214	-0.768	-0.524	-0.072	0.310	1.401	4.835	8.796	8.412	2.534	-0.977	-1.158	-0.813	-1.234	-1.420	-1.276	-1.345	-1.462	-1.778	-1.309	-1.547	-1.626	-1.758	-1.952	-2.143	-1.517
260.0	-133.6	-96.86	-100.7	-48.71	27.28	64.11	141.9	 1119	 4092	 1962	162.5	-21.59	-15.89	-11.23	-11.87	-10.37	-10.14	-7.099	-6.496	-5.720	-5.738	-3.848	-4.629	-4.927	-4.333	-4.292	-4.409	-3.195	-3.941	-2.628	-3.201	-3.002	-2.575	-2.703	-1.831	-1.274	-1.985	-1.875	-1.576	-1.487	-1.168	-1.508	-1.140	-1.153	-0.665	-0.906	-0.666	-1.056	-0.511	-0.316	-0.379	-0.418	-0.640	-0.537	-0.501	-0.414	-0.195	0.835	2.909	8.338	10.59	6.982	0.632	-1.070	-1.105	-1.309	-1.439	-1.462	-1.661	-1.335	-1.564	-1.279	-1.354	-2.006	-1.812	-1.739	-1.619
265.0	-131.5	-91.95	-76.69	-61.86	-1.992	105.4	19.07	236.2	 1918	 4848	 1545	54.88	-19.09	-11.22	-9.826	-7.756	-11.30	-5.693	-6.987	-6.107	-5.033	-5.139	-4.859	-5.307	-4.811	-4.610	-3.319	-3.704	-3.758	-3.153	-2.067	-2.582	-2.050	-2.152	-1.843	-1.937	-2.080	-1.374	-1.761	-1.575	-1.544	-1.481	-1.657	-0.877	-0.517	-0.896	-0.726	-0.804	-0.647	-0.173	-0.398	-0.527	-0.782	-0.437	-0.374	-0.592	-0.223	-0.376	0.661	1.813	5.763	11.45	11.28	4.865	-0.331	-0.737	-1.046	-1.319	-1.700	-1.543	-1.681	-1.386	-1.734	-1.788	-1.680	-1.625	-1.545
270.0	-126.6	-101.6	-79.91	-67.18	-35.39	24.37	97.03	73.12	433.4	 2006	 4314	 3267	372.9	-8.482	-10.55	-7.283	-9.326	-7.164	-6.404	-6.656	-4.299	-4.869	-4.085	-4.083	-3.209	-3.142	-2.872	-3.657	-3.566	-2.954	-2.234	-2.893	-1.716	-2.082	-2.063	-1.851	-1.606	-1.596	-2.137	-1.757	-1.113	-1.003	-1.280	-0.997	-0.436	-0.846	-0.444	-0.600	-0.528	-0.023	-0.271	-0.611	-0.449	-0.794	-0.488	-0.566	-0.130	-0.445	-0.452	-0.286	0.549	2.661	5.978	8.835	10.47	8.345	2.606	-0.364	-1.232	-1.120	-1.576	-1.596	-1.432	-1.779	-1.853	-1.687	-1.474
275.0	-119.9	-106.2	-85.51	-61.41	-53.77	-26.95	53.63	175.9	126.3	448.7	 1313	 5006	 5029	417.6	-4.355	-8.633	-7.433	-4.304	-4.842	-6.499	-5.303	-4.949	-3.930	-3.743	-2.645	-3.213	-3.115	-3.115	-3.262	-3.647	-2.957	-1.469	-2.489	-1.839	-1.410	-0.860	-1.575	-1.753	-1.679	-1.536	-1.606	-1.087	-0.946	-1.278	-0.994	-0.814	-0.395	-0.631	-0.278	0.113	0.062	-0.799	-0.847	-0.648	-0.271	-0.115	-0.721	0.283	-0.667	-0.767	-0.758	-0.069	1.013	0.625	3.352	9.433	15.91	13.64	3.806	-1.363	-1.396	-1.361	-1.482	-1.544	-1.493	-1.842	-1.325
280.0	-119.5	-119.2	-90.61	-69.52	-52.04	-21.71	1.175	178.4	200.1	129.0	341.7	 1898	 6634	 4128	168.3	-6.857	-3.947	-6.989	-4.075	-4.063	-5.908	-4.650	-4.647	-3.918	-3.812	-3.780	-3.643	-3.323	-3.179	-3.007	-2.926	-2.355	-2.625	-1.977	-1.682	-1.297	-0.983	-1.961	-2.069	-1.287	-1.649	-1.834	-1.452	-1.782	-1.078	-0.736	-0.236	-0.191	-0.799	0.139	-0.083	-0.772	-0.285	-0.440	-0.528	0.181	-0.754	-0.438	-0.177	0.506	-0.683	-0.658	-0.299	-0.470	0.194	1.674	6.953	16.24	21.40	9.362	0.995	-1.324	-1.714	-1.520	-1.477	-1.756	-1.461
285.0	-114.0	-94.98	-82.55	-57.11	-40.48	-28.13	10.56	67.85	287.8	160.1	128.9	515.8	 2919	 7476	945.5	45.24	-2.348	-6.450	-6.378	-4.878	-4.356	-3.234	-3.166	-4.272	-3.908	-3.331	-3.091	-2.704	-1.876	-2.518	-2.345	-2.262	-1.861	-1.793	-2.160	-1.003	-1.144	-1.439	-1.645	-1.090	-1.440	-1.391	-1.516	-1.264	-0.879	-0.676	-0.268	-0.371	-0.601	-0.067	0.090	-0.625	-0.310	-0.309	-0.258	0.195	-0.545	-0.351	-0.383	0.244	0.360	-0.823	-0.740	-0.820	-0.220	-0.358	0.573	4.556	12.31	20.87	16.15	5.352	-0.890	-1.219	-1.069	-1.850	-1.590
290.0	-117.1	-100.1	-53.04	-44.35	-21.65	-10.58	20.20	36.15	153.7	325.0	252.2	241.9	806.3	 3017	 5427	 3168	236.3	-2.607	-5.185	-4.586	-4.182	-3.623	-3.493	-4.007	-3.577	-2.727	-2.805	-2.812	-2.845	-2.666	-2.616	-2.437	-2.269	-1.977	-2.377	-1.559	-1.403	-1.166	-1.412	-1.386	-1.436	-1.430	-1.450	-1.298	-0.488	-0.603	-0.334	-0.373	-0.621	-0.191	-0.075	-0.548	-0.374	-0.699	-0.404	-0.565	-0.188	-0.506	-0.520	-0.230	0.165	-0.661	0.083	-0.606	-0.577	-0.775	-0.339	0.567	2.426	5.755	9.732	15.05	14.71	10.76	3.293	-0.721	-1.760
295.0	-110.3	-84.37	-44.68	-22.47	-21.72	17.62	30.93	53.69	75.34	194.5	494.3	344.6	354.3	767.8	 1637	 5687	 4505	274.9	-0.245	-1.384	-1.848	-2.871	-2.406	-2.303	-3.241	-3.337	-2.784	-2.728	-3.336	-3.599	-2.711	-2.541	-2.536	-2.258	-1.273	-2.076	-1.622	-1.430	-1.965	-1.654	-1.211	-1.177	-0.874	-0.522	-0.518	-0.942	-0.405	0.363	-0.246	-0.281	-0.360	-0.278	-0.248	-0.478	-0.469	-0.564	-0.509	-0.237	-0.559	0.078	-0.609	-0.898	-0.333	0.523	0.228	-0.538	-0.607	-0.320	-0.078	0.381	1.614	2.756	5.017	14.05	22.09	16.77	3.876
300.0	-93.05	-83.33	-26.85	-10.51	-9.442	18.65	45.45	55.37	72.72	145.5	388.1	583.3	314.7	292.7	431.0	 2109	 6975	 3420	123.2	0.909	0.468	-0.701	-2.385	-3.153	-2.724	-3.405	-2.666	-2.114	-2.688	-3.019	-2.595	-2.857	-1.878	-1.893	-1.423	-1.731	-1.805	-1.221	-1.424	-1.458	-0.771	-1.389	-0.473	-1.057	-1.393	-0.994	-0.648	-0.566	-0.180	0.086	-0.081	-0.502	-0.476	-0.386	-0.746	-0.629	-0.137	0.003	-0.518	-0.166	-0.264	-0.464	-0.716	0.191	0.145	0.124	-0.051	-0.416	-0.637	-0.894	-0.611	-0.258	-0.269	3.001	9.487	22.21	22.63
305.0	-95.63	-76.38	-30.50	-13.73	7.286	20.95	45.95	62.29	89.60	149.4	277.0	577.9	510.0	230.6	187.0	543.2	 3157	 7261	 2308	34.32	0.032	-1.864	-0.335	-2.757	-2.389	-2.718	-1.779	-1.340	-2.273	-2.714	-2.323	-2.538	-1.683	-2.237	-1.510	-1.466	-1.628	-1.284	-0.921	-1.701	-0.781	-1.366	-1.098	-1.108	-0.564	-0.924	-0.344	-0.726	-0.579	-0.005	-0.208	-0.625	-0.602	-0.558	-0.278	-0.612	-0.098	-0.125	-0.827	-0.295	-0.189	-0.730	-1.024	-0.747	0.428	0.408	0.091	0.564	-0.820	-0.631	-1.088	-1.189	-0.959	-0.069	1.042	6.309	15.87
310.0	-98.53	-57.51	-21.83	1.658	11.91	25.51	57.44	67.54	106.9	171.3	238.3	373.5	580.3	415.6	169.8	192.0	776.4	 3112	 5699	 2008	157.6	2.436	1.053	-1.692	-0.383	-2.139	-2.262	-2.531	-2.238	-2.261	-2.603	-1.860	-1.701	-2.326	-1.511	-1.297	-1.463	-1.235	-1.076	-1.259	-0.710	-0.853	-0.915	-1.011	-0.430	-1.143	-0.320	-0.557	-0.403	-0.309	-0.072	-0.639	-0.338	-0.543	-0.131	-0.319	-0.373	-0.091	-0.417	-0.129	-0.555	-0.385	-0.377	-0.461	-0.201	-0.111	0.023	0.683	0.347	-0.380	-0.671	-1.109	-1.398	-0.853	-0.521	0.244	2.579
315.0	-79.01	-73.37	-14.03	29.73	35.15	48.89	59.90	88.33	115.6	177.3	240.9	304.0	389.2	548.1	361.4	126.8	224.9	728.6	 1753	 5724	 3120	202.0	2.892	0.533	-1.036	-1.250	-3.008	-1.782	-2.167	-1.983	-2.292	-1.034	-1.460	-1.164	-1.586	-1.066	-1.371	-0.829	-1.129	-0.916	-1.148	-0.971	-0.741	-0.878	-0.938	-0.408	-0.414	-0.503	-0.436	-0.190	0.005	-0.360	-0.749	-0.447	-0.513	0.044	-0.469	-0.279	-0.227	-0.174	-0.056	0.317	-0.349	-0.105	-0.342	-0.171	0.510	-0.391	-0.445	0.331	0.424	-0.351	-1.325	-0.869	-0.810	-1.022	-0.398
320.0	-75.70	-49.03	9.189	44.94	33.88	51.00	92.10	116.0	123.6	187.8	252.8	294.1	321.3	407.7	518.9	208.0	115.2	204.7	421.1	 2347	 6723	 2546	101.4	2.305	-0.292	-1.216	-1.367	-1.525	-2.321	-1.794	-2.048	-1.333	-1.781	-1.615	-1.410	-1.523	-1.620	-1.219	-0.771	-0.888	-0.936	0.092	-1.212	-1.021	-0.421	-0.302	-0.356	0.020	-0.602	-0.117	0.239	-0.447	-0.152	-0.429	-0.420	-0.156	-0.620	-0.628	-0.067	-0.024	-0.469	-0.362	-0.492	-0.055	-0.543	-0.432	-0.394	-0.566	-0.620	-0.355	0.199	0.394	-0.803	-0.617	-1.249	-1.361	-1.133
325.0	-77.10	-66.87	15.92	71.94	84.65	109.1	130.5	139.9	173.0	201.4	259.2	289.7	316.3	311.0	447.4	373.6	123.3	95.57	128.1	574.9	 3384	 7154	 1852	24.37	0.540	1.064	0.557	-1.717	-1.898	-2.563	-1.450	-1.573	-1.139	-1.677	-1.155	-1.566	-1.268	-0.937	-1.234	-0.698	-1.358	-1.165	-0.879	-0.973	-0.529	-0.305	-0.418	-0.301	-0.442	-0.278	0.234	-0.217	-0.426	-0.312	-0.126	-0.568	-0.560	-0.232	-0.304	-0.245	-0.041	0.008	-0.394	-0.010	-0.602	-0.514	-0.288	-0.480	-0.377	-0.293	-0.476	0.080	-0.558	-0.429	-0.775	-1.539	-1.328
330.0	-79.91	-29.44	90.47	153.0	190.5	230.5	262.7	259.3	256.3	266.9	290.2	294.4	304.9	292.9	309.8	372.1	295.9	117.0	78.15	163.2	825.9	 3342	 6016	 2655	115.3	2.703	1.740	-1.311	-1.044	-0.866	-0.790	-1.418	-1.300	-0.779	-1.013	-1.530	-1.210	-0.655	-1.245	-0.673	-1.179	-1.091	-0.728	-0.752	-0.675	-0.583	-0.353	-0.176	0.130	0.347	0.131	0.124	0.079	0.231	0.257	0.111	-0.191	-0.089	0.182	0.136	0.045	0.050	-0.211	0.115	-0.387	-0.443	-0.231	-0.469	-0.329	-0.707	-0.841	-0.643	-0.208	-0.512	-0.021	-1.003	-1.055
335.0	-68.63	1.900	134.9	277.7	329.0	466.4	502.2	444.9	402.9	369.7	341.9	293.5	308.8	297.0	266.0	245.7	337.6	285.2	96.07	82.82	221.8	771.8	 2049	 6251	 2361	147.2	4.919	0.824	0.818	-0.439	-1.228	-1.615	-1.115	-0.548	-0.588	-0.642	-1.122	-0.825	-0.515	-1.176	-0.588	-0.557	-0.572	-0.358	-0.653	-0.669	-0.823	-0.124	0.353	0.522	0.126	0.904	0.732	0.962	0.724	0.423	0.365	0.268	0.677	0.605	0.203	0.779	-0.028	0.323	0.150	0.144	-0.213	-0.777	-0.221	-0.349	-0.621	-0.562	-0.617	-0.746	-0.524	-0.346	0.055
340.0	-58.81	67.37	163.2	407.9	512.8	612.5	668.7	623.9	558.3	471.3	388.7	331.8	315.1	294.0	285.4	238.2	246.0	362.8	197.4	87.92	96.49	202.8	490.3	 2788	 7236	 1986	84.01	1.720	1.756	0.198	-0.448	-0.235	-0.974	-1.353	-0.351	-0.577	-0.693	-0.465	-0.727	-0.937	-0.285	-1.055	-1.126	-1.090	-0.865	-0.498	0.166	0.131	0.321	0.576	0.159	0.950	1.139	0.997	1.127	1.267	0.819	0.861	0.949	0.947	0.718	0.593	0.126	0.641	0.079	0.410	0.280	-1.067	-0.200	-0.792	-0.530	-0.857	-0.765	-1.005	-0.660	-0.875	0.233
345.0	-67.47	50.43	228.5	468.2	657.2	801.0	849.0	802.2	654.9	552.0	444.4	333.3	310.2	303.4	278.6	241.2	197.0	290.8	322.0	135.5	82.06	88.95	139.6	690.4	 4218	 7062	 1550	27.15	2.329	2.611	0.767	0.271	-0.481	-1.233	-0.049	-0.843	-0.461	-1.009	-0.264	-0.998	-0.693	-0.785	-0.788	-0.241	-0.902	-0.245	-0.225	0.382	0.988	0.378	0.373	1.446	1.632	1.196	1.090	1.490	1.371	1.354	0.911	1.315	0.508	1.073	0.154	0.158	-0.136	-0.026	-0.014	-0.708	-0.433	-0.649	0.212	-0.854	-0.986	-1.053	-0.783	-0.774	-0.938
350.0	-28.34	49.98	274.8	565.3	857.3	977.4	 1032	955.5	781.1	664.7	468.2	343.5	313.4	308.8	283.3	252.5	211.2	217.3	291.7	265.9	130.7	78.70	77.81	191.0	 1056	 3663	 5982	 2876	106.1	4.332	2.441	0.865	0.877	-0.055	0.269	-0.147	-0.078	-1.158	-0.707	-0.662	-0.864	-0.488	-0.471	-0.859	-0.930	-0.188	0.175	0.081	0.633	1.018	1.019	1.815	1.613	1.779	1.703	2.160	1.802	1.714	1.423	1.864	1.434	1.110	0.733	0.310	-0.064	-0.295	-0.134	-0.564	-0.648	-0.736	-0.253	-0.978	-0.814	-0.986	-0.807	-0.635	-0.839
355.0	-20.52	70.67	333.8	575.2	958.9	 1116	 1197	 1106	929.9	737.4	497.0	351.4	308.1	302.6	284.9	266.6	228.3	219.9	218.5	275.0	265.7	119.5	85.55	94.46	275.7	846.9	 2276	 6978	 2059	134.0	4.857	3.092	1.843	0.419	0.273	0.316	0.012	-0.340	0.362	-0.793	-0.235	-0.079	-0.936	-0.369	-0.250	-0.081	-0.040	0.400	0.634	0.796	1.095	1.803	1.306	1.581	2.088	2.871	2.519	2.288	1.756	1.950	1.416	1.011	1.047	0.371	-0.052	-0.101	0.590	-0.829	-0.698	-0.877	-0.615	-0.858	-0.141	-0.699	-0.587	-0.952	-0.983
360.0	-29.81	87.93	346.0	672.1	 1002	 1222	 1314	 1172	956.6	759.3	552.9	348.2	312.3	302.2	302.0	261.4	251.3	223.3	206.6	222.4	310.6	214.9	104.6	87.06	115.6	225.4	553.8	 3362	 7821	 1845	72.60	6.390	3.974	1.747	1.249	0.154	0.809	-0.194	-0.031	-0.471	0.077	-0.058	-1.175	-0.434	-0.135	0.168	0.051	0.261	0.488	1.149	1.478	1.104	1.529	2.279	2.642	3.469	2.618	2.272	2.008	1.926	1.095	1.458	0.829	0.913	0.209	-0.367	-0.173	-0.423	-0.352	-0.477	-0.357	-0.519	-0.552	-1.020	-0.329	-1.154	-0.957
365.0	-28.05	131.5	357.2	697.8	975.6	 1292	 1339	 1175	975.8	754.4	519.4	341.9	317.9	301.8	303.4	265.9	261.0	244.8	216.8	199.6	249.1	298.7	160.7	96.66	87.97	97.46	158.8	851.1	 4634	 8415	 1493	26.99	4.371	2.257	2.585	1.586	0.436	-0.505	0.328	0.269	0.230	-0.330	-0.531	0.410	-0.064	0.037	0.760	0.462	0.669	1.419	1.045	1.286	1.842	2.555	2.178	3.179	2.845	2.561	2.319	1.955	1.178	1.316	1.257	0.887	0.642	0.227	-0.404	-0.611	-0.524	-0.386	-0.555	-0.286	-0.518	-0.679	-0.465	-1.233	-0.576
370.0	-28.03	110.9	330.8	660.8	971.8	 1245	 1312	 1155	947.6	752.2	534.9	347.7	314.5	306.2	301.7	280.7	275.8	251.5	240.6	211.5	215.4	261.2	264.4	154.0	100.3	84.12	86.98	227.3	 1165	 4425	 7554	 3713	91.86	5.287	3.467	2.120	1.344	0.458	0.891	0.306	0.364	0.453	0.009	-0.040	0.146	-0.360	0.725	0.702	0.950	1.333	1.399	1.619	2.063	2.408	2.061	2.422	2.559	2.146	1.686	1.394	1.596	0.914	0.956	0.972	0.320	0.415	-0.298	-0.384	-0.361	-0.281	-0.418	-0.678	-0.703	-0.196	-0.245	-0.741	-0.854
375.0	-30.55	69.93	342.4	634.6	940.6	 1118	 1220	 1090	881.1	702.5	504.4	355.2	319.1	301.9	296.0	295.1	271.9	266.1	254.4	234.7	225.6	216.2	245.5	261.9	150.9	101.4	80.72	100.7	294.3	 1017	 2853	 9206	 5951	121.9	6.631	3.824	2.129	1.128	1.466	0.625	-0.268	0.694	-0.130	-0.233	-0.361	-0.167	0.542	0.924	0.784	1.430	1.423	1.836	1.650	2.522	1.799	2.010	2.350	2.239	1.549	1.668	1.811	1.193	1.158	0.974	0.127	0.154	-0.169	-0.228	-0.053	-0.278	-0.886	-0.374	-0.751	-0.727	-0.463	-0.577	-0.549
380.0	-23.20	83.36	335.1	563.9	901.8	 1057	 1143	 1026	834.8	701.3	476.3	335.8	308.0	293.7	307.7	292.5	281.7	273.3	261.2	251.4	231.7	214.9	209.9	279.1	223.6	127.6	93.95	79.30	106.4	257.7	683.0	 4274	9999.9	 1579	72.39	6.304	4.100	1.843	1.729	0.830	0.928	1.319	0.562	-0.124	-0.732	-0.323	0.344	0.652	0.885	1.236	1.224	1.548	2.240	2.446	2.952	1.852	2.260	2.192	1.913	1.799	1.024	1.501	1.210	0.696	0.920	-0.090	-0.007	-0.384	-0.398	-0.756	-0.594	-0.477	-0.665	-0.548	-0.463	-0.666	-0.621
385.0	-11.71	61.20	269.4	515.0	813.5	993.4	 1100	957.0	789.9	627.7	462.1	340.0	298.9	290.1	287.1	295.6	278.3	276.7	272.2	259.2	236.9	225.4	214.7	238.1	278.5	172.8	113.0	84.03	71.57	93.93	180.9	 1066	 6032	9999.9	 1306	26.17	6.663	3.758	2.853	1.181	1.085	0.687	0.453	0.418	0.402	0.259	0.895	0.732	0.964	1.257	1.172	1.792	2.146	2.622	2.304	1.413	2.290	1.929	1.720	1.574	0.942	0.906	1.027	0.797	1.167	-0.059	-0.396	-0.351	-0.816	-0.797	-0.499	-0.456	-0.347	-0.435	-0.258	-0.666	-0.448
390.0	-52.08	74.20	242.1	497.1	748.0	896.0	967.9	839.4	710.8	588.2	438.1	332.4	296.6	296.2	290.6	291.2	289.0	273.2	277.5	266.6	250.3	232.9	221.4	212.5	238.6	247.0	160.7	99.69	77.39	68.49	76.35	264.6	 1499	 5370	 9181	 4309	78.70	6.991	4.508	2.473	1.859	0.996	0.994	0.708	0.377	0.315	1.157	1.252	1.233	1.254	1.392	1.798	1.581	2.354	1.820	1.928	1.929	1.720	1.578	1.209	1.165	0.609	0.715	0.288	0.366	0.162	0.245	0.122	-0.376	-0.324	-0.330	-0.120	-0.472	-0.786	-0.393	-0.642	-0.046
