Sample:	'1
File name:	城北污水厂二期工业水进口 10倍.FD3
Run date:	'16:04:23, 08/19/2024
Operator:	horiz
Comment:	'

Instrument
Model:	F-2700 FL Spectrophotometer
Serial number:	23B8-004
ROM Version:	4J14000 07

Instrument parameters
Measurement type:	3-D scan
Data mode:	Fluorescence
EX  Start WL:	220.0 nm
EX  End WL:	600.0 nm
EX Sampling interval:	5.0 nm
EM  Start WL:	230.0 nm
EM  End WL:	650.0 nm
EM Sampling interval:	5.0 nm
Scan speed:	12000 nm/min
EX Slit:	5.0 nm
EM Slit:	5.0 nm
PMT Voltage:	700 V
Response:	Auto 
Corrected spectra:	Off
Contour interval:	50.000

Peak integration
Integration method:	Rectangular
Sensitivity:	1
Threshold:	1.000

Peaks
No.	ApexEX/EM(nm)	Height(Data)
1	225.0/305.0	1632
2	225.0/345.0	4431
3	225.0/490.0	236.6
4	225.0/605.0	134.2
5	230.0/500.0	216.2
6	235.0/255.0	362.0
7	235.0/515.0	177.6
8	240.0/265.0	409.5
9	240.0/525.0	168.4
10	245.0/270.0	394.4
11	245.0/535.0	144.2
12	250.0/275.0	488.5
13	250.0/550.0	121.1
14	255.0/280.0	624.2
15	255.0/565.0	118.3
16	260.0/575.0	115.0
17	265.0/585.0	125.7
18	270.0/300.0	1547
19	270.0/600.0	128.7
20	275.0/305.0	1637
21	275.0/340.0	1396
22	275.0/610.0	111.0
23	275.0/640.0	52.22
24	280.0/625.0	81.79
25	285.0/640.0	60.55
26	315.0/355.0	423.3
27	320.0/360.0	397.7
28	325.0/370.0	326.2
29	330.0/375.0	288.9
30	335.0/380.0	268.0
31	345.0/395.0	176.3
32	350.0/400.0	174.4
33	355.0/405.0	148.1
34	360.0/415.0	124.7
35	365.0/420.0	122.6
36	370.0/425.0	107.3
37	380.0/440.0	80.94
38	385.0/445.0	68.99
39	395.0/460.0	50.96
40	400.0/465.0	43.98
41	405.0/470.0	35.75
42	410.0/480.0	30.99
43	415.0/485.0	28.94
44	425.0/500.0	20.25
45	430.0/505.0	17.51
46	440.0/520.0	11.93
47	445.0/525.0	10.68
48	455.0/345.0	12.22
49	455.0/540.0	7.209
50	470.0/560.0	3.944
51	480.0/260.0	2.280
52	480.0/575.0	2.507
53	485.0/265.0	2.421
54	485.0/585.0	2.095
55	505.0/275.0	3.375
56	520.0/285.0	4.217
57	530.0/290.0	4.527
58	540.0/295.0	6.919
59	545.0/300.0	7.500
60	550.0/305.0	7.337
61	555.0/345.0	6.006
62	560.0/310.0	6.326
63	565.0/340.0	6.223
64	585.0/325.0	6.012

Wavelength data
No.	EX/EM(nm)	Height(Data)	

Data points
	220.0	225.0	230.0	235.0	240.0	245.0	250.0	255.0	260.0	265.0	270.0	275.0	280.0	285.0	290.0	295.0	300.0	305.0	310.0	315.0	320.0	325.0	330.0	335.0	340.0	345.0	350.0	355.0	360.0	365.0	370.0	375.0	380.0	385.0	390.0	395.0	400.0	405.0	410.0	415.0	420.0	425.0	430.0	435.0	440.0	445.0	450.0	455.0	460.0	465.0	470.0	475.0	480.0	485.0	490.0	495.0	500.0	505.0	510.0	515.0	520.0	525.0	530.0	535.0	540.0	545.0	550.0	555.0	560.0	565.0	570.0	575.0	580.0	585.0	590.0	595.0	600.0
230.0	96.84	1300	2188	582.1	29.27	11.66	9.459	7.565	7.205	6.255	5.552	4.876	3.937	4.182	2.964	2.601	2.231	1.991	1.840	1.763	1.505	1.353	1.308	1.258	1.154	1.098	0.980	0.988	0.994	0.979	0.923	0.883	0.839	0.864	0.765	0.756	0.828	0.724	0.688	0.680	0.822	1.057	0.919	0.732	0.659	0.621	1.505	5.014	7.077	4.643	1.672	0.687	0.514	0.543	0.512	0.519	0.583	0.580	0.512	0.545	0.555	0.582	0.522	0.565	0.548	0.527	0.538	0.557	0.515	0.580	0.540	0.570	0.549	0.609	0.587	0.589	0.591
235.0	156.6	381.4	1360	2011	543.8	41.75	9.572	8.546	6.917	6.531	5.838	4.358	4.746	4.235	3.114	2.739	2.265	2.089	1.912	1.658	1.558	1.244	1.298	1.436	1.143	1.098	1.146	0.972	1.032	1.018	1.007	0.972	0.855	0.797	0.786	0.843	0.747	0.715	0.722	0.668	0.680	0.824	1.033	0.919	0.914	0.661	0.799	1.697	3.108	4.719	6.073	6.170	3.012	0.925	0.547	0.526	0.531	0.567	0.548	0.546	0.533	0.586	0.551	0.556	0.569	0.615	0.504	0.545	0.556	0.617	0.497	0.616	0.515	0.577	0.574	0.535	0.615
240.0	243.1	218.1	421.9	1730	2113	441.3	21.05	7.918	7.854	7.123	5.842	4.865	4.519	4.348	3.260	2.572	2.269	1.922	1.688	1.751	1.542	1.253	1.289	1.390	1.158	1.117	1.108	0.983	0.965	1.065	0.999	1.031	0.815	0.956	0.790	0.746	0.725	0.676	0.772	0.730	0.661	0.699	0.792	0.861	1.153	1.166	0.819	0.904	1.117	1.666	3.549	8.238	9.494	6.509	2.421	0.681	0.526	0.573	0.544	0.539	0.565	0.607	0.586	0.525	0.588	0.593	0.531	0.505	0.591	0.574	0.593	0.643	0.588	0.658	0.606	0.693	0.688
245.0	195.5	293.1	176.0	602.6	2261	2240	288.5	13.27	7.881	8.309	6.455	5.628	4.576	4.155	3.113	2.835	2.396	1.945	1.807	1.731	1.618	1.475	1.330	1.415	1.012	1.069	1.037	1.072	1.042	0.940	0.964	0.935	0.817	1.005	0.818	0.754	0.745	0.679	0.872	0.705	0.669	0.724	0.781	0.705	0.939	1.103	1.127	1.065	0.855	0.768	1.177	3.184	6.496	10.65	10.43	5.207	1.687	0.689	0.520	0.623	0.623	0.557	0.543	0.583	0.607	0.538	0.603	0.562	0.559	0.548	0.613	0.539	0.571	0.556	0.598	0.662	0.610
250.0	91.72	211.0	287.1	242.5	734.7	2135	2355	931.7	54.65	8.819	8.076	5.862	4.878	4.820	3.222	2.743	2.536	1.957	1.931	1.690	1.552	1.432	1.293	1.325	1.207	1.132	1.067	1.042	1.104	0.937	0.933	0.963	0.830	0.846	0.786	0.734	0.706	0.700	0.801	0.755	0.697	0.695	0.727	0.649	0.664	0.792	0.879	1.189	1.328	1.101	0.863	1.239	1.990	3.747	6.576	8.731	11.26	9.806	5.341	1.733	0.686	0.592	0.577	0.561	0.557	0.583	0.569	0.606	0.590	0.583	0.604	0.528	0.577	0.556	0.560	0.623	0.593
255.0	59.67	85.76	206.9	362.0	265.5	551.4	1781	3506	367.4	50.91	9.458	7.246	5.913	5.607	3.354	2.891	2.248	2.138	2.086	1.920	1.560	1.273	1.349	1.291	1.150	1.136	1.099	1.020	1.093	1.084	1.008	0.982	0.885	0.801	0.842	0.658	0.748	0.675	0.644	0.779	0.666	0.712	0.710	0.666	0.718	0.711	0.617	0.771	0.957	1.207	1.703	1.507	1.245	1.367	1.899	2.583	4.168	9.269	16.41	15.46	8.064	1.986	0.594	0.614	0.603	0.559	0.549	0.568	0.588	0.563	0.586	0.615	0.680	0.600	0.519	0.576	0.562
260.0	56.45	52.52	86.44	314.4	337.4	187.1	540.5	3004	2875	308.3	27.60	8.244	6.460	5.857	3.440	3.145	2.801	2.274	2.206	2.240	1.690	1.259	1.418	1.321	1.116	1.235	1.185	1.116	1.143	1.020	1.042	0.917	0.880	0.835	0.818	0.749	0.751	0.717	0.639	0.738	0.635	0.698	0.671	0.693	0.696	0.626	0.618	0.588	0.665	0.719	1.185	1.897	2.280	1.529	1.012	1.035	1.444	2.894	7.264	14.84	20.04	15.45	6.318	1.330	0.756	0.611	0.546	0.578	0.659	0.556	0.583	0.633	0.625	0.561	0.542	0.599	0.598
265.0	56.20	39.91	43.04	143.8	409.5	257.4	160.7	1004	3973	2507	241.7	14.71	7.156	6.972	3.725	3.432	2.874	2.190	1.894	1.964	1.734	1.384	1.469	1.285	1.170	1.161	1.181	1.144	1.097	1.073	1.095	0.933	0.828	0.888	0.740	0.735	0.742	0.720	0.623	0.729	0.613	0.753	0.777	0.670	0.697	0.615	0.602	0.646	0.562	0.521	0.729	1.214	2.165	2.421	1.746	0.972	0.859	1.133	2.174	4.727	10.65	19.26	23.55	13.81	4.538	0.922	0.608	0.610	0.634	0.630	0.608	0.564	0.569	0.580	0.640	0.627	0.577
270.0	70.45	47.48	37.65	54.63	193.0	394.4	291.7	281.1	1262	3550	4382	951.9	51.00	8.627	5.395	3.949	3.333	2.558	2.099	2.176	1.809	1.552	1.493	1.447	1.157	1.258	1.133	1.108	1.050	1.086	0.990	0.988	0.947	0.869	0.799	0.808	0.783	0.784	0.697	0.734	0.751	0.712	0.727	0.738	0.709	0.657	0.626	0.593	0.570	0.473	0.565	0.724	0.978	1.409	1.987	2.226	2.247	1.448	1.129	1.606	2.974	5.713	11.19	16.64	21.83	18.02	10.98	3.570	0.846	0.626	0.588	0.576	0.600	0.607	0.614	0.605	0.608
275.0	128.1	93.97	61.54	43.85	64.78	172.9	488.5	359.4	339.8	909.9	3364	6625	1250	66.80	6.768	5.369	3.411	2.967	2.305	2.327	1.963	1.724	1.426	1.634	1.318	1.224	1.206	1.193	1.073	1.147	1.016	0.976	1.005	0.851	0.907	0.850	0.882	0.828	0.826	0.744	0.816	0.827	0.757	0.724	0.772	0.753	0.777	0.729	0.593	0.566	0.535	0.706	0.713	0.827	0.952	1.260	2.411	3.375	2.608	1.363	1.233	1.873	3.187	4.406	6.598	11.52	23.46	27.87	15.53	3.718	0.858	0.645	0.630	0.646	0.659	0.633	0.608
280.0	216.3	197.0	137.3	67.60	47.82	79.44	292.6	624.2	283.1	301.4	1028	4718	5724	1009	22.43	6.009	4.165	3.199	2.817	2.852	2.066	1.718	1.627	1.749	1.406	1.268	1.263	1.141	1.155	1.147	1.079	0.986	1.022	0.990	1.050	0.929	1.027	0.951	0.883	0.866	0.886	0.879	0.897	0.879	0.931	0.902	0.949	0.843	0.738	0.717	0.585	0.708	0.653	0.662	0.753	0.793	1.349	2.183	3.358	3.452	1.960	1.238	1.487	1.735	2.356	3.655	8.392	18.37	28.34	26.54	11.64	2.222	0.700	0.653	0.657	0.699	0.606
285.0	408.9	458.5	310.8	144.1	67.71	68.17	141.8	535.6	635.5	304.4	459.5	1567	5177	7473	141.4	10.57	5.196	3.958	2.967	2.885	2.144	1.897	1.781	1.814	1.475	1.367	1.249	1.212	1.172	1.384	1.081	1.099	1.175	1.175	1.251	1.421	1.261	1.125	1.128	1.019	1.096	1.084	1.159	1.282	1.318	1.451	1.592	1.409	1.327	1.014	0.780	0.878	0.785	0.684	0.759	0.683	0.966	1.223	2.040	3.491	4.217	2.733	1.853	1.604	1.840	2.270	3.286	5.717	11.79	24.22	30.44	21.39	6.581	1.227	0.667	0.695	0.674
290.0	830.6	951.3	657.6	300.1	133.8	101.2	141.5	314.2	709.9	868.1	649.9	819.4	1778	5984	4079	538.4	33.83	5.187	3.873	3.773	2.440	2.088	1.985	1.860	1.471	1.373	1.263	1.232	1.261	1.167	1.171	1.103	1.177	1.426	1.691	1.923	1.816	1.602	1.461	1.423	1.418	1.426	1.643	1.854	2.202	2.471	2.640	2.732	2.363	1.744	1.231	1.179	0.929	0.846	0.826	0.926	0.944	1.128	1.453	2.098	2.894	3.934	4.527	4.084	3.293	2.858	3.025	3.412	4.638	7.805	12.13	17.70	21.33	21.44	14.85	5.976	1.508
295.0	1225	1393	1013	443.4	200.3	153.6	180.6	298.5	534.4	1044	1305	909.1	917.5	1611	2324	5162	776.3	32.74	4.941	4.899	3.011	2.300	1.967	2.056	1.538	1.463	1.420	1.234	1.331	1.169	1.194	1.129	1.263	1.480	1.856	2.331	2.317	1.963	1.782	1.620	1.727	1.750	2.142	2.270	2.883	3.276	3.474	3.753	3.321	2.202	1.723	1.428	1.285	1.001	1.130	0.979	1.129	1.268	1.561	1.891	2.414	2.748	3.512	5.239	6.919	5.616	4.199	3.681	3.751	4.138	4.787	5.338	6.122	9.643	20.82	28.32	24.19
300.0	1380	1584	1153	533.1	241.0	185.1	225.5	332.7	514.6	871.4	1547	1270	809.5	650.1	678.0	3349	4574	560.8	13.68	6.477	3.517	2.646	2.167	2.458	1.802	1.547	1.473	1.215	1.404	1.285	1.209	1.090	1.209	1.569	2.269	2.518	2.489	2.014	1.845	1.681	1.928	1.912	2.250	2.677	3.315	3.898	4.154	4.318	3.689	2.525	1.808	1.664	1.372	1.221	1.143	1.099	1.334	1.525	1.751	2.068	2.467	2.744	3.361	4.245	6.010	7.500	7.117	4.980	3.949	3.702	3.494	2.728	2.501	3.158	6.413	14.50	30.46
305.0	1372	1632	1211	556.0	258.4	203.0	258.8	367.6	533.8	798.9	1288	1637	948.8	462.5	265.3	973.7	3831	3807	87.83	10.83	4.182	3.066	2.441	2.381	1.771	1.592	1.583	1.481	1.382	1.294	1.113	1.044	1.253	1.590	2.220	2.476	2.537	1.956	1.930	1.745	1.821	1.983	2.359	2.739	3.175	3.798	4.210	4.548	4.019	2.777	2.026	1.728	1.415	1.420	1.379	1.225	1.372	1.497	1.868	2.256	2.728	3.079	3.323	3.979	4.644	5.877	7.337	6.917	5.622	4.248	3.134	2.340	1.823	1.645	2.293	4.069	10.15
310.0	1346	1548	1134	531.8	267.7	210.4	253.5	363.9	520.2	750.9	1015	1337	1264	573.5	204.4	294.9	1082	2918	3175	1726	23.08	4.125	3.022	2.694	2.213	1.671	1.714	1.446	1.515	1.245	1.221	1.175	1.260	1.609	2.119	2.425	2.367	2.001	1.754	1.843	1.843	1.936	2.224	2.616	3.049	3.688	4.134	4.240	3.576	2.610	1.996	1.834	1.400	1.430	1.309	1.244	1.435	1.564	1.761	2.018	2.459	2.790	3.235	3.736	4.080	4.529	5.228	5.705	6.326	5.951	4.188	2.704	1.890	1.485	1.435	1.739	3.132
315.0	1444	1671	1152	539.5	272.8	223.7	262.6	361.4	510.5	711.5	928.6	1068	1114	1005	386.9	190.7	339.9	731.2	1814	8127	537.4	21.30	4.200	3.280	2.489	1.773	1.736	1.464	1.397	1.299	1.362	1.170	1.265	1.548	1.905	2.265	2.181	1.938	2.024	1.952	1.851	2.025	2.165	2.706	3.546	4.040	4.377	4.478	3.449	2.397	2.099	1.788	1.465	1.292	1.308	1.334	1.547	1.768	1.754	2.200	2.403	2.989	3.127	3.592	3.833	4.410	4.431	4.369	4.727	5.031	5.589	4.862	3.213	2.008	1.824	1.538	1.830
320.0	1894	2175	1445	697.4	350.3	260.5	296.3	411.8	573.0	792.5	1015	1136	1104	1164	821.9	382.8	281.3	260.9	525.4	5129	3429	409.7	9.818	4.217	2.710	2.304	1.885	1.863	1.592	1.452	1.463	1.126	1.363	1.283	2.059	2.172	2.164	1.992	1.910	2.070	2.177	2.365	2.643	3.232	4.221	5.328	5.959	5.963	4.527	3.029	2.467	2.038	1.670	1.577	1.401	1.423	1.629	1.756	1.943	2.174	2.583	3.102	3.348	3.895	4.250	4.478	4.732	4.731	4.950	4.699	4.934	5.478	5.337	4.102	3.074	2.322	2.331
325.0	2470	3028	2232	1030	541.0	337.2	351.8	471.2	650.3	892.4	1121	1281	1232	1165	1129	687.3	359.1	222.1	217.8	1444	2990	2844	64.71	7.296	3.601	2.664	1.867	2.037	1.756	1.621	1.587	1.255	1.414	1.367	1.891	1.959	2.091	2.114	2.003	2.110	2.197	2.718	3.053	4.081	5.047	6.843	7.794	8.326	6.386	4.811	3.717	3.285	2.186	1.822	1.569	1.666	1.911	2.037	2.078	2.486	2.585	3.368	3.851	4.386	4.558	4.951	5.456	5.535	5.178	5.011	5.541	5.403	5.786	6.012	5.419	3.747	3.146
330.0	2754	3670	2933	1688	776.9	426.2	404.6	515.8	690.4	926.5	1180	1359	1331	1201	1053	969.6	566.7	263.9	183.1	428.4	894.1	2306	2559	279.3	18.38	3.639	2.508	2.062	1.826	1.681	1.648	1.426	1.322	1.408	1.774	1.943	2.106	2.085	2.023	2.183	2.295	2.869	3.453	4.509	5.838	7.699	9.288	9.803	8.423	6.627	5.432	4.919	3.331	2.284	2.039	1.851	2.065	2.073	2.499	2.608	3.020	3.341	3.822	4.499	4.826	5.075	5.687	5.811	5.712	5.654	5.720	5.684	5.189	5.105	5.298	5.372	4.855
335.0	2875	4017	3345	2058	955.9	501.8	439.8	534.8	710.9	936.3	1189	1367	1370	1242	1006	871.5	776.7	394.5	205.7	224.9	305.2	608.3	1592	3798	424.3	16.30	3.740	2.406	2.043	1.824	1.738	1.548	1.350	1.397	1.579	1.799	1.877	2.155	2.002	2.152	2.448	2.880	3.561	5.028	6.132	8.145	9.899	10.69	9.379	7.756	6.738	5.949	3.737	2.835	2.451	2.194	2.159	2.233	2.577	2.669	2.917	3.480	3.878	4.355	4.545	5.184	5.808	5.983	5.780	6.131	5.715	5.409	5.186	4.965	4.447	4.406	4.673
340.0	3097	4363	3908	2414	1097	570.7	484.5	561.6	738.3	973.5	1219	1396	1396	1277	1031	818.4	707.2	575.0	268.5	203.5	198.1	238.9	474.5	2875	2746	314.4	7.396	2.972	2.366	1.905	1.797	1.557	1.362	1.322	1.400	1.841	1.823	2.054	2.179	2.254	2.545	2.983	3.803	5.055	6.528	8.624	10.22	11.77	10.92	9.096	7.724	6.586	4.475	3.317	2.715	2.300	2.253	2.527	2.590	2.732	3.138	3.628	3.796	4.558	4.923	5.392	5.711	5.712	6.131	6.223	6.054	5.698	5.307	5.022	4.598	4.613	4.224
345.0	3101	4431	4215	2657	1244	628.3	515.8	582.1	745.7	963.3	1203	1368	1388	1276	1042	802.5	584.5	584.8	406.8	228.2	193.8	175.4	191.0	883.6	2549	2179	53.62	4.347	3.009	2.263	2.058	1.580	1.465	1.452	1.551	1.851	1.757	1.990	2.095	2.281	2.564	3.241	3.784	5.101	6.804	8.827	10.67	12.22	11.80	9.393	8.411	7.307	5.083	3.619	2.895	2.489	2.488	2.498	2.803	2.964	3.345	3.544	3.876	4.491	5.049	5.282	5.777	6.006	5.937	5.923	5.949	5.674	5.076	5.033	4.706	4.383	4.055
350.0	2811	4114	3918	2604	1243	668.8	560.1	613.4	733.8	910.6	1100	1253	1263	1155	971.4	739.9	506.7	426.4	457.1	342.2	217.7	174.9	143.7	270.4	760.4	1895	1898	232.2	13.34	2.920	2.377	1.813	1.663	1.519	1.561	1.715	1.714	1.924	1.964	2.333	2.286	2.781	3.563	4.491	5.881	7.893	9.827	11.43	11.11	9.382	7.873	7.207	5.013	3.678	3.031	2.629	2.607	2.737	2.892	3.099	3.119	3.442	3.737	4.512	4.655	4.973	5.153	5.179	5.383	5.546	5.398	5.211	5.091	4.979	4.476	3.976	3.671
355.0	2467	3602	3574	2401	1191	677.2	573.6	611.5	691.8	839.9	997.8	1116	1117	1028	881.5	664.9	458.9	344.0	334.3	423.3	309.9	189.9	146.0	144.4	215.3	466.6	1315	2339	348.4	9.970	2.651	2.005	1.703	1.652	1.664	1.639	1.967	1.893	1.878	2.291	2.381	2.743	3.149	3.914	5.175	6.953	8.607	10.71	10.34	8.375	7.300	6.464	4.864	3.664	2.877	2.482	2.676	2.717	2.757	2.934	3.020	3.431	3.769	4.016	4.135	4.283	4.570	4.675	5.038	4.929	4.716	4.388	4.755	4.476	4.086	3.786	3.467
360.0	2203	3284	3309	2280	1153	666.1	545.0	579.8	656.5	770.9	907.6	1012	1021	937.3	803.4	616.2	427.8	316.5	282.9	349.1	397.7	233.2	153.8	121.7	98.98	132.2	367.9	1823	2125	55.51	4.800	2.388	1.855	1.804	1.596	1.541	1.722	1.726	1.766	1.960	2.213	2.608	3.026	3.539	4.676	6.367	7.687	9.405	9.562	7.850	6.862	6.323	4.424	3.577	2.770	2.664	2.670	2.509	2.732	2.653	2.974	3.150	3.404	3.585	3.733	4.067	4.126	4.362	4.454	4.780	4.682	4.350	4.269	3.984	4.113	3.479	3.101
365.0	1975	2898	2986	2079	1080	647.6	531.4	547.6	608.3	720.2	823.4	905.1	916.3	830.8	723.9	562.3	396.9	302.6	261.7	274.3	373.5	320.3	172.8	120.4	78.79	62.32	104.8	562.3	2186	1692	45.64	3.348	2.176	2.128	1.577	1.580	1.551	1.613	1.850	1.634	1.959	2.314	2.663	3.181	4.416	5.716	6.780	8.882	8.394	7.388	6.254	5.970	4.107	3.350	2.671	2.658	2.471	2.586	2.427	2.719	2.816	2.985	3.211	3.394	3.608	3.567	3.830	4.069	4.146	4.230	3.958	3.895	4.013	3.822	3.706	3.192	2.787
370.0	1587	2403	2511	1762	977.5	620.5	526.3	534.3	558.1	640.8	713.5	770.8	785.1	714.5	628.1	492.3	363.9	285.9	249.0	238.2	267.2	326.2	258.7	137.2	80.74	55.01	52.19	146.5	660.5	1683	1753	200.9	9.851	2.474	1.903	1.679	1.551	1.530	1.646	1.711	1.862	2.017	2.347	2.732	3.754	4.756	5.858	7.224	7.189	6.163	5.420	5.081	3.886	3.036	2.615	2.409	2.404	2.523	2.402	2.549	2.779	2.645	2.877	3.084	3.253	3.373	3.339	3.550	3.605	3.696	3.569	3.290	3.372	3.396	3.179	2.963	2.696
375.0	1249	1917	2020	1440	851.3	585.4	490.4	483.5	492.6	552.2	601.6	650.0	662.0	600.1	533.4	422.7	324.7	264.9	234.6	221.8	219.1	231.6	288.9	215.8	95.53	61.60	49.08	59.29	165.9	412.9	1315	2111	286.1	8.124	2.187	1.851	1.758	1.604	1.529	1.578	1.767	1.831	1.953	2.323	3.107	3.829	4.796	5.973	5.814	5.053	4.683	4.515	3.409	2.947	2.422	2.447	2.246	2.285	2.451	2.274	2.275	2.424	2.507	2.901	2.951	2.897	2.883	3.048	3.207	3.220	3.394	3.166	2.965	2.829	2.882	2.541	2.398
380.0	1075	1588	1686	1256	775.0	545.8	466.1	436.6	449.5	493.9	533.8	560.2	565.6	519.3	472.7	380.6	294.0	252.6	221.9	210.4	201.3	194.7	229.5	268.0	138.5	69.36	51.42	44.08	59.12	108.0	367.9	1743	1735	46.07	3.979	2.113	1.837	1.714	1.596	1.631	1.572	1.779	1.956	2.238	2.635	3.272	3.988	4.909	4.925	4.566	4.009	3.964	3.159	2.770	2.369	2.077	2.291	2.124	2.166	2.279	2.148	2.276	2.373	2.672	2.685	2.555	2.254	2.828	2.820	2.852	2.837	2.913	2.566	2.683	2.633	2.352	2.120
385.0	929.9	1325	1461	1092	710.3	498.9	426.1	419.0	406.4	433.1	469.9	502.4	496.0	461.3	418.5	337.2	272.9	235.5	213.5	197.9	191.7	180.4	180.6	233.8	203.6	91.02	58.14	43.35	38.22	41.91	97.04	538.8	1818	1422	35.41	2.840	2.104	1.656	1.710	1.509	1.613	1.653	1.763	1.991	2.372	2.931	3.493	4.383	4.304	3.997	3.496	3.592	2.807	2.596	2.210	2.042	2.129	1.979	2.167	1.940	2.084	2.352	2.174	2.372	2.484	2.339	2.249	2.551	2.669	2.738	2.608	2.346	2.205	2.513	2.240	2.235	1.995
390.0	752.2	1066	1160	896.3	617.8	466.1	401.6	382.0	369.3	381.0	407.6	423.1	426.8	389.4	354.3	300.1	251.0	219.8	201.1	189.2	180.4	170.3	159.5	163.5	197.3	160.9	80.57	50.79	39.91	31.95	37.41	132.8	545.7	1470	963.5	155.6	8.385	2.071	1.732	1.677	1.587	1.514	1.623	1.762	2.162	2.490	2.823	3.550	3.571	3.239	2.858	3.071	2.668	2.220	2.064	1.940	1.898	1.963	2.033	1.942	1.942	1.968	1.972	2.079	2.109	2.094	2.095	2.267	2.402	2.288	2.207	2.148	2.147	2.195	1.988	1.944	1.946
395.0	637.5	869.6	928.1	735.2	547.1	431.9	371.0	354.0	326.2	335.1	346.4	366.2	358.3	332.0	306.4	264.8	226.6	203.2	186.3	177.8	168.3	161.2	149.3	137.6	138.5	176.3	144.4	63.78	46.37	33.78	28.68	43.34	131.4	360.9	892.1	1501	231.7	5.694	2.130	1.633	1.562	1.444	1.681	1.716	1.880	2.193	2.291	2.988	2.942	2.676	2.462	2.579	2.250	2.037	1.939	1.800	1.822	1.894	1.821	1.837	1.852	1.654	1.951	1.842	1.889	1.871	2.058	1.885	2.076	2.006	1.922	1.947	1.953	1.925	2.006	1.799	1.822
400.0	570.7	712.9	786.1	651.5	479.9	397.0	355.8	330.2	301.5	305.5	312.7	321.3	325.1	294.5	275.8	242.3	207.8	189.7	178.9	168.7	158.6	155.0	142.7	130.7	118.1	134.5	174.4	103.7	52.81	37.67	29.30	25.76	41.09	90.17	254.0	1241	1270	38.94	3.244	1.904	1.688	1.564	1.557	1.568	1.731	1.945	2.168	2.557	2.597	2.369	2.133	2.190	2.032	1.956	1.761	1.679	1.729	1.639	1.699	1.709	1.711	1.699	1.618	1.755	1.766	1.766	1.782	1.800	1.779	1.663	1.867	1.813	1.789	1.848	1.762	1.727	1.834
405.0	490.5	608.5	684.7	554.9	456.6	373.4	333.5	307.6	287.2	284.2	282.2	292.4	291.4	264.5	250.7	219.8	190.6	176.2	167.7	157.7	154.2	147.4	140.9	128.9	111.5	107.0	147.9	148.1	65.97	41.84	30.95	24.47	22.73	29.84	65.47	388.2	1324	938.3	30.75	2.313	1.726	1.572	1.461	1.495	1.596	1.736	1.882	2.200	2.212	2.169	1.945	2.135	1.826	1.740	1.840	1.657	1.638	1.718	1.726	1.691	1.621	1.715	1.655	1.532	1.674	1.851	1.622	1.707	1.582	1.845	1.585	1.759	1.781	1.635	1.622	1.716	1.849
410.0	411.4	528.2	560.8	495.4	399.7	351.3	320.7	298.2	271.8	260.9	256.1	259.9	254.6	238.6	223.4	198.1	175.9	165.3	155.6	148.0	145.3	138.6	132.8	122.8	107.5	98.25	103.4	136.4	120.1	56.97	36.18	26.06	20.74	18.61	23.39	94.54	398.0	947.8	752.5	143.5	6.787	1.819	1.608	1.479	1.522	1.728	1.761	2.005	1.941	1.870	1.687	2.022	1.797	1.782	1.712	1.610	1.598	1.688	1.740	1.618	1.768	1.695	1.486	1.552	1.576	1.629	1.501	1.601	1.456	1.534	1.545	1.558	1.575	1.560	1.457	1.568	1.598
