Sample:	'1
File name:	Default_20230129_093215.FD3
Run date:	'09:25:54, 01/29/2023
Operator:	user
Comment:	'

Instrument
Model:	F-2700 FL Spectrophotometer
Serial number:	2190-003
ROM Version:	4J14000 07

Instrument parameters
Measurement type:	3-D scan
Data mode:	Fluorescence
EX  Start WL:	220.0 nm
EX  End WL:	600.0 nm
EX Sampling interval:	5.0 nm
EM  Start WL:	230.0 nm
EM  End WL:	650.0 nm
EM Sampling interval:	5.0 nm
Scan speed:	12000 nm/min
EX Slit:	5.0 nm
EM Slit:	5.0 nm
PMT Voltage:	700 V
Response:	Auto 
Corrected spectra:	Off
Contour interval:	50.000

Peak integration
Integration method:	Rectangular
Sensitivity:	1
Threshold:	1.000

Peaks
No.	ApexEX/EM(nm)	Height(Data)
1	245.0/265.0	3.342
2	245.0/360.0	594.6
3	245.0/370.0	589.0
4	250.0/365.0	587.6
5	250.0/545.0	-94.06
6	255.0/555.0	-67.13
7	270.0/295.0	 2555
8	270.0/585.0	113.4
9	275.0/300.0	 2606
10	275.0/600.0	88.57
11	290.0/640.0	-16.58
12	295.0/405.0	894.6
13	300.0/335.0	357.9
14	305.0/340.0	373.3
15	310.0/345.0	331.9
16	315.0/350.0	265.4
17	320.0/360.0	297.8
18	325.0/365.0	297.9
19	330.0/370.0	255.6
20	335.0/375.0	269.2
21	340.0/385.0	270.8
22	345.0/390.0	243.9
23	350.0/395.0	222.4
24	355.0/405.0	223.4
25	360.0/410.0	184.3
26	365.0/415.0	183.7
27	370.0/425.0	174.9
28	375.0/430.0	152.9
29	380.0/435.0	139.9
30	385.0/445.0	126.2
31	395.0/455.0	89.11
32	400.0/465.0	74.31
33	410.0/475.0	46.95
34	415.0/485.0	37.99
35	420.0/490.0	30.45
36	425.0/495.0	23.49
37	430.0/505.0	19.14
38	435.0/510.0	13.79
39	440.0/515.0	10.79
40	445.0/525.0	8.346
41	450.0/530.0	6.252
42	455.0/540.0	3.659
43	460.0/545.0	2.749
44	465.0/550.0	0.885
45	470.0/555.0	0.220
46	480.0/365.0	-4.381
47	490.0/375.0	-4.574
48	495.0/355.0	-4.450
49	505.0/275.0	-5.313
50	540.0/295.0	-0.848
51	545.0/300.0	-0.970
52	590.0/390.0	-4.584

Data points
	220.0	225.0	230.0	235.0	240.0	245.0	250.0	255.0	260.0	265.0	270.0	275.0	280.0	285.0	290.0	295.0	300.0	305.0	310.0	315.0	320.0	325.0	330.0	335.0	340.0	345.0	350.0	355.0	360.0	365.0	370.0	375.0	380.0	385.0	390.0	395.0	400.0	405.0	410.0	415.0	420.0	425.0	430.0	435.0	440.0	445.0	450.0	455.0	460.0	465.0	470.0	475.0	480.0	485.0	490.0	495.0	500.0	505.0	510.0	515.0	520.0	525.0	530.0	535.0	540.0	545.0	550.0	555.0	560.0	565.0	570.0	575.0	580.0	585.0	590.0	595.0	600.0
230.0	-607.2	-445.3	248.9	313.2	-218.9	-227.8	-194.2	-170.1	-149.0	-134.4	-117.1	-99.21	-86.54	-72.38	-56.21	-46.96	-39.68	-35.16	-30.81	-27.04	-24.16	-22.90	-20.91	-19.15	-17.71	-17.10	-15.83	-15.60	-15.00	-14.49	-14.48	-13.65	-12.22	-11.43	-11.08	-10.04	-9.365	-9.812	-9.138	-8.880	-8.783	-8.411	-8.481	-8.078	-8.038	-7.890	-6.825	-6.586	-5.098	-4.082	-4.882	-6.526	-6.326	-6.884	-6.424	-6.897	-7.115	-6.934	-7.033	-7.192	-6.808	-6.984	-7.036	-7.323	-7.193	-6.898	-7.273	-7.361	-7.197	-7.332	-7.386	-7.462	-7.339	-7.465	-7.373	-7.780	-8.200
235.0	-600.2	-499.1	-98.78	919.9	638.8	-159.4	-187.9	-161.3	-143.1	-135.6	-117.8	-99.64	-87.50	-71.56	-56.35	-47.18	-42.16	-35.07	-29.65	-25.49	-22.56	-22.92	-19.66	-18.81	-18.00	-17.45	-15.71	-15.39	-15.22	-14.60	-14.00	-13.27	-12.98	-11.86	-11.25	-9.570	-9.981	-9.573	-9.166	-9.256	-9.181	-8.092	-8.698	-8.367	-7.915	-8.075	-6.852	-7.245	-5.953	-4.448	-4.052	-4.272	-4.890	-6.190	-6.856	-6.621	-6.881	-6.712	-6.804	-7.272	-6.989	-7.007	-6.772	-7.432	-7.288	-7.169	-6.958	-7.453	-7.685	-7.466	-7.275	-7.941	-7.907	-7.559	-8.186	-8.127	-7.973
240.0	-621.1	-475.2	-343.5	351.9	 1594	646.9	-154.7	-171.1	-148.3	-130.8	-117.2	-96.30	-80.87	-67.92	-59.95	-47.08	-41.57	-33.92	-31.82	-26.64	-23.43	-22.23	-19.44	-18.60	-17.72	-16.86	-15.63	-15.83	-15.05	-13.89	-13.93	-12.96	-12.62	-11.74	-10.96	-10.10	-9.510	-9.212	-9.010	-8.903	-9.073	-8.396	-8.646	-7.914	-7.737	-8.186	-6.884	-6.784	-6.360	-5.200	-4.876	-3.605	-2.191	-3.925	-5.724	-6.662	-6.860	-6.540	-6.678	-6.914	-7.100	-7.101	-6.618	-6.868	-7.039	-7.004	-6.986	-7.721	-7.723	-7.474	-7.507	-7.529	-6.864	-7.762	-7.538	-7.911	-8.354
245.0	-600.5	-466.4	-366.5	-153.4	930.3	 2008	479.1	-158.9	-155.4	-133.6	-121.8	-96.15	-82.58	-68.28	-58.01	-48.46	-41.29	-31.95	-30.50	-26.25	-24.77	-22.52	-20.73	-19.25	-18.25	-16.47	-16.45	-15.45	-15.26	-14.20	-14.52	-13.01	-11.98	-11.28	-10.86	-9.928	-9.471	-9.762	-9.328	-9.181	-8.822	-8.788	-8.407	-7.914	-8.376	-8.063	-6.708	-6.709	-6.266	-5.004	-5.271	-5.744	-4.301	-2.472	-2.475	-4.213	-6.253	-6.878	-6.766	-6.746	-6.680	-7.281	-6.959	-7.177	-7.324	-7.311	-6.407	-7.836	-7.023	-7.788	-7.542	-7.389	-7.219	-7.089	-7.337	-7.524	-8.105
250.0	-591.8	-479.6	-341.2	-234.9	38.87	 1019	 1874	958.0	18.13	-130.3	-112.9	-101.7	-82.23	-70.32	-54.56	-46.35	-40.44	-35.57	-29.97	-27.05	-24.16	-21.71	-21.06	-19.40	-18.30	-16.77	-15.96	-15.17	-14.81	-14.72	-13.50	-13.49	-11.98	-11.30	-10.72	-10.13	-9.804	-9.544	-9.202	-9.315	-8.418	-8.670	-8.329	-8.207	-8.274	-8.114	-6.699	-6.809	-6.254	-5.054	-5.502	-6.492	-5.915	-5.352	-3.995	-2.544	-2.357	-2.579	-5.078	-6.487	-6.838	-7.079	-7.033	-7.131	-7.489	-7.274	-6.863	-7.476	-6.960	-7.286	-7.567	-7.145	-6.923	-7.325	-7.335	-7.950	-8.051
255.0	-575.5	-492.6	-360.0	-187.8	-117.4	70.84	619.0	 2565	 1425	44.12	-117.3	-101.7	-82.30	-71.15	-57.05	-45.41	-38.97	-36.33	-30.01	-27.30	-25.62	-21.54	-19.50	-19.57	-18.17	-17.30	-16.53	-15.56	-14.46	-14.81	-14.50	-13.44	-11.09	-11.29	-10.91	-10.35	-9.380	-9.273	-9.409	-8.980	-8.519	-8.435	-8.539	-7.719	-8.525	-7.399	-6.759	-7.122	-6.081	-5.026	-5.529	-6.365	-6.081	-6.884	-6.046	-5.848	-5.173	-2.377	1.130	1.214	-4.137	-6.491	-7.020	-7.023	-7.464	-7.306	-7.119	-7.122	-7.130	-7.351	-7.704	-7.522	-6.986	-7.458	-7.467	-7.764	-8.152
260.0	-591.4	-526.9	-410.2	-244.4	-59.43	-87.52	5.357	 1098	 3337	 1199	-24.03	-96.45	-86.06	-69.12	-58.50	-44.69	-39.54	-35.18	-29.82	-25.87	-24.56	-21.65	-21.22	-19.87	-17.94	-17.15	-16.60	-15.76	-15.11	-14.32	-14.80	-13.50	-11.04	-11.46	-11.06	-10.28	-9.978	-9.618	-9.129	-9.142	-8.463	-8.612	-8.553	-8.194	-8.158	-7.716	-6.848	-6.040	-6.566	-5.168	-5.400	-6.501	-5.871	-6.873	-5.973	-6.616	-6.665	-6.005	-3.406	0.715	3.609	-0.519	-4.988	-7.069	-7.511	-7.203	-7.461	-7.765	-7.370	-7.174	-7.766	-7.176	-7.241	-7.440	-7.500	-7.888	-8.209
265.0	-589.3	-546.6	-400.4	-301.8	-99.21	3.342	-118.7	155.0	 1702	 3998	946.6	-66.31	-83.97	-65.98	-54.39	-46.38	-40.24	-34.72	-30.73	-27.44	-24.26	-21.68	-21.43	-19.69	-18.30	-16.87	-16.67	-15.40	-14.67	-14.00	-14.20	-12.52	-12.35	-10.92	-10.87	-9.996	-9.524	-10.33	-9.519	-9.079	-8.454	-8.652	-8.622	-8.456	-7.838	-7.645	-6.901	-6.504	-6.320	-5.337	-5.553	-6.311	-6.194	-6.469	-5.676	-6.618	-6.925	-7.131	-5.828	-4.677	-1.195	2.906	3.619	-2.429	-6.765	-7.289	-7.449	-7.672	-7.374	-6.836	-7.558	-7.415	-7.327	-7.462	-7.434	-7.829	-7.786
270.0	-587.6	-526.2	-384.9	-319.0	-211.7	-20.62	60.43	-43.54	325.7	 1794	 3848	 2543	173.9	-64.62	-54.76	-46.15	-39.55	-34.31	-28.94	-26.65	-23.52	-21.94	-21.16	-19.64	-18.26	-16.57	-16.06	-15.09	-15.53	-14.46	-13.98	-13.02	-11.78	-11.29	-11.19	-10.18	-9.359	-9.640	-9.240	-9.332	-8.963	-8.628	-8.695	-8.289	-8.316	-7.411	-6.814	-6.846	-6.509	-5.542	-5.604	-6.604	-6.105	-6.821	-5.592	-6.320	-6.505	-6.819	-6.794	-6.400	-5.676	-3.577	-0.552	1.875	3.499	1.431	-3.896	-6.521	-7.468	-6.976	-7.265	-7.699	-7.289	-7.348	-7.503	-7.773	-8.254
275.0	-590.8	-477.7	-385.4	-319.8	-246.6	-150.9	71.58	202.2	86.82	455.1	 1364	 4560	 4226	206.5	-48.09	-43.63	-38.18	-34.14	-27.90	-25.56	-24.15	-22.19	-20.65	-19.68	-17.04	-17.65	-16.00	-14.92	-15.38	-14.76	-14.64	-13.02	-12.41	-11.83	-10.50	-9.579	-10.01	-9.597	-9.517	-9.251	-8.787	-8.689	-7.943	-8.235	-7.879	-7.466	-6.714	-6.938	-6.660	-5.288	-5.607	-6.725	-6.292	-6.778	-6.319	-6.688	-6.612	-5.313	-6.527	-6.275	-6.498	-6.031	-5.302	-4.598	-3.419	2.625	9.924	7.349	-2.923	-7.025	-7.244	-7.767	-7.472	-7.470	-7.612	-7.494	-7.922
280.0	-585.9	-454.3	-383.7	-314.7	-252.9	-163.3	6.974	379.0	404.2	456.1	789.1	 2181	 6308	 3237	52.93	-42.73	-36.11	-32.01	-26.31	-25.63	-24.77	-22.51	-20.67	-18.43	-16.68	-17.48	-15.78	-15.42	-15.68	-14.45	-13.99	-13.10	-11.32	-11.30	-10.54	-9.751	-10.34	-9.043	-9.399	-9.163	-8.966	-8.388	-8.321	-8.092	-7.726	-7.831	-6.498	-6.901	-6.282	-5.484	-5.299	-6.143	-6.209	-6.850	-6.119	-6.779	-6.694	-5.743	-5.730	-4.937	-5.753	-5.821	-5.735	-5.099	-5.171	-3.509	1.676	11.25	12.33	2.869	-5.839	-7.641	-7.553	-7.567	-7.441	-7.746	-8.057
285.0	-520.5	-460.6	-350.6	-285.1	-217.8	-121.8	3.760	333.5	861.1	896.7	 1124	 1387	 3211	 6370	585.2	-12.04	-35.41	-33.00	-27.07	-26.07	-24.39	-21.77	-19.88	-17.89	-17.43	-16.64	-15.18	-15.00	-15.90	-13.77	-13.66	-12.85	-12.02	-11.89	-10.51	-9.824	-10.21	-9.071	-9.717	-8.988	-8.547	-8.608	-8.381	-8.208	-8.182	-7.410	-6.752	-6.799	-5.958	-5.393	-5.671	-6.204	-5.928	-6.434	-5.576	-6.456	-6.083	-6.420	-5.559	-4.493	-4.495	-4.972	-4.914	-4.358	-5.216	-4.300	-3.356	-0.289	5.488	12.96	8.804	-1.795	-7.157	-7.522	-7.422	-8.123	-7.866
290.0	-523.8	-414.3	-316.4	-250.8	-190.4	-69.11	96.99	387.7	994.3	 1611	 1859	 1694	 1533	 2699	 4218	 2258	122.7	-30.68	-27.11	-25.78	-22.49	-20.94	-19.94	-18.31	-17.15	-16.67	-15.35	-15.80	-15.32	-14.00	-13.98	-12.92	-12.47	-11.56	-10.84	-9.952	-10.08	-9.721	-9.332	-9.070	-8.436	-8.694	-8.668	-8.683	-8.064	-7.766	-6.685	-6.747	-5.889	-5.184	-5.237	-6.236	-6.259	-6.223	-5.817	-6.527	-6.108	-6.169	-5.788	-4.879	-4.334	-3.490	-3.063	-2.928	-3.532	-3.307	-3.498	-3.215	-3.060	-0.881	2.994	6.278	7.238	2.243	-3.561	-7.245	-8.015
295.0	-544.5	-361.2	-312.8	-231.6	-145.2	-41.43	143.0	499.1	 1003	 1740	 2555	 2159	 1326	838.0	 1283	 4405	 3246	158.4	-26.22	-25.44	-21.10	-20.97	-20.08	-18.48	-17.61	-15.96	-15.34	-15.24	-14.12	-13.95	-14.70	-12.88	-12.40	-11.56	-10.58	-9.845	-9.505	-9.528	-9.210	-8.991	-8.417	-8.967	-8.644	-8.103	-7.416	-7.481	-6.336	-6.440	-5.788	-5.154	-5.302	-6.255	-6.440	-6.434	-5.763	-6.654	-6.275	-5.734	-5.411	-4.585	-4.176	-3.417	-2.709	-1.313	-0.848	-2.698	-2.531	-4.174	-5.205	-5.320	-4.695	-4.189	-0.893	5.503	13.55	7.168	-2.781
300.0	-544.5	-348.1	-275.6	-200.2	-141.2	-41.95	195.5	530.5	 1022	 1687	 2529	 2606	 1349	477.3	361.7	 1614	 5406	 2451	67.39	-22.70	-20.50	-20.96	-18.70	-18.57	-17.55	-15.38	-15.62	-14.24	-14.79	-14.26	-14.06	-13.01	-11.86	-11.57	-10.77	-10.25	-9.483	-9.620	-9.367	-9.081	-8.536	-8.400	-8.386	-8.310	-7.890	-7.678	-6.626	-6.493	-5.777	-4.918	-5.269	-6.559	-6.092	-6.605	-6.229	-6.373	-6.029	-6.328	-5.428	-4.795	-4.612	-3.386	-3.411	-1.903	-1.039	-0.970	-1.900	-3.391	-5.154	-5.740	-6.693	-6.138	-5.652	-3.422	2.648	11.72	13.40
305.0	-538.8	-358.0	-266.7	-234.3	-131.5	-26.73	181.4	511.3	999.3	 1606	 2169	 2520	 1575	432.5	186.9	413.7	 2364	 5537	 1688	7.926	-19.30	-19.83	-20.05	-19.20	-17.21	-15.85	-15.89	-14.75	-13.94	-14.02	-13.46	-13.29	-11.13	-11.04	-11.00	-10.11	-9.753	-9.709	-9.732	-9.064	-8.419	-8.994	-8.285	-7.832	-7.971	-7.657	-6.844	-6.223	-5.575	-5.244	-4.805	-6.095	-5.796	-6.464	-6.324	-5.699	-6.367	-5.789	-5.580	-4.711	-4.495	-3.880	-3.247	-2.573	-1.465	-1.559	-1.496	-2.913	-5.535	-6.410	-6.721	-6.421	-6.531	-6.046	-5.140	-0.834	6.925
310.0	-523.7	-375.6	-255.7	-200.9	-107.7	-18.13	152.0	443.0	828.1	 1335	 1799	 1919	 1531	663.2	209.2	162.3	577.2	 2250	 4148	 2228	87.18	-17.70	-18.02	-17.46	-16.96	-15.26	-15.00	-14.88	-15.09	-13.91	-13.64	-13.10	-11.49	-11.81	-10.80	-9.968	-9.729	-9.489	-9.181	-8.833	-8.864	-8.667	-8.151	-8.208	-7.748	-7.705	-6.835	-6.487	-5.906	-5.126	-5.364	-5.968	-5.602	-6.286	-6.189	-5.779	-6.249	-6.013	-5.364	-5.117	-4.834	-4.169	-3.728	-3.099	-3.108	-3.384	-2.882	-3.164	-4.479	-5.639	-5.958	-7.039	-6.782	-6.933	-6.768	-6.034	-4.059
315.0	-536.1	-356.7	-247.9	-142.9	-93.23	-19.29	122.9	335.0	665.2	 1080	 1416	 1460	 1127	828.9	463.1	135.9	172.6	521.4	 1219	 4113	 2136	126.3	-15.84	-15.64	-16.85	-15.29	-14.86	-14.18	-14.07	-14.16	-12.98	-12.98	-11.80	-11.71	-10.93	-9.576	-9.497	-9.561	-9.224	-9.281	-8.549	-8.447	-8.447	-8.262	-7.226	-7.391	-6.334	-6.749	-6.067	-5.221	-5.146	-5.985	-5.412	-6.236	-6.044	-6.186	-6.085	-5.592	-5.793	-5.382	-4.818	-4.467	-3.884	-4.084	-3.266	-3.823	-4.117	-4.559	-5.215	-5.106	-4.408	-6.752	-6.488	-6.786	-7.162	-7.265	-6.986
320.0	-575.1	-363.7	-193.9	-148.4	-93.82	-32.50	103.4	290.3	543.8	869.5	 1154	 1181	900.2	619.7	684.2	258.5	100.5	144.2	285.8	 1535	 4650	 1750	57.16	-15.54	-16.09	-15.12	-15.63	-14.76	-14.09	-14.72	-13.87	-12.36	-10.61	-11.59	-10.74	-9.586	-9.475	-9.028	-9.790	-9.132	-8.406	-8.626	-8.507	-8.200	-7.467	-7.499	-6.510	-6.577	-5.848	-5.284	-5.054	-6.393	-5.917	-6.377	-6.172	-5.649	-6.195	-5.979	-5.840	-6.339	-5.016	-5.385	-4.572	-4.868	-3.840	-4.536	-4.046	-4.822	-5.539	-5.485	-5.290	-5.987	-5.686	-6.535	-7.022	-7.094	-7.261
325.0	-581.5	-378.7	-206.4	-104.5	-72.15	-23.03	106.7	279.8	465.4	739.0	978.4	 1010	783.7	476.0	574.1	470.9	120.6	67.20	85.11	366.2	 2194	 4630	 1285	11.26	-15.44	-15.45	-14.36	-14.83	-14.55	-14.18	-13.53	-12.57	-11.30	-11.68	-10.26	-9.666	-9.158	-9.452	-9.363	-8.893	-7.942	-8.933	-8.711	-7.916	-7.556	-7.578	-6.535	-6.662	-5.849	-4.910	-5.248	-6.383	-6.123	-6.364	-5.560	-5.812	-6.096	-6.006	-5.568	-6.175	-5.558	-5.421	-4.799	-4.982	-4.479	-4.431	-5.008	-5.206	-5.344	-5.891	-6.050	-6.274	-5.657	-5.867	-7.023	-6.829	-7.807
330.0	-563.0	-382.9	-189.8	-32.21	16.88	46.38	149.6	240.6	421.0	619.1	800.4	799.5	660.6	427.1	386.1	452.5	330.5	105.0	49.71	100.6	519.2	 1978	 3645	 1899	66.13	-14.21	-13.81	-14.21	-14.24	-13.68	-13.90	-12.27	-11.61	-11.19	-11.02	-9.784	-9.478	-9.753	-8.998	-9.351	-8.404	-8.793	-8.658	-8.183	-7.801	-7.663	-6.567	-6.516	-5.693	-4.627	-5.013	-5.893	-5.705	-6.140	-5.639	-6.122	-6.059	-5.887	-5.480	-5.837	-5.373	-5.803	-5.116	-5.423	-5.024	-5.338	-5.338	-5.254	-5.741	-5.723	-6.249	-6.399	-6.135	-6.114	-5.870	-6.349	-7.444
335.0	-523.1	-365.3	-157.9	32.51	112.0	170.4	266.5	253.0	400.3	528.6	634.0	656.0	553.1	426.9	333.7	288.0	357.9	299.0	81.04	55.76	135.3	451.8	 1136	 3829	 1593	98.00	-11.76	-14.07	-13.69	-13.20	-13.24	-12.33	-11.61	-11.56	-10.75	-9.688	-9.541	-9.710	-9.165	-9.143	-8.756	-8.892	-8.500	-8.404	-7.835	-7.640	-6.266	-6.493	-5.489	-4.745	-4.728	-5.991	-5.837	-5.833	-5.009	-5.594	-6.027	-6.136	-6.008	-5.439	-5.814	-5.457	-6.033	-5.436	-5.123	-5.203	-5.573	-4.975	-6.354	-6.480	-6.777	-6.050	-6.208	-6.719	-6.473	-6.704	-6.183
340.0	-509.4	-376.8	-114.1	74.44	198.6	300.6	346.3	346.8	390.9	470.1	563.5	566.6	517.5	412.2	324.7	255.0	247.2	373.3	200.8	59.72	57.45	119.6	264.7	 1510	 4182	 1402	54.30	-12.99	-12.71	-12.24	-12.67	-12.88	-11.63	-11.37	-10.30	-9.431	-9.034	-9.499	-9.164	-9.144	-8.374	-9.055	-8.378	-8.415	-8.207	-7.622	-6.472	-6.331	-5.718	-4.962	-4.466	-5.813	-5.656	-6.027	-5.289	-5.505	-6.241	-5.791	-5.568	-5.798	-5.768	-5.865	-6.056	-5.022	-5.455	-5.978	-5.550	-5.905	-6.119	-6.063	-6.369	-6.083	-6.607	-7.057	-6.794	-7.015	-6.779
345.0	-571.9	-331.1	-107.6	121.1	280.4	365.1	413.4	394.4	390.4	458.4	494.0	486.4	458.5	387.6	322.6	231.7	192.2	275.2	331.9	121.4	51.67	53.89	74.31	361.3	 2069	 4338	 1080	10.47	-12.32	-12.85	-12.69	-11.69	-11.96	-11.10	-9.951	-9.949	-9.577	-9.743	-9.287	-8.774	-8.539	-8.409	-8.486	-8.460	-7.771	-8.172	-6.807	-6.626	-6.004	-4.869	-4.373	-5.711	-5.128	-5.711	-5.141	-5.628	-5.923	-5.733	-5.674	-5.535	-5.685	-5.626	-6.083	-5.520	-5.357	-5.787	-5.885	-6.058	-6.192	-6.248	-6.581	-6.432	-6.370	-7.003	-6.849	-7.278	-6.923
350.0	-541.3	-344.7	-84.76	197.4	340.3	488.7	484.6	437.1	417.7	444.3	429.6	415.1	411.2	351.4	309.9	239.5	186.0	183.2	262.9	265.4	120.2	54.42	45.14	99.69	501.3	 1935	 3332	 1725	58.22	-11.22	-12.33	-11.39	-11.35	-10.92	-9.973	-9.412	-10.05	-9.258	-8.729	-8.651	-8.866	-8.637	-8.443	-8.109	-7.912	-7.706	-6.687	-6.474	-5.843	-4.578	-4.797	-5.500	-5.140	-5.733	-4.826	-4.879	-5.374	-5.873	-5.427	-5.333	-5.788	-5.822	-5.896	-5.790	-6.400	-5.734	-6.035	-6.147	-6.132	-6.397	-6.432	-6.335	-6.463	-6.806	-7.169	-7.139	-7.404
355.0	-527.3	-354.8	-71.12	161.6	396.3	561.6	570.7	469.7	433.6	404.7	406.4	356.6	378.7	344.3	312.8	250.0	209.9	180.9	178.7	249.6	268.4	104.5	57.92	53.11	137.1	446.9	 1079	 3566	 1362	81.02	-11.22	-10.97	-11.03	-10.52	-9.703	-9.443	-9.339	-9.826	-9.115	-8.821	-8.461	-8.853	-8.615	-8.190	-8.732	-7.366	-6.861	-6.613	-5.480	-4.473	-4.879	-5.693	-4.855	-5.420	-4.888	-4.450	-5.222	-5.081	-5.582	-5.514	-5.392	-5.496	-5.876	-5.990	-6.007	-5.836	-6.201	-6.256	-6.322	-6.525	-6.305	-6.063	-6.300	-6.549	-6.962	-6.880	-7.531
360.0	-552.2	-352.3	-65.92	218.7	464.7	594.6	573.5	486.0	440.9	411.6	383.4	340.5	348.6	343.4	318.3	276.3	236.3	201.4	184.0	191.8	297.8	211.7	86.14	60.24	64.04	122.6	259.6	 1483	 4040	 1189	39.44	-10.07	-10.42	-9.872	-9.713	-9.500	-9.106	-9.804	-9.157	-9.389	-7.953	-8.381	-8.381	-8.377	-8.530	-7.621	-6.356	-6.393	-5.396	-4.728	-4.677	-5.539	-4.581	-5.131	-4.844	-4.925	-5.522	-5.074	-6.077	-5.474	-5.567	-5.780	-5.510	-5.567	-6.199	-6.117	-6.407	-6.366	-6.471	-6.496	-6.195	-5.992	-6.137	-5.939	-6.733	-6.599	-6.929
365.0	-558.2	-315.8	-78.60	249.0	508.2	571.3	587.6	501.8	424.8	382.2	347.5	336.2	343.1	359.6	338.6	313.5	271.1	236.5	203.0	188.1	230.3	297.9	157.4	78.75	59.11	62.65	81.66	362.3	 2132	 4032	920.2	4.188	-10.09	-11.06	-9.373	-8.976	-8.320	-9.292	-9.192	-9.197	-8.316	-8.430	-8.430	-8.105	-8.082	-7.534	-6.370	-6.388	-5.838	-4.372	-4.626	-5.407	-4.381	-4.978	-4.870	-4.956	-5.320	-5.664	-5.917	-5.413	-5.540	-6.026	-5.303	-6.078	-5.952	-6.198	-6.252	-6.299	-6.649	-6.402	-6.403	-6.192	-6.415	-6.078	-7.068	-6.711	-6.850
370.0	-531.2	-323.9	-61.67	237.1	476.8	589.0	576.7	478.5	419.9	369.0	341.0	335.3	347.0	389.3	407.6	389.6	348.9	307.1	262.3	218.8	206.5	244.9	255.6	154.0	84.36	64.82	53.72	103.1	519.1	 1927	 3257	 1537	45.08	-9.632	-9.247	-8.826	-8.553	-8.945	-9.005	-8.922	-8.405	-8.248	-8.725	-7.675	-7.710	-7.556	-6.723	-6.425	-5.425	-4.458	-4.580	-5.235	-4.813	-5.069	-4.733	-5.052	-5.146	-5.601	-5.767	-5.461	-5.388	-6.070	-5.652	-6.183	-5.992	-6.060	-6.240	-6.040	-6.602	-6.334	-5.993	-6.269	-6.245	-6.113	-6.235	-6.587	-6.537
375.0	-548.2	-363.1	-39.42	243.5	524.0	559.8	559.0	471.8	404.7	378.9	355.0	338.1	399.7	461.6	490.9	486.9	453.6	396.9	342.2	275.9	222.9	207.2	239.8	269.2	143.0	84.33	61.54	57.24	136.7	442.3	 1152	 3560	 1101	58.93	-8.364	-8.414	-8.294	-9.478	-8.753	-8.361	-8.481	-9.022	-8.607	-8.620	-7.675	-7.221	-6.172	-6.035	-5.467	-4.669	-4.415	-5.152	-4.837	-5.623	-4.574	-5.324	-5.504	-5.347	-5.352	-6.062	-5.702	-6.382	-5.847	-6.598	-6.201	-6.412	-6.563	-6.371	-6.504	-6.402	-5.947	-6.236	-6.102	-5.803	-6.083	-5.945	-6.590
380.0	-576.4	-369.7	-18.93	231.5	444.1	554.0	547.2	458.5	381.1	346.1	345.3	352.4	424.8	503.6	573.5	582.5	528.5	480.9	405.6	316.5	249.7	205.6	205.1	268.6	209.3	110.8	72.66	54.70	60.34	115.6	273.4	 1597	 3605	926.5	23.00	-8.431	-8.462	-8.440	-8.617	-8.398	-8.320	-8.652	-8.468	-8.138	-7.431	-7.388	-6.286	-6.279	-5.367	-4.558	-4.243	-5.257	-4.830	-5.470	-4.837	-5.295	-5.508	-5.868	-5.576	-6.021	-5.922	-6.380	-5.891	-6.130	-6.252	-6.205	-6.430	-6.485	-6.036	-6.055	-5.832	-6.159	-5.974	-5.012	-5.655	-5.798	-6.368
385.0	-589.6	-373.5	-19.39	245.7	443.6	524.1	512.8	414.5	365.8	342.1	354.1	378.6	462.6	569.2	644.9	675.1	621.9	547.8	453.8	352.1	275.2	218.8	196.9	218.5	270.8	174.0	90.11	63.90	51.07	49.95	76.29	391.4	 2084	 3434	646.4	-1.326	-7.181	-8.332	-8.801	-8.347	-8.115	-8.590	-8.210	-8.171	-7.378	-7.339	-6.609	-6.841	-5.109	-4.658	-4.295	-5.158	-4.992	-5.014	-4.847	-5.522	-5.757	-5.600	-5.655	-5.851	-6.191	-5.803	-6.250	-6.303	-6.197	-6.241	-6.118	-5.898	-5.842	-5.928	-5.688	-5.773	-5.304	-4.868	-5.500	-5.939	-5.863
390.0	-575.6	-347.7	-26.50	243.9	442.6	463.2	436.5	360.2	339.2	321.4	333.4	391.3	512.8	631.0	729.5	768.2	725.9	623.6	510.8	394.9	299.7	242.3	211.1	191.9	222.7	243.9	146.2	84.87	62.80	45.67	40.26	100.5	516.6	 1795	 2676	 1115	31.97	-7.482	-7.960	-7.882	-7.870	-8.018	-8.006	-7.785	-7.374	-7.534	-6.666	-6.611	-5.347	-4.620	-4.381	-4.997	-4.921	-5.436	-4.978	-5.457	-5.784	-5.713	-5.679	-5.945	-6.231	-5.959	-5.866	-6.029	-6.054	-6.282	-5.986	-5.619	-5.919	-5.912	-5.416	-5.440	-5.498	-4.878	-4.584	-5.412	-5.693
