Sample:	'1
File name:	±ÃÕ¾»Ò°×É«60±¶.FD3
Run date:	'10:51:15, 01/10/2024
Operator:	Administrator
Comment:	'

Instrument
Model:	F-2700 FL Spectrophotometer
Serial number:	23B8-004
ROM Version:	4J14000 07

Instrument parameters
Measurement type:	3-D scan
Data mode:	Fluorescence
EX  Start WL:	220.0 nm
EX  End WL:	600.0 nm
EX Sampling interval:	5.0 nm
EM  Start WL:	230.0 nm
EM  End WL:	650.0 nm
EM Sampling interval:	5.0 nm
Scan speed:	12000 nm/min
EX Slit:	5.0 nm
EM Slit:	5.0 nm
PMT Voltage:	700 V
Response:	Auto 
Corrected spectra:	Off
Contour interval:	50.000

Peak integration
Integration method:	Rectangular
Sensitivity:	1
Threshold:	1.000

Peaks
No.	ApexEX/EM(nm)	Height(Data)
1	230.0/340.0	5885
2	235.0/510.0	164.5
3	240.0/525.0	164.0
4	245.0/535.0	147.1
5	250.0/550.0	136.4
6	255.0/565.0	140.1
7	260.0/575.0	141.6
8	265.0/585.0	151.0
9	270.0/600.0	152.4
10	275.0/310.0	2432
11	275.0/335.0	3332
12	275.0/610.0	151.2
13	280.0/625.0	132.9
14	330.0/375.0	310.7
15	335.0/380.0	315.0
16	340.0/385.0	275.4
17	350.0/400.0	191.1
18	355.0/405.0	166.3
19	360.0/410.0	127.0
20	365.0/420.0	118.4
21	370.0/425.0	107.8
22	375.0/430.0	82.43
23	380.0/440.0	78.39
24	385.0/445.0	70.90
25	390.0/450.0	56.82
26	395.0/460.0	50.95
27	400.0/345.0	25.87
28	400.0/465.0	45.07
29	405.0/470.0	35.28
30	405.0/610.0	3.631
31	410.0/480.0	30.51
32	410.0/620.0	3.928
33	415.0/485.0	27.49
34	415.0/625.0	3.927
35	420.0/490.0	22.10
36	420.0/635.0	3.177
37	425.0/500.0	21.75
38	425.0/645.0	3.511
39	430.0/505.0	19.94
40	440.0/520.0	14.91
41	445.0/525.0	12.86
42	455.0/345.0	23.82
43	455.0/540.0	9.418
44	465.0/555.0	5.878
45	470.0/560.0	4.853
46	475.0/340.0	23.34
47	485.0/580.0	3.070
48	490.0/585.0	2.757
49	535.0/270.0	470.1
50	540.0/335.0	13.52
51	555.0/305.0	10.68

Data points
	220.0	225.0	230.0	235.0	240.0	245.0	250.0	255.0	260.0	265.0	270.0	275.0	280.0	285.0	290.0	295.0	300.0	305.0	310.0	315.0	320.0	325.0	330.0	335.0	340.0	345.0	350.0	355.0	360.0	365.0	370.0	375.0	380.0	385.0	390.0	395.0	400.0	405.0	410.0	415.0	420.0	425.0	430.0	435.0	440.0	445.0	450.0	455.0	460.0	465.0	470.0	475.0	480.0	485.0	490.0	495.0	500.0	505.0	510.0	515.0	520.0	525.0	530.0	535.0	540.0	545.0	550.0	555.0	560.0	565.0	570.0	575.0	580.0	585.0	590.0	595.0	600.0
230.0	177.7	9999.9	9999.9	9999.9	249.0	39.56	30.73	26.38	22.34	21.79	20.66	19.64	16.58	14.90	12.80	10.79	9.529	8.972	7.856	7.184	6.169	5.574	5.314	4.943	4.492	4.380	3.704	3.464	3.469	3.249	2.997	2.837	2.812	2.664	2.266	2.135	1.877	1.783	1.616	1.620	1.721	1.954	2.103	1.679	1.381	1.451	13.33	86.75	164.7	128.8	52.20	7.016	1.457	0.936	0.834	0.798	0.674	0.651	0.589	0.598	0.550	0.521	0.443	0.468	0.446	0.371	0.370	0.381	0.367	0.332	0.262	0.296	0.289	0.231	0.234	0.220	0.205
235.0	240.5	2539	9999.9	9999.9	6080	395.5	45.67	34.39	27.09	27.82	24.48	21.73	18.82	15.60	14.68	11.63	10.45	9.141	7.998	8.073	6.026	5.877	5.348	5.197	4.795	4.512	3.970	3.635	3.450	3.268	3.461	2.988	2.752	2.698	2.335	2.350	1.929	1.778	1.682	1.544	1.543	1.718	2.008	1.976	1.897	1.434	4.103	21.23	53.28	96.01	149.0	171.0	34.29	15.22	1.479	0.912	0.880	0.711	0.681	0.698	0.607	0.482	0.516	0.595	0.475	0.482	0.396	0.375	0.377	0.274	0.334	0.384	0.323	0.256	0.238	0.284	0.220
240.0	282.7	743.7	3068	9999.9	9999.9	5091	243.4	50.78	39.31	35.33	29.34	25.50	22.21	17.73	15.63	13.96	10.76	9.583	9.099	7.954	7.054	6.763	5.800	5.254	4.984	4.459	4.307	4.069	3.423	3.429	3.313	3.070	2.794	2.685	2.497	2.301	2.076	1.779	1.909	1.569	1.647	1.626	1.642	1.569	2.095	1.935	2.345	5.824	13.03	25.59	68.13	179.1	226.1	178.5	29.60	9.068	1.200	0.812	0.743	0.896	0.704	0.567	0.548	0.568	0.599	0.503	0.426	0.381	0.361	0.319	0.401	0.360	0.398	0.329	0.251	0.327	0.265
245.0	200.2	444.4	842.9	4612	9999.9	9999.9	3896	124.8	56.82	46.34	35.45	30.31	26.58	20.27	17.86	14.59	11.93	11.03	9.266	9.076	7.056	6.495	5.632	5.451	5.331	5.084	4.525	4.335	3.972	3.616	3.055	3.090	2.972	2.586	2.674	2.596	2.259	1.950	1.783	1.613	1.525	1.670	1.587	1.476	1.589	2.183	2.425	3.015	4.106	6.698	16.42	53.14	137.5	260.3	270.6	155.7	24.05	3.016	1.033	0.915	0.807	0.741	0.616	0.632	0.625	0.600	0.614	0.462	0.390	0.491	0.447	0.367	0.358	0.366	0.340	0.388	0.336
250.0	117.6	273.3	509.7	1222	5208	9999.9	9999.9	9999.9	242.6	74.50	54.51	43.59	33.50	25.48	20.22	17.21	14.36	12.90	10.82	9.449	8.315	7.089	6.642	6.088	5.803	5.257	4.752	4.856	4.602	4.026	3.651	3.326	3.148	2.721	2.801	2.621	2.516	2.198	2.022	1.910	1.712	1.590	1.636	1.388	1.483	1.645	1.777	2.504	3.015	3.137	4.990	13.04	32.73	76.05	143.0	223.8	276.5	182.6	132.3	16.69	3.813	0.988	0.917	0.897	0.762	0.701	0.699	0.569	0.563	0.516	0.492	0.415	0.427	0.404	0.416	0.408	0.370
255.0	99.59	136.1	315.1	662.2	1346	2917	9999.9	9999.9	9999.9	302.3	89.16	66.85	47.00	35.26	26.29	21.02	17.12	14.55	12.48	9.847	8.787	8.205	7.564	6.422	6.873	5.509	5.185	4.917	4.877	4.840	4.251	3.584	3.140	2.942	3.104	2.641	2.625	2.380	2.072	1.978	2.039	1.705	1.795	1.692	1.508	1.743	1.612	1.713	1.912	2.323	3.398	5.130	8.738	18.03	32.89	52.25	91.34	203.8	422.3	323.2	42.58	22.77	2.462	1.433	0.976	0.972	0.808	0.806	0.700	0.652	0.572	0.557	0.460	0.412	0.503	0.524	0.484
260.0	98.06	105.1	164.2	446.3	667.2	815.3	4203	9999.9	9999.9	9999.9	235.8	92.58	64.16	47.23	32.17	26.15	19.13	16.19	13.84	11.93	10.88	8.836	7.776	7.147	7.068	6.164	6.014	5.300	5.174	5.223	4.279	4.171	3.317	3.480	2.984	3.093	2.605	2.193	2.459	2.111	2.157	1.892	1.717	1.713	1.744	1.753	1.636	1.579	1.446	1.506	2.153	3.519	4.724	5.949	8.416	12.88	21.81	52.09	165.7	359.1	529.4	308.7	38.06	14.96	1.568	1.181	1.115	0.893	0.831	0.702	0.746	0.652	0.473	0.589	0.472	0.589	0.499
265.0	107.1	107.5	118.2	225.5	575.9	498.2	1106	7594	9999.9	9999.9	2631	168.6	89.74	59.25	40.21	30.75	25.00	19.69	14.97	14.15	12.01	9.922	8.898	8.495	7.206	6.867	6.221	6.008	5.717	5.394	4.625	4.554	4.134	3.534	3.200	3.123	2.639	2.674	2.343	2.304	2.315	1.953	1.886	1.809	2.103	1.752	1.726	1.637	1.361	1.260	1.528	2.061	3.331	4.690	4.221	4.529	6.212	13.06	38.88	99.28	273.2	540.0	646.9	271.8	29.48	5.263	1.363	1.268	1.025	0.939	0.980	0.701	0.811	0.779	0.566	0.767	0.643
270.0	229.3	243.9	211.6	164.9	306.3	567.5	619.9	1918	9398	9999.9	9999.9	9999.9	202.0	100.8	65.12	44.56	33.92	26.18	20.42	16.61	14.02	11.83	10.64	9.829	8.470	8.022	7.377	6.987	6.342	5.993	5.400	5.271	4.756	4.401	3.756	3.676	3.181	2.947	2.784	2.589	2.522	2.555	2.450	2.423	2.587	2.430	2.339	2.139	1.812	1.552	1.421	1.608	1.917	2.695	3.606	4.165	4.356	4.837	10.24	23.63	64.01	149.4	304.9	470.1	434.8	425.8	164.8	18.58	5.591	1.468	1.356	1.139	1.065	0.994	0.808	0.857	0.828
275.0	621.7	662.1	502.5	237.9	177.1	297.5	740.2	834.8	2337	3883	9999.9	9999.9	9999.9	219.2	107.0	68.25	46.95	35.08	27.33	21.83	17.99	14.95	12.83	11.70	10.25	8.768	8.792	7.827	7.511	7.184	6.353	5.632	5.598	5.655	5.404	5.417	4.740	4.310	3.663	3.316	3.474	3.402	3.810	3.386	3.896	3.838	3.859	3.525	3.098	2.363	1.905	1.840	1.713	1.821	2.061	2.694	4.194	5.363	5.988	7.200	16.05	35.22	69.78	108.5	136.5	364.9	756.1	821.6	259.8	26.19	3.637	1.811	1.505	1.292	1.166	1.177	1.154
280.0	1111	1217	877.6	350.0	170.6	200.4	519.7	935.6	899.2	1238	6428	9999.9	9999.9	9999.9	178.4	95.92	63.62	45.83	34.11	24.82	21.27	17.25	14.50	12.39	11.12	10.27	9.306	8.542	7.960	7.668	7.253	6.337	6.744	7.021	7.236	7.614	6.500	6.066	5.578	4.963	4.975	4.667	4.948	5.109	5.529	5.645	5.765	5.713	4.557	3.080	2.581	1.949	1.913	1.727	1.945	2.214	2.501	4.066	5.778	5.693	6.324	9.907	17.59	26.55	33.16	89.72	261.2	636.8	929.4	346.6	41.67	17.66	2.429	2.012	1.584	1.567	1.620
285.0	1658	1781	1238	477.6	172.9	185.1	309.3	839.6	1002	746.2	1989	9999.9	9999.9	9999.9	1467	142.7	87.67	59.53	42.06	30.88	25.39	19.86	16.39	14.51	12.31	11.39	10.09	9.403	8.884	8.082	7.785	7.040	7.579	8.376	9.911	9.854	8.637	8.005	7.324	6.663	5.948	6.125	6.423	7.064	7.732	8.204	7.868	7.743	5.929	4.188	2.935	2.329	2.137	1.827	1.982	2.045	2.282	2.641	3.898	5.654	6.410	6.119	6.536	8.488	10.41	22.86	61.78	162.0	402.1	748.4	938.5	309.1	33.14	8.281	2.326	2.011	1.886
290.0	2143	2322	1546	585.5	214.1	192.1	275.9	519.3	1052	1186	1170	2961	9999.9	9999.9	9999.9	9999.9	404.8	92.95	59.84	42.59	32.02	25.47	20.67	17.57	15.21	13.05	11.57	10.51	9.829	9.050	8.322	7.823	8.314	10.21	11.75	12.00	11.78	10.71	9.387	8.561	7.638	7.439	7.905	8.626	9.809	10.22	9.879	9.291	7.320	5.159	3.587	2.664	2.199	2.158	2.012	2.098	2.155	2.580	2.973	3.585	5.019	6.514	7.366	6.920	6.107	8.691	17.31	39.35	93.76	194.0	386.2	550.9	714.2	504.7	184.1	22.60	8.916
295.0	2323	2497	1673	629.9	240.5	223.8	302.9	459.4	753.7	1397	1574	1493	2862	3977	9999.9	9999.9	8769	148.4	93.80	62.43	43.07	33.96	26.53	22.36	18.07	15.36	14.20	12.33	10.80	10.14	9.809	8.674	8.753	10.96	13.28	12.96	13.23	12.12	10.59	9.601	8.338	8.501	8.839	9.534	10.34	10.94	10.45	9.699	7.632	5.437	3.729	2.950	2.422	2.079	2.287	2.248	2.644	2.789	3.107	3.246	4.185	4.735	6.204	7.961	8.824	7.843	7.799	12.59	24.31	46.49	88.87	126.0	183.3	337.0	762.0	962.0	320.3
300.0	2390	2502	1680	659.7	295.0	286.2	385.0	566.4	816.4	1245	1994	1575	1389	1383	6154	9999.9	9999.9	6633	134.6	85.74	58.09	42.35	31.47	26.70	22.06	17.57	15.48	13.74	12.21	11.13	10.09	9.496	9.196	11.38	12.96	13.71	13.00	12.57	11.11	10.42	9.240	8.906	9.447	9.683	10.56	11.46	10.93	10.38	8.100	5.657	4.025	3.068	2.616	2.528	2.597	2.787	3.171	3.283	3.432	3.712	4.472	4.931	5.626	6.847	8.713	9.921	8.901	7.887	9.538	14.24	23.08	31.31	43.62	80.45	229.0	591.9	966.3
305.0	2513	2504	1679	706.1	351.5	374.7	545.6	763.5	1057	1429	2026	2252	1386	942.0	1864	9999.9	9999.9	9999.9	926.5	117.6	77.80	53.27	40.05	30.83	24.68	20.04	17.65	15.68	13.83	12.71	11.05	9.977	10.05	11.97	13.80	13.68	13.67	13.13	12.23	11.48	9.883	9.560	9.836	9.918	10.90	11.70	10.88	10.51	8.189	5.876	4.174	3.656	3.106	2.947	2.871	3.247	3.715	3.849	4.057	4.777	5.523	5.978	6.614	7.045	8.248	9.454	10.68	10.68	8.063	7.944	9.294	10.55	12.98	21.06	54.21	143.0	351.0
310.0	2533	2522	1691	786.4	440.7	501.2	712.9	1033	1412	1783	2169	2432	2117	1210	1028	2785	9999.9	9999.9	9999.9	9999.9	304.8	79.75	55.17	40.06	31.50	24.59	21.18	18.18	15.91	14.35	12.29	11.05	11.48	12.00	13.80	14.42	14.36	14.08	12.60	11.84	11.02	10.43	10.94	11.15	11.38	12.13	11.48	10.58	8.637	6.296	4.357	4.058	3.417	3.454	3.640	3.793	4.658	4.696	5.540	6.311	6.553	7.366	8.522	8.718	9.482	9.593	10.05	10.66	10.32	9.842	8.518	7.068	6.794	8.340	15.50	35.18	82.23
315.0	2446	2391	1670	840.2	498.3	552.2	785.8	1147	1548	1945	2262	2293	2132	1746	976.7	1149	2698	3727	9999.9	9999.9	6382	302.7	81.77	57.21	40.75	31.67	25.61	20.52	18.26	16.14	14.05	12.71	12.19	12.83	13.73	14.19	15.23	14.38	13.34	11.95	11.28	11.02	11.43	10.82	11.79	11.72	10.74	10.57	8.463	6.049	4.880	4.553	3.968	3.747	4.025	4.283	5.014	5.192	6.095	7.044	7.178	8.223	9.117	9.287	9.921	9.544	10.06	9.534	9.258	9.279	9.749	8.666	6.746	6.014	7.125	11.46	22.12
320.0	2467	2454	1856	1013	596.3	588.4	813.2	1162	1564	1967	2272	2257	1937	1782	1277	833.5	1076	1240	5572	9999.9	9999.9	5291	108.7	76.85	51.85	38.97	30.04	25.13	21.78	18.72	15.99	14.32	12.89	13.69	14.03	14.53	14.67	15.07	13.67	12.57	11.73	11.53	12.04	11.28	11.71	11.80	11.04	11.23	9.194	6.888	5.603	5.083	4.293	4.068	4.304	4.267	4.848	5.578	6.452	7.067	7.880	7.999	9.321	9.278	9.999	9.959	9.641	9.656	9.399	8.138	8.229	8.547	8.186	7.195	5.591	6.205	8.522
325.0	2929	3114	2791	1918	881.8	715.0	873.7	1226	1666	2096	2444	2473	2089	1724	1621	1054	798.2	719.1	1601	9995	9999.9	9999.9	730.6	101.3	70.24	50.09	35.17	29.08	24.60	20.37	17.70	14.97	14.28	14.73	15.39	15.54	16.12	16.61	15.34	14.48	13.63	13.24	13.17	12.86	13.29	13.90	13.37	13.73	12.41	10.28	8.496	8.609	6.584	5.396	4.700	4.791	5.246	5.877	6.459	7.287	7.739	8.796	9.654	9.977	10.68	10.28	10.41	10.21	9.799	8.996	8.511	7.823	8.055	9.117	7.446	6.095	6.331
330.0	4239	4881	4879	4294	2582	1245	1072	1459	1980	2572	3068	3158	2782	2170	1860	1619	1163	816.0	805.3	2575	9999.9	9999.9	9999.9	9999.9	265.0	72.65	51.25	38.03	29.83	24.67	21.25	17.92	16.94	16.98	18.32	19.88	21.33	21.48	20.90	18.96	16.96	16.66	16.62	16.57	18.30	19.20	19.08	20.86	19.73	17.56	16.82	18.10	13.86	9.985	7.320	5.977	6.323	6.605	7.158	8.393	9.107	9.985	10.93	12.03	12.72	12.70	13.13	12.37	12.01	11.28	10.36	9.591	9.240	9.179	9.184	9.069	8.862
335.0	4793	5359	5727	5390	3538	1589	1165	1511	2036	2656	3193	3332	2974	2347	1884	1644	1513	989.6	655.2	897.0	2476	3395	9999.9	9999.9	9999.9	298.2	73.27	52.49	40.18	31.71	25.97	20.98	19.98	19.51	21.01	21.37	23.86	24.18	23.41	19.97	18.69	18.86	18.56	19.31	20.60	21.61	21.42	23.39	22.92	20.49	21.03	23.01	18.11	13.21	9.041	7.053	6.742	6.850	7.462	8.403	9.121	10.96	11.70	12.35	13.52	13.50	13.24	12.97	12.98	11.99	10.97	10.37	9.803	8.930	8.798	8.682	9.098
340.0	4658	5354	5885	5462	3592	1621	1185	1476	1963	2525	3034	3171	2848	2280	1826	1506	1386	1146	635.4	504.6	779.8	996.6	5158	9999.9	9999.9	4737	169.7	66.66	48.68	36.77	29.55	22.99	21.00	20.19	21.03	22.56	25.21	25.01	23.17	20.42	18.59	18.49	18.24	19.09	20.12	21.67	21.57	23.69	23.37	20.61	21.00	23.34	18.35	13.37	9.389	7.262	6.922	6.958	7.356	8.378	8.806	10.35	10.53	11.83	12.34	13.09	12.90	12.94	12.30	11.91	10.56	10.45	9.276	9.146	8.558	7.771	7.767
345.0	4604	5336	5869	5588	3657	1657	1192	1503	1986	2520	3001	3092	2802	2264	1822	1482	1239	1147	770.5	438.7	408.6	449.6	1383	8999	9999.9	9999.9	648.8	88.42	60.71	44.85	33.65	25.57	22.17	21.98	21.98	22.99	25.87	24.70	23.11	21.27	18.74	18.10	18.19	18.12	19.93	21.37	21.77	23.82	23.73	20.89	20.96	23.24	18.92	13.55	9.248	7.218	7.322	7.324	7.625	8.668	8.886	10.16	10.77	11.51	12.03	12.53	12.34	12.12	11.89	11.39	10.50	9.996	9.317	8.651	8.342	8.093	7.571
350.0	4308	5053	5403	5233	3577	1752	1350	1652	2111	2566	2949	2994	2667	2150	1745	1421	1150	945.6	807.9	544.3	337.1	310.9	496.4	2187	9982	9999.9	9999.9	9999.9	244.2	61.91	44.52	31.75	25.28	23.45	22.96	23.50	24.60	24.72	22.36	20.29	18.29	17.38	17.48	17.93	18.66	20.36	20.50	21.74	21.70	19.41	19.83	22.28	18.44	13.38	9.623	7.440	7.493	7.662	8.180	9.057	9.482	10.38	11.10	11.34	11.83	12.30	11.99	11.75	11.46	10.72	9.710	9.161	8.872	8.539	8.086	7.399	7.305
355.0	3956	4399	4607	4346	3132	1708	1540	1920	2356	2669	2894	2801	2451	1976	1589	1312	1058	822.9	624.2	579.4	399.2	260.1	266.0	610.1	2336	3132	9999.9	9999.9	9999.9	283.3	62.56	43.09	31.72	26.70	24.13	24.01	23.41	23.90	21.66	19.26	18.04	16.50	16.54	16.79	16.86	18.29	17.78	18.94	18.90	16.00	16.86	18.77	16.04	12.08	8.943	7.723	7.688	8.182	9.053	9.794	10.88	11.22	11.44	11.55	11.51	11.37	11.37	10.76	10.90	9.821	8.986	8.334	8.195	7.233	7.509	6.760	7.168
360.0	3473	3859	3953	3718	2717	1569	1486	1858	2284	2548	2656	2534	2219	1774	1434	1183	952.8	741.7	533.7	454.6	460.4	282.4	201.1	246.1	618.0	808.5	4479	9999.9	9999.9	4492	84.36	56.28	39.98	31.39	25.86	24.41	23.67	23.98	21.16	18.42	15.97	15.34	15.56	15.40	15.87	17.05	16.22	17.67	17.32	14.39	14.74	16.31	13.91	11.07	8.474	7.328	7.651	8.258	8.585	9.686	10.81	10.69	11.34	11.04	10.57	10.78	10.94	9.802	9.943	9.147	7.728	7.555	7.468	6.944	6.786	6.129	6.565
365.0	2946	3286	3352	3198	2335	1408	1324	1690	2064	2279	2361	2238	1934	1556	1251	1041	835.0	656.3	468.0	349.8	396.0	364.7	194.9	152.3	225.6	266.4	1114	7685	9999.9	9999.9	3583	77.25	51.84	37.80	29.34	25.91	23.86	23.57	20.61	18.30	15.83	14.89	14.42	13.72	14.51	15.29	15.28	15.56	15.03	12.74	13.11	14.26	12.12	9.885	7.471	6.917	7.151	7.458	8.133	8.626	9.440	9.927	10.10	10.46	10.12	9.911	9.557	8.924	8.885	8.053	7.432	6.928	7.136	6.437	5.925	5.490	5.520
370.0	2452	2712	2718	2569	1925	1233	1211	1529	1854	2013	2052	1938	1637	1310	1052	873.4	721.9	565.5	398.6	279.3	261.8	333.7	286.8	153.9	132.9	134.9	325.2	1828	8570	9999.9	9999.9	9999.9	227.5	53.97	38.03	30.81	26.00	23.48	20.30	17.61	15.59	14.10	13.30	13.15	13.27	13.25	12.87	13.44	12.29	10.96	10.83	12.13	10.22	8.544	6.838	6.180	6.594	7.185	7.476	8.188	8.353	8.767	9.179	9.222	8.798	8.751	8.089	7.724	7.666	7.198	6.642	6.154	5.760	5.548	5.120	4.934	4.980
375.0	2132	2339	2286	2118	1654	1143	1166	1456	1799	1893	1907	1787	1512	1170	930.9	766.2	641.3	515.9	371.0	257.1	216.9	233.1	310.7	267.8	154.3	128.8	149.1	480.1	1989	2971	9999.9	9999.9	9999.9	271.3	52.42	38.35	31.59	25.22	21.18	18.00	15.45	14.28	12.83	12.97	12.56	12.53	12.23	12.46	11.16	9.508	9.492	10.40	9.078	7.601	6.782	5.933	6.136	6.864	7.273	7.832	8.134	8.431	8.899	8.614	8.366	7.965	7.311	7.513	6.883	6.662	6.368	5.119	5.210	4.930	4.480	4.584	4.326
380.0	1959	2093	2014	1841	1459	1037	1069	1330	1587	1712	1738	1629	1398	1065	835.5	676.9	577.0	469.5	336.1	241.8	201.5	198.6	246.4	315.0	221.9	146.4	125.9	182.7	514.8	747.3	4123	9999.9	9999.9	3801	157.9	47.21	36.53	29.77	22.78	19.20	15.54	14.19	12.58	12.63	12.05	11.60	11.06	11.34	10.24	8.958	8.617	9.717	8.385	7.187	6.198	5.768	5.787	6.221	6.448	7.253	7.290	7.869	8.584	7.830	7.913	7.327	6.866	6.802	6.294	6.180	5.813	5.334	4.931	4.637	4.209	3.941	4.211
385.0	1603	1726	1683	1588	1235	889.7	915.1	1110	1338	1434	1466	1379	1177	915.0	704.8	567.0	481.7	398.1	292.8	212.1	180.4	173.1	182.2	252.8	275.4	157.0	112.2	109.7	178.1	231.2	1011	6603	9999.9	9999.9	2993	61.65	43.16	33.51	24.70	19.50	15.41	13.97	12.48	11.49	11.27	10.61	10.32	10.20	9.217	7.904	7.684	8.273	7.491	6.559	5.485	5.180	5.590	5.839	5.985	6.275	6.398	6.663	7.228	6.714	7.104	6.209	6.175	5.723	5.714	5.261	5.111	4.791	4.216	4.399	3.923	3.548	3.791
390.0	1286	1338	1293	1214	957.8	722.0	745.4	896.3	1074	1146	1157	1092	939.7	716.8	561.7	454.2	387.1	316.9	236.3	174.2	151.2	146.8	142.7	159.6	223.3	210.3	115.2	77.96	88.63	101.8	279.8	1557	6895	9999.9	9999.9	9999.9	192.1	43.60	30.11	22.52	17.37	14.82	12.48	11.45	10.87	10.24	9.734	9.259	8.209	6.778	6.696	7.187	6.388	5.595	4.843	4.796	4.949	5.098	5.085	5.208	5.622	5.623	5.881	5.677	5.830	5.163	5.237	4.945	4.684	4.484	4.207	3.802	3.576	3.639	3.678	3.193	3.152
395.0	1047	1102	1046	974.7	796.1	613.1	638.7	750.5	909.6	967.9	962.7	912.6	778.6	592.9	467.6	377.9	323.3	271.0	200.9	147.9	131.0	129.7	127.7	125.5	148.0	196.1	178.9	82.28	60.89	62.10	105.9	393.0	1591	2797	9999.9	9999.9	9999.9	62.00	40.55	28.73	21.50	16.17	13.53	11.66	10.88	9.941	9.228	8.830	7.654	6.374	6.110	6.626	5.905	5.018	4.654	4.268	4.587	4.820	4.778	4.721	4.946	5.004	5.263	5.352	4.858	4.567	4.455	4.417	4.133	3.863	3.375	3.370	3.287	2.960	2.935	3.440	3.576
400.0	916.8	950.8	909.0	834.1	669.9	525.1	549.8	654.3	782.1	837.5	843.1	793.3	683.6	523.5	399.3	327.5	278.6	235.4	178.4	134.8	119.7	119.0	116.9	108.6	117.9	141.5	191.1	122.8	59.23	50.07	59.43	127.5	398.5	681.6	3731	9999.9	9999.9	3199	56.85	33.94	25.23	18.62	14.14	12.34	10.89	9.495	8.992	8.209	7.383	6.162	5.445	6.227	5.252	4.891	4.554	4.194	4.029	4.565	4.310	4.433	4.422	4.523	4.789	4.511	4.362	4.361	3.901	3.831	3.771	3.538	3.232	3.098	2.839	2.648	2.622	2.885	3.483
405.0	745.7	813.9	754.7	710.6	562.0	433.3	460.5	543.9	655.0	699.7	704.6	666.0	580.4	437.1	338.4	275.9	234.9	197.1	152.3	116.0	104.8	104.9	102.2	98.22	98.82	103.2	144.8	166.3	78.19	47.34	46.12	62.27	127.2	195.5	894.2	5300	9999.9	9999.9	2584	49.65	28.72	21.44	15.81	12.82	11.13	9.963	8.540	7.957	6.579	5.694	5.078	5.708	4.939	4.362	4.020	3.700	3.898	4.097	4.049	4.178	3.985	4.154	4.322	3.832	4.035	3.874	3.343	3.511	2.968	3.045	2.858	2.749	2.439	2.474	2.386	2.554	2.699
410.0	587.5	629.2	568.6	531.0	434.3	338.2	351.4	416.4	500.1	533.9	529.3	501.6	440.0	336.9	263.8	219.3	187.4	156.1	121.0	96.69	86.78	86.93	83.41	80.82	79.51	76.02	84.98	124.9	127.0	65.78	42.06	42.32	57.81	77.03	236.0	1239	5474	9999.9	9999.9	9999.9	164.7	27.94	19.99	15.36	12.05	10.43	8.461	7.868	6.598	5.350	4.937	5.195	4.411	4.056	3.717	3.440	3.571	3.547	3.626	3.565	3.535	3.634	3.808	3.373	3.398	3.202	3.030	3.017	2.755	2.586	2.512	2.267	2.197	2.117	2.132	2.121	2.020
415.0	483.9	501.1	448.3	404.7	343.2	263.3	276.4	328.4	388.2	417.6	407.8	388.3	337.7	266.4	210.8	175.6	151.1	125.3	97.82	79.99	72.40	74.17	70.20	69.01	68.77	63.89	61.10	67.73	107.3	113.9	52.48	35.56	37.46	44.35	80.66	306.5	1257	2643	9999.9	9999.9	9999.9	52.81	26.98	18.79	14.47	11.86	8.959	8.024	6.491	5.551	5.060	5.096	4.213	3.919	3.519	3.325	3.450	3.501	3.160	3.332	3.221	3.334	3.415	2.905	2.892	2.828	2.287	2.455	2.580	2.347	2.126	2.390	1.929	1.960	1.806	1.771	1.894
