Sample:	'1
File name:	C2025060311圣泉新材料萃取前（液） 50000.FD3
Run date:	'14:08:51, 06/04/2025
Operator:	Administrator
Comment:	'

Instrument
Model:	F-2700 FL Spectrophotometer
Serial number:	23B8-004
ROM Version:	4J14000 07

Instrument parameters
Measurement type:	3-D scan
Data mode:	Fluorescence
EX  Start WL:	220.0 nm
EX  End WL:	600.0 nm
EX Sampling interval:	5.0 nm
EM  Start WL:	230.0 nm
EM  End WL:	650.0 nm
EM Sampling interval:	5.0 nm
Scan speed:	12000 nm/min
EX Slit:	5.0 nm
EM Slit:	5.0 nm
PMT Voltage:	700 V
Response:	Auto 
Corrected spectra:	Off
Contour interval:	50.000

Peak integration
Integration method:	Rectangular
Sensitivity:	1
Threshold:	1.000

Peaks
No.	ApexEX/EM(nm)	Height(Data)
1	230.0/505.0	170.6
2	235.0/515.0	136.6
3	240.0/525.0	129.3
4	245.0/540.0	127.3
5	250.0/550.0	114.4
6	255.0/565.0	172.5
7	265.0/585.0	361.4
8	270.0/300.0	4454
9	270.0/595.0	338.6
10	290.0/325.0	455.6
11	295.0/330.0	315.0
12	300.0/335.0	313.6
13	305.0/345.0	263.4
14	310.0/350.0	202.0
15	315.0/355.0	187.2
16	320.0/360.0	167.6
17	330.0/375.0	115.8
18	335.0/380.0	127.6
19	340.0/385.0	105.9
20	350.0/400.0	88.93
21	355.0/405.0	80.34
22	360.0/410.0	62.49
23	365.0/420.0	62.77
24	370.0/425.0	59.60
25	375.0/430.0	45.43
26	380.0/440.0	42.06
27	385.0/300.0	12.05
28	385.0/445.0	40.27
29	390.0/450.0	29.71
30	395.0/460.0	27.62
31	400.0/465.0	24.49
32	405.0/470.0	18.27
33	410.0/480.0	16.96
34	415.0/485.0	15.16
35	420.0/490.0	12.13
36	425.0/500.0	11.53
37	430.0/295.0	7.312
38	430.0/505.0	10.05
39	435.0/300.0	7.436
40	435.0/510.0	8.050
41	440.0/520.0	8.010
42	445.0/525.0	6.936
43	450.0/535.0	5.215
44	455.0/540.0	5.191
45	465.0/555.0	3.199
46	470.0/560.0	2.879
47	480.0/575.0	1.812
48	545.0/300.0	19.24
49	550.0/305.0	17.72
50	580.0/320.0	3.638
51	585.0/325.0	3.671

Data points
	220.0	225.0	230.0	235.0	240.0	245.0	250.0	255.0	260.0	265.0	270.0	275.0	280.0	285.0	290.0	295.0	300.0	305.0	310.0	315.0	320.0	325.0	330.0	335.0	340.0	345.0	350.0	355.0	360.0	365.0	370.0	375.0	380.0	385.0	390.0	395.0	400.0	405.0	410.0	415.0	420.0	425.0	430.0	435.0	440.0	445.0	450.0	455.0	460.0	465.0	470.0	475.0	480.0	485.0	490.0	495.0	500.0	505.0	510.0	515.0	520.0	525.0	530.0	535.0	540.0	545.0	550.0	555.0	560.0	565.0	570.0	575.0	580.0	585.0	590.0	595.0	600.0
230.0	171.3	3569	7166	1845	64.16	10.92	8.374	6.932	6.705	6.322	5.592	4.220	3.576	3.245	2.778	2.226	2.031	1.781	1.819	1.692	1.574	1.471	1.324	1.125	1.135	1.058	0.923	0.786	0.872	0.803	0.951	0.864	0.684	0.734	0.684	0.573	0.605	0.572	0.522	0.520	0.797	1.115	1.098	0.620	0.475	0.533	2.623	11.37	18.14	11.55	4.583	0.881	0.397	0.285	0.349	0.332	0.359	0.309	0.291	0.330	0.286	0.310	0.314	0.314	0.317	0.316	0.313	0.297	0.304	0.286	0.272	0.261	0.264	0.282	0.243	0.262	0.305
235.0	267.4	974.8	4523	6061	691.5	87.20	13.24	8.460	7.830	7.146	6.627	4.412	3.751	3.424	2.741	2.373	2.163	1.970	1.757	1.767	1.638	1.571	1.454	1.174	1.266	1.057	0.854	0.924	0.883	0.837	0.898	0.755	0.646	0.763	0.684	0.672	0.583	0.616	0.542	0.455	0.684	0.705	0.983	1.074	0.871	0.607	0.988	3.032	7.148	11.46	17.85	15.90	7.166	1.442	0.450	0.336	0.374	0.290	0.408	0.367	0.313	0.342	0.346	0.261	0.372	0.333	0.289	0.303	0.320	0.278	0.265	0.349	0.215	0.331	0.259	0.236	0.290
240.0	368.7	364.3	1378	5565	5427	543.4	44.15	11.63	8.288	8.806	7.565	5.726	3.588	3.877	2.725	2.778	2.372	2.104	2.004	2.058	1.758	1.507	1.435	1.318	1.277	1.057	0.921	0.895	0.833	0.885	0.900	0.831	0.778	0.709	0.731	0.720	0.631	0.555	0.607	0.463	0.606	0.567	0.575	0.833	1.140	1.077	0.779	1.086	1.971	3.557	10.31	20.22	24.29	15.57	6.030	0.820	0.311	0.437	0.360	0.377	0.379	0.315	0.344	0.309	0.336	0.289	0.275	0.340	0.280	0.290	0.259	0.307	0.242	0.256	0.313	0.269	0.298
245.0	278.8	375.3	407.7	2000	8007	4388	413.5	20.09	11.40	10.47	8.833	6.769	3.700	4.594	3.217	3.090	2.760	1.951	2.038	1.784	1.735	1.611	1.709	1.456	1.066	0.964	1.089	0.766	0.988	0.832	0.957	0.722	0.911	0.604	0.659	0.675	0.652	0.486	0.496	0.568	0.566	0.484	0.515	0.569	0.790	1.221	1.094	1.079	0.851	1.086	2.709	6.927	18.02	29.46	26.55	13.84	3.288	0.519	0.318	0.347	0.335	0.344	0.351	0.360	0.282	0.273	0.266	0.296	0.292	0.300	0.319	0.270	0.291	0.313	0.297	0.277	0.294
250.0	116.2	272.6	389.3	564.5	2781	6602	8222	1514	86.65	16.18	11.14	8.982	5.653	4.685	3.859	3.046	2.812	2.720	2.082	2.160	1.881	1.610	1.651	1.429	1.270	1.268	1.149	0.885	0.955	1.003	1.007	0.833	0.850	0.803	0.646	0.669	0.637	0.545	0.536	0.605	0.582	0.456	0.464	0.474	0.535	0.699	0.858	1.178	1.293	1.128	1.180	1.944	4.629	10.14	18.69	27.49	31.06	20.75	12.58	3.412	0.505	0.422	0.328	0.377	0.309	0.349	0.319	0.381	0.302	0.268	0.352	0.265	0.312	0.319	0.299	0.293	0.301
255.0	72.24	101.9	289.4	459.9	733.3	1783	8988	9999.9	2076	99.88	17.52	11.59	7.926	5.497	4.269	3.729	3.002	2.647	2.158	2.008	1.983	1.746	1.969	1.469	1.203	1.379	1.100	0.976	1.095	1.052	0.995	0.650	0.848	0.934	0.724	0.647	0.636	0.701	0.646	0.694	0.688	0.506	0.580	0.585	0.497	0.543	0.504	0.622	0.818	1.219	1.482	1.692	1.610	2.690	4.585	6.986	13.29	30.35	55.26	30.63	18.97	3.648	0.576	0.398	0.377	0.396	0.389	0.344	0.365	0.277	0.356	0.288	0.301	0.381	0.282	0.262	0.324
260.0	68.33	56.02	124.8	407.5	449.7	475.5	3052	9999.9	9999.9	1654	44.10	14.17	10.97	7.713	5.347	4.140	3.458	3.137	2.390	2.398	2.339	1.880	1.902	1.714	1.354	1.259	1.210	1.027	1.187	1.166	1.063	0.924	0.852	0.843	0.832	0.709	0.668	0.587	0.677	0.610	0.579	0.624	0.535	0.544	0.552	0.525	0.478	0.438	0.551	0.719	1.166	2.072	2.119	1.487	1.485	2.005	3.466	8.706	26.63	48.17	65.86	28.76	14.29	2.097	0.593	0.424	0.443	0.360	0.431	0.262	0.372	0.350	0.301	0.284	0.294	0.319	0.280
265.0	73.43	48.25	61.92	212.9	509.6	320.5	766.6	4205	9999.9	9999.9	243.5	24.53	14.01	9.308	7.501	4.931	4.112	3.549	2.853	2.735	2.775	2.032	2.120	1.951	1.362	1.444	1.426	1.103	1.263	1.069	1.315	0.931	0.943	1.004	0.821	0.689	0.709	0.676	0.647	0.714	0.653	0.648	0.527	0.509	0.473	0.613	0.508	0.447	0.420	0.446	0.526	1.185	2.272	2.378	1.542	1.109	1.326	2.449	6.681	15.45	40.11	67.56	77.71	26.96	8.022	0.773	0.500	0.448	0.419	0.246	0.338	0.321	0.339	0.359	0.334	0.370	0.289
270.0	120.5	71.42	58.61	90.40	293.6	519.7	436.6	1053	4499	9999.9	9999.9	3605	62.80	15.37	10.78	6.627	4.807	4.184	3.862	3.163	3.053	2.553	2.317	2.023	1.727	1.618	1.445	1.350	1.349	1.257	1.319	1.024	1.033	1.040	0.952	0.848	0.751	0.703	0.761	0.720	0.734	0.691	0.677	0.645	0.623	0.672	0.588	0.519	0.535	0.406	0.463	0.663	1.063	1.642	2.359	2.464	2.003	1.635	2.116	4.035	9.900	20.67	42.99	68.85	79.30	57.72	16.97	6.809	0.860	0.468	0.386	0.487	0.359	0.401	0.426	0.315	0.320
275.0	349.1	226.8	114.4	81.19	141.9	353.2	711.3	543.8	1216	3317	9999.9	9999.9	1299	62.34	16.81	9.922	7.095	5.760	5.053	4.024	3.591	2.845	2.680	2.498	1.832	1.723	1.449	1.449	1.573	1.274	1.351	1.373	1.733	1.816	1.660	1.432	1.195	1.130	1.151	1.037	1.109	1.133	1.178	1.142	1.107	1.071	0.953	0.752	0.723	0.561	0.548	0.603	0.693	0.885	1.234	1.760	3.006	3.534	2.802	2.120	3.162	5.882	10.88	17.35	26.49	54.01	98.61	107.7	26.05	7.001	0.683	0.596	0.491	0.493	0.472	0.428	0.382
280.0	925.7	494.4	193.4	109.2	142.2	266.9	679.4	991.1	936.1	1557	4597	9999.9	9999.9	916.6	33.45	13.87	10.02	7.011	5.294	4.714	4.143	3.260	3.249	2.680	1.883	2.126	1.819	1.462	1.627	1.429	1.850	2.082	3.013	3.838	3.453	2.703	2.076	1.974	2.190	2.004	2.177	2.220	2.338	2.416	2.152	2.152	1.587	1.215	0.811	0.676	0.596	0.660	0.719	0.837	0.987	1.329	2.057	3.509	4.817	4.556	3.702	4.109	5.673	7.826	9.901	17.23	40.61	93.47	116.5	35.20	20.00	2.577	0.689	0.639	0.518	0.513	0.481
285.0	1757	868.3	310.7	149.4	169.5	295.7	608.7	1356	1644	1883	2647	6491	9999.9	9186	129.8	20.18	13.15	8.522	7.312	6.018	4.973	3.679	3.649	2.781	2.170	2.174	1.908	1.728	1.861	1.569	1.811	2.970	4.720	6.529	5.655	4.341	3.478	3.366	3.511	3.389	3.740	3.628	3.638	4.118	3.609	3.184	2.250	1.635	1.176	0.821	0.749	0.845	0.844	0.984	1.278	1.522	2.163	3.192	4.767	6.803	7.729	7.005	6.919	8.746	9.348	10.73	15.52	30.31	58.43	99.66	114.6	31.47	13.74	1.478	0.651	0.679	0.592
290.0	2726	1314	454.3	190.1	218.4	386.6	732.9	1445	2540	3079	3188	3437	5373	9999.9	9999.9	2217	38.70	13.45	10.33	7.612	6.100	4.399	4.181	3.389	2.938	2.557	2.300	1.981	1.898	1.709	2.320	3.780	7.494	9.892	8.256	6.122	4.869	5.032	4.832	5.249	5.586	5.789	5.975	6.113	5.437	4.661	3.301	2.351	1.485	1.060	0.962	0.990	1.099	1.287	1.481	1.980	2.700	3.737	4.799	6.669	9.034	11.65	13.19	14.37	13.83	13.13	13.52	15.84	19.50	29.53	51.34	74.60	106.9	78.69	21.03	10.47	1.761
295.0	3290	1582	535.1	213.2	244.6	428.4	843.2	1538	2642	4009	4076	3079	2014	2833	9999.9	9999.9	720.7	37.12	14.93	10.62	7.776	6.223	4.851	4.007	3.241	2.913	2.544	1.971	2.282	1.953	2.840	4.729	9.676	11.71	10.10	6.827	5.661	5.721	5.797	6.527	7.006	7.189	7.312	7.260	6.687	5.710	3.978	2.673	1.726	1.237	1.012	1.039	1.248	1.317	1.646	2.237	3.328	3.866	5.214	6.992	9.131	11.54	14.84	18.39	19.03	16.97	14.98	13.92	11.39	10.20	13.14	17.96	29.28	49.46	101.2	126.8	34.42
300.0	3333	1588	515.6	211.8	255.6	427.4	852.3	1530	2547	3803	4454	3124	1246	782.9	3398	9999.9	9999.9	533.8	25.30	14.55	11.07	7.148	6.167	4.635	4.043	3.285	2.835	2.249	2.502	2.200	2.910	4.918	9.669	12.05	10.27	6.880	5.888	6.365	5.798	6.638	6.788	7.306	7.179	7.436	6.783	5.725	3.969	2.807	1.630	1.205	1.085	1.047	1.087	1.227	1.770	2.157	3.148	3.840	5.179	6.894	8.997	11.57	13.47	16.30	19.19	19.24	17.35	13.72	9.350	5.579	4.648	5.149	7.541	12.44	32.33	77.92	125.4
305.0	3175	1475	493.0	203.9	231.7	400.8	785.6	1429	2365	3347	3979	3263	1071	310.7	828.6	4241	9999.9	5514	80.68	20.84	14.54	8.501	7.315	5.580	4.467	3.702	3.337	2.525	2.667	2.277	3.142	4.904	9.185	11.57	9.881	6.650	6.262	6.204	5.695	6.333	6.275	7.139	7.058	6.725	6.400	5.368	3.769	2.636	1.627	1.181	0.973	1.044	1.151	1.236	1.760	2.140	2.969	3.729	5.007	6.654	8.139	10.80	12.46	14.64	16.92	17.15	17.72	14.89	9.678	4.689	2.671	2.139	2.618	3.683	8.197	19.71	47.70
310.0	2519	1241	407.9	176.9	194.6	333.9	631.9	1149	1902	2669	2988	2638	1224	258.9	231.7	1001	4477	9999.9	9999.9	1837	33.41	12.71	9.474	7.119	5.471	4.376	3.549	2.671	2.806	2.525	3.088	4.462	7.522	9.959	8.322	5.966	5.215	5.033	5.035	5.445	5.552	5.746	5.932	5.765	5.322	4.473	3.097	2.230	1.438	1.022	0.890	1.024	1.030	1.189	1.475	1.778	2.445	3.189	4.414	5.429	6.828	8.758	10.24	11.90	13.21	12.48	12.46	12.16	9.307	5.668	3.124	1.636	1.378	1.704	2.525	5.014	11.42
315.0	1949	935.3	320.5	140.0	150.2	252.0	477.9	858.0	1416	1969	2135	1744	965.4	532.4	131.6	251.2	1029	2522	9999.9	9999.9	539.2	32.66	15.35	9.704	7.079	5.240	4.220	3.801	3.123	2.703	3.369	3.706	6.430	8.000	6.656	5.196	4.322	4.081	4.168	4.420	4.180	4.591	4.633	4.642	4.335	3.798	2.834	1.856	1.340	1.011	0.893	0.907	0.920	1.070	1.178	1.586	2.035	2.711	3.180	4.337	5.159	6.274	7.557	9.061	9.736	9.249	8.491	8.083	5.891	4.562	4.156	3.367	1.835	1.280	1.126	1.811	3.170
320.0	1506	759.0	265.9	123.4	125.3	202.8	369.9	650.9	1082	1515	1613	1276	601.8	555.0	295.1	91.61	257.4	593.2	2919	9999.9	9999.9	446.4	25.69	12.90	9.127	5.949	4.834	3.931	3.385	2.943	3.465	3.621	5.458	6.769	5.492	4.254	3.535	3.576	3.262	3.744	3.786	3.873	3.810	3.890	3.705	3.102	2.433	1.601	1.200	0.885	0.821	0.805	0.896	1.048	1.123	1.272	1.770	2.007	2.416	3.279	4.022	4.900	5.937	6.970	7.308	7.206	6.649	5.968	4.090	2.780	2.471	3.099	3.638	2.211	1.137	0.992	1.243
325.0	1207	630.2	255.2	111.4	108.2	159.9	286.0	507.6	833.6	1155	1226	971.3	411.1	312.1	455.6	117.8	83.60	156.9	687.4	3981	9999.9	9999.9	66.24	18.18	12.07	8.060	5.759	4.367	3.858	3.230	3.421	3.351	4.832	5.803	4.538	3.858	3.181	3.318	2.915	3.008	3.232	3.308	3.061	3.174	3.181	2.606	1.979	1.455	1.169	0.949	0.786	0.787	0.796	0.960	1.006	1.131	1.427	1.628	1.949	2.664	3.183	3.878	4.865	5.488	5.959	5.276	5.184	4.659	3.364	2.043	1.476	1.598	2.881	3.671	2.453	1.302	0.897
330.0	946.9	525.8	238.8	117.1	95.79	126.6	213.7	362.4	589.7	815.0	875.6	695.6	293.1	142.7	257.7	315.0	136.5	58.76	175.7	926.6	3850	9999.9	9999.9	1645	29.22	11.33	7.800	5.484	4.720	3.845	3.826	3.197	4.320	4.790	4.082	3.236	2.738	2.592	2.501	2.462	2.576	2.670	2.510	2.647	2.512	2.073	1.700	1.477	1.145	0.972	0.805	0.734	0.818	0.733	0.881	0.938	1.252	1.261	1.724	2.051	2.401	2.968	3.485	3.950	4.293	3.942	3.716	3.586	2.631	1.437	1.064	1.077	1.325	1.776	2.200	2.637	2.244
335.0	706.8	429.2	228.9	118.9	88.11	102.8	157.6	251.0	404.6	551.2	601.5	489.5	214.8	91.30	98.18	188.9	313.6	88.48	57.60	226.9	880.9	2439	9999.9	9999.9	2549	30.29	10.95	6.964	6.175	4.645	4.461	3.364	3.939	4.046	3.608	2.808	2.372	2.377	2.143	2.094	2.361	2.244	2.080	2.119	1.941	1.881	1.659	1.413	1.115	0.922	0.793	0.946	0.809	0.724	0.858	0.797	0.973	1.238	1.528	1.645	1.756	2.108	2.631	2.907	2.996	2.664	2.555	2.701	1.732	1.152	0.946	0.883	0.898	0.951	1.056	1.365	1.989
340.0	597.1	384.1	221.4	121.1	80.68	85.67	123.2	190.8	298.6	411.6	451.0	372.8	175.9	79.00	58.37	79.51	247.8	239.8	53.33	68.17	216.7	565.7	2772	9999.9	9999.9	406.8	20.62	8.986	7.358	5.821	4.873	3.839	3.750	3.801	3.471	2.726	2.322	2.008	2.068	2.073	1.855	1.968	1.865	1.877	1.796	1.721	1.477	1.244	1.043	0.880	0.763	0.846	0.802	0.676	0.795	0.841	0.957	1.093	1.321	1.306	1.425	1.682	2.113	2.200	2.294	2.226	1.967	2.015	1.434	1.111	0.895	0.724	0.699	0.682	0.798	0.833	1.013
345.0	494.9	319.4	207.2	106.6	77.39	75.81	102.1	141.5	227.6	306.4	345.9	279.3	142.0	68.17	47.14	41.83	109.8	263.4	146.4	35.96	64.76	144.4	643.3	3321	9999.9	9999.9	325.7	12.56	8.843	6.638	5.739	4.028	3.684	3.800	3.010	2.438	2.243	2.064	1.737	1.804	1.676	1.756	1.632	1.555	1.640	1.667	1.277	1.205	1.143	0.933	0.776	0.845	0.801	0.664	0.750	0.784	0.881	1.022	1.126	1.119	1.265	1.522	1.656	1.678	1.754	1.723	1.697	1.720	1.193	0.916	0.725	0.670	0.610	0.678	0.759	0.638	0.642
350.0	375.5	259.8	175.7	101.8	72.12	65.62	77.42	106.5	163.8	214.2	247.5	203.2	112.1	59.60	40.21	29.89	43.55	116.1	202.0	114.4	36.98	45.22	158.9	762.8	3339	9999.9	9999.9	1500	26.17	8.761	7.359	4.569	4.208	3.732	2.966	2.526	2.154	2.020	1.732	1.690	1.554	1.559	1.514	1.466	1.402	1.354	1.231	1.094	1.024	0.858	0.736	0.715	0.725	0.754	0.734	0.744	0.840	0.837	0.956	0.976	1.067	1.243	1.239	1.361	1.485	1.365	1.302	1.298	0.991	0.853	0.771	0.721	0.611	0.635	0.634	0.551	0.567
355.0	272.4	216.9	155.4	93.16	65.48	50.54	61.24	80.54	115.6	149.6	170.0	146.6	87.30	49.71	34.66	24.77	24.97	39.08	85.33	187.2	74.17	25.61	46.23	182.9	757.6	2334	7249	9999.9	2520	30.74	11.16	6.568	5.131	4.324	3.342	2.542	2.269	2.118	1.669	1.600	1.366	1.508	1.422	1.229	1.139	1.176	1.073	1.030	1.019	0.794	0.784	0.703	0.746	0.739	0.662	0.753	0.763	0.775	0.744	0.725	0.980	0.941	1.050	1.033	1.111	1.118	1.021	0.966	0.832	0.767	0.633	0.659	0.643	0.572	0.497	0.459	0.531
360.0	229.3	184.3	136.1	84.38	59.71	47.88	54.26	63.63	90.11	116.4	133.7	117.0	70.63	41.86	31.36	22.33	19.25	19.75	32.27	114.0	167.6	51.68	20.66	50.84	181.1	533.9	1865	8854	9999.9	402.6	24.35	7.901	5.922	4.494	3.432	2.504	2.431	2.103	1.984	1.596	1.325	1.400	1.348	1.187	1.179	1.119	0.995	0.967	0.846	0.772	0.768	0.706	0.681	0.634	0.673	0.706	0.758	0.695	0.802	0.862	0.787	0.770	0.958	0.874	0.968	0.976	0.942	0.837	0.779	0.625	0.619	0.643	0.631	0.652	0.488	0.536	0.496
365.0	204.1	159.4	119.6	80.69	51.87	44.16	44.53	51.12	73.58	92.45	107.1	95.26	61.71	37.69	27.79	20.75	16.47	14.68	15.96	44.20	145.2	131.4	26.69	19.74	50.48	130.4	431.2	2520	9999.9	9999.9	357.7	13.13	7.313	5.483	3.928	2.721	2.671	2.233	2.047	1.600	1.414	1.411	1.283	1.110	1.052	1.146	1.051	0.983	0.819	0.753	0.749	0.687	0.690	0.634	0.730	0.594	0.721	0.603	0.669	0.706	0.630	0.675	0.718	0.853	0.856	0.829	0.775	0.765	0.724	0.639	0.548	0.597	0.592	0.643	0.502	0.549	0.509
370.0	170.2	139.1	100.8	71.14	49.16	36.46	37.40	42.54	54.95	69.25	82.08	73.69	49.23	32.58	23.74	17.62	15.17	12.10	11.59	18.34	56.44	127.1	94.16	26.94	19.21	37.70	106.2	576.0	2906	9222	9999.9	1453	23.87	7.637	5.148	3.780	2.993	2.443	2.136	1.766	1.487	1.434	1.308	1.126	1.184	1.100	0.983	0.971	0.798	0.718	0.740	0.752	0.655	0.627	0.644	0.623	0.626	0.700	0.686	0.633	0.650	0.703	0.722	0.760	0.805	0.779	0.691	0.655	0.683	0.587	0.521	0.542	0.548	0.592	0.463	0.509	0.477
375.0	147.2	110.2	82.90	64.42	48.06	35.23	31.99	32.18	42.89	54.15	63.85	58.24	42.00	27.72	21.76	15.84	13.03	11.01	9.699	10.29	19.89	46.39	115.8	94.77	20.13	14.99	31.42	137.5	658.4	2123	7037	9999.9	2342	28.69	7.239	4.767	3.754	3.135	2.259	1.953	1.636	1.600	1.409	1.193	1.249	1.148	0.939	0.915	0.745	0.711	0.726	0.742	0.639	0.608	0.668	0.584	0.654	0.674	0.560	0.574	0.515	0.658	0.595	0.631	0.683	0.652	0.669	0.568	0.583	0.592	0.450	0.503	0.546	0.537	0.474	0.536	0.462
380.0	138.1	98.01	77.55	56.84	40.83	35.30	29.38	29.11	33.82	47.59	52.10	47.70	35.70	24.03	18.50	14.61	12.43	10.29	8.796	8.281	10.43	17.55	61.16	127.6	50.39	11.47	13.50	38.05	155.7	484.6	1783	7755	9999.9	1748	19.32	6.259	4.539	3.438	2.708	2.064	1.876	1.682	1.459	1.165	1.114	1.150	0.951	0.969	0.818	0.675	0.674	0.810	0.730	0.717	0.674	0.597	0.561	0.554	0.564	0.633	0.612	0.598	0.716	0.596	0.612	0.570	0.561	0.561	0.578	0.625	0.600	0.492	0.549	0.481	0.495	0.540	0.467
385.0	119.4	100.2	71.80	52.74	39.28	32.83	25.63	24.69	29.05	38.95	45.14	43.22	30.36	22.31	18.70	13.46	11.48	9.530	8.355	7.915	7.911	9.303	23.95	88.63	105.9	27.27	8.540	14.39	42.56	117.4	412.0	2117	9690	9999.9	294.1	9.980	5.523	4.119	3.000	2.399	2.094	1.564	1.579	1.121	1.199	1.175	1.004	0.914	0.742	0.634	0.682	0.706	0.741	0.673	0.592	0.530	0.588	0.570	0.532	0.613	0.596	0.586	0.583	0.564	0.573	0.671	0.533	0.551	0.448	0.602	0.507	0.638	0.543	0.472	0.594	0.533	0.446
390.0	102.8	80.64	66.63	46.09	39.80	29.30	23.36	22.81	25.51	32.39	36.94	36.18	26.69	20.02	15.95	12.44	10.85	9.114	8.210	7.124	7.049	7.064	10.52	31.82	83.56	75.82	24.90	8.932	15.77	33.66	101.2	482.0	2611	7857	8565	1166	19.93	5.455	3.887	2.996	2.297	1.790	1.572	1.260	1.346	1.078	1.057	0.814	0.795	0.720	0.677	0.689	0.740	0.656	0.589	0.623	0.626	0.671	0.586	0.588	0.637	0.488	0.607	0.501	0.501	0.604	0.529	0.516	0.474	0.527	0.504	0.525	0.459	0.491	0.619	0.664	0.507
395.0	93.86	70.36	55.96	47.87	35.29	27.38	21.15	20.35	21.82	26.55	31.62	31.32	23.48	18.18	13.96	11.22	9.361	8.151	7.397	6.609	6.554	6.000	6.698	11.91	29.23	74.61	76.15	18.51	8.689	12.61	29.09	114.1	588.7	1798	4743	9999.9	1959	23.43	5.429	3.968	3.079	2.470	1.721	1.405	1.339	1.173	1.096	0.937	0.807	0.663	0.701	0.720	0.739	0.639	0.620	0.644	0.614	0.712	0.518	0.622	0.538	0.574	0.618	0.569	0.501	0.626	0.436	0.482	0.447	0.524	0.482	0.433	0.431	0.425	0.585	0.691	0.606
400.0	101.0	66.00	55.32	41.61	32.79	26.30	19.86	18.30	22.08	22.85	27.26	29.13	22.12	16.16	13.17	10.06	8.867	8.143	7.086	6.562	6.040	5.339	5.466	6.521	11.49	36.83	88.93	47.47	9.578	7.075	12.33	31.38	137.6	408.1	1174	6511	9378	1437	16.20	4.764	3.570	2.575	1.963	1.507	1.379	1.204	1.182	0.947	0.883	0.784	0.717	0.768	0.647	0.683	0.663	0.582	0.567	0.653	0.504	0.581	0.531	0.480	0.520	0.579	0.468	0.579	0.440	0.590	0.508	0.513	0.396	0.418	0.466	0.412	0.489	0.564	0.648
405.0	94.42	63.14	52.34	38.28	28.88	24.32	18.42	15.50	18.71	19.65	25.43	24.64	20.28	15.63	12.09	9.890	8.293	7.694	6.671	6.309	6.037	5.220	5.211	5.252	6.551	14.52	55.41	80.34	25.70	6.379	7.807	11.99	36.35	97.12	269.6	1751	7698	7551	259.9	8.376	4.134	3.121	2.208	1.633	1.561	1.387	1.100	0.975	0.898	0.811	0.754	0.792	0.655	0.666	0.618	0.594	0.518	0.623	0.509	0.485	0.535	0.565	0.502	0.454	0.467	0.441	0.395	0.488	0.502	0.553	0.475	0.372	0.441	0.482	0.393	0.502	0.453
410.0	89.08	58.85	45.34	31.99	27.79	22.98	17.44	14.39	16.84	18.45	22.11	21.64	17.94	13.68	11.05	9.415	8.160	6.777	6.483	5.884	5.706	4.937	4.758	4.838	4.838	6.979	19.46	56.09	62.49	22.72	6.597	6.366	12.43	26.75	65.51	397.0	2049	5713	6825	1083	17.40	4.068	2.821	2.051	1.791	1.463	1.240	1.007	0.912	0.791	0.783	0.734	0.690	0.669	0.646	0.567	0.591	0.645	0.614	0.528	0.524	0.504	0.565	0.423	0.436	0.489	0.460	0.420	0.463	0.453	0.474	0.473	0.438	0.445	0.389	0.427	0.441
