Sample:	'1
File name:	÷–∫Õ∫Û œ° Õ60±∂.FD3
Run date:	'10:15:36, 06/30/2025
Operator:	Administrator
Comment:	'

Instrument
Model:	F-2700 FL Spectrophotometer
Serial number:	23B8-004
ROM Version:	4J14000 07

Instrument parameters
Measurement type:	3-D scan
Data mode:	Fluorescence
EX  Start WL:	220.0 nm
EX  End WL:	600.0 nm
EX Sampling interval:	5.0 nm
EM  Start WL:	230.0 nm
EM  End WL:	650.0 nm
EM Sampling interval:	5.0 nm
Scan speed:	12000 nm/min
EX Slit:	5.0 nm
EM Slit:	5.0 nm
PMT Voltage:	700 V
Response:	Auto 
Corrected spectra:	Off
Contour interval:	50.000

Peak integration
Integration method:	Rectangular
Sensitivity:	1
Threshold:	1.000

Peaks
No.	ApexEX/EM(nm)	Height(Data)
1	230.0/500.0	63.32
2	235.0/305.0	3296
3	235.0/515.0	95.10
4	235.0/610.0	207.4
5	240.0/265.0	346.5
6	240.0/525.0	111.7
7	245.0/270.0	378.6
8	245.0/535.0	110.6
9	250.0/275.0	512.3
10	250.0/550.0	105.6
11	255.0/565.0	127.4
12	265.0/585.0	270.9
13	270.0/300.0	3996
14	270.0/595.0	301.7
15	275.0/305.0	4025
16	305.0/340.0	292.8
17	310.0/350.0	234.2
18	315.0/355.0	219.9
19	320.0/360.0	213.9
20	325.0/370.0	177.9
21	330.0/375.0	173.3
22	335.0/380.0	179.9
23	345.0/395.0	124.0
24	350.0/400.0	125.6
25	355.0/405.0	106.6
26	365.0/420.0	90.26
27	370.0/425.0	76.78
28	380.0/440.0	54.18
29	385.0/445.0	47.03
30	390.0/450.0	36.22
31	395.0/460.0	31.39
32	400.0/465.0	27.88
33	405.0/470.0	22.15
34	410.0/475.0	18.93
35	415.0/485.0	17.50
36	420.0/490.0	13.99
37	425.0/495.0	12.51
38	430.0/505.0	11.64
39	435.0/510.0	9.149
40	440.0/515.0	8.007
41	445.0/525.0	7.861
42	450.0/530.0	5.953
43	455.0/540.0	5.192
44	460.0/545.0	4.261
45	470.0/560.0	2.855
46	480.0/305.0	13.95
47	480.0/575.0	1.901
48	485.0/265.0	2.161
49	485.0/580.0	1.796
50	495.0/270.0	2.220
51	505.0/275.0	3.448
52	510.0/280.0	4.565
53	540.0/295.0	19.56
54	545.0/300.0	20.51
55	555.0/305.0	20.41

Data points
	220.0	225.0	230.0	235.0	240.0	245.0	250.0	255.0	260.0	265.0	270.0	275.0	280.0	285.0	290.0	295.0	300.0	305.0	310.0	315.0	320.0	325.0	330.0	335.0	340.0	345.0	350.0	355.0	360.0	365.0	370.0	375.0	380.0	385.0	390.0	395.0	400.0	405.0	410.0	415.0	420.0	425.0	430.0	435.0	440.0	445.0	450.0	455.0	460.0	465.0	470.0	475.0	480.0	485.0	490.0	495.0	500.0	505.0	510.0	515.0	520.0	525.0	530.0	535.0	540.0	545.0	550.0	555.0	560.0	565.0	570.0	575.0	580.0	585.0	590.0	595.0	600.0
230.0	13.98	71.55	219.6	116.1	10.75	4.255	3.197	2.847	2.891	2.700	2.643	2.462	1.829	1.745	1.455	1.383	0.936	0.872	0.811	0.717	0.652	0.545	0.615	0.623	0.532	0.524	0.460	0.514	0.407	0.369	0.434	0.395	0.308	0.302	0.347	0.357	0.305	0.267	0.339	0.308	0.264	0.299	0.268	0.256	0.252	0.276	0.275	0.481	0.897	0.788	0.474	0.273	0.211	0.201	0.205	0.208	0.212	0.211	0.225	0.228	0.225	0.197	0.204	0.219	0.216	0.212	0.207	0.212	0.217	0.216	0.201	0.207	0.209	0.206	0.217	0.216	0.226
235.0	21.03	26.57	185.7	675.4	340.4	31.64	3.628	3.118	3.467	2.729	2.832	2.510	2.146	1.660	1.363	1.494	0.984	1.043	0.759	0.675	0.636	0.552	0.581	0.675	0.537	0.558	0.495	0.475	0.502	0.342	0.389	0.384	0.332	0.266	0.288	0.348	0.308	0.269	0.294	0.282	0.288	0.294	0.252	0.293	0.266	0.269	0.267	0.308	0.460	0.925	1.840	2.641	1.915	0.551	0.240	0.210	0.204	0.198	0.204	0.207	0.212	0.196	0.195	0.197	0.256	0.175	0.203	0.210	0.226	0.194	0.193	0.246	0.232	0.214	0.203	0.260	0.217
240.0	28.26	23.32	70.76	784.0	1396	366.6	15.81	4.669	3.334	2.750	3.385	2.579	2.320	1.999	1.358	1.591	1.206	0.878	0.714	0.601	0.694	0.590	0.578	0.685	0.587	0.603	0.502	0.518	0.376	0.374	0.468	0.386	0.313	0.314	0.268	0.381	0.276	0.264	0.277	0.347	0.272	0.291	0.287	0.293	0.286	0.270	0.331	0.264	0.316	0.414	1.233	3.484	6.308	4.357	1.797	0.496	0.202	0.235	0.254	0.200	0.213	0.217	0.206	0.215	0.212	0.234	0.206	0.241	0.213	0.173	0.203	0.228	0.226	0.207	0.230	0.224	0.254
245.0	27.08	49.50	38.08	301.6	1758	2611	225.7	9.159	4.033	3.154	3.355	2.625	2.912	1.995	1.490	1.726	1.357	0.778	0.775	0.689	0.626	0.643	0.590	0.598	0.487	0.657	0.606	0.395	0.436	0.408	0.490	0.429	0.303	0.278	0.370	0.363	0.324	0.248	0.306	0.319	0.316	0.303	0.281	0.304	0.270	0.300	0.372	0.368	0.245	0.262	0.496	1.352	4.618	8.588	9.150	6.399	1.211	0.310	0.237	0.232	0.190	0.241	0.207	0.235	0.219	0.236	0.222	0.224	0.210	0.192	0.173	0.203	0.215	0.219	0.243	0.206	0.240
250.0	22.77	50.14	95.64	125.8	593.7	2732	1975	855.4	56.38	5.068	4.608	3.501	2.813	2.483	1.752	1.896	1.232	0.921	0.853	0.958	0.653	0.744	0.646	0.589	0.587	0.649	0.582	0.490	0.403	0.452	0.450	0.429	0.343	0.314	0.301	0.361	0.312	0.290	0.308	0.305	0.353	0.262	0.306	0.319	0.307	0.271	0.320	0.393	0.503	0.486	0.446	0.544	1.305	2.874	6.042	11.76	10.69	10.04	5.839	1.589	0.258	0.254	0.229	0.190	0.225	0.243	0.249	0.230	0.218	0.219	0.216	0.209	0.216	0.228	0.226	0.213	0.228
255.0	22.33	23.14	86.11	221.0	208.3	696.4	1496	3454	1238	56.32	6.812	3.989	3.211	2.734	2.198	2.320	1.372	1.283	0.973	0.938	0.760	0.734	0.645	0.721	0.602	0.739	0.522	0.607	0.412	0.410	0.472	0.428	0.349	0.359	0.354	0.363	0.353	0.294	0.299	0.325	0.337	0.277	0.292	0.330	0.355	0.300	0.314	0.259	0.384	0.527	0.817	0.934	0.768	0.908	1.548	3.033	4.075	10.64	20.27	18.13	8.068	3.206	0.350	0.281	0.231	0.237	0.316	0.295	0.218	0.270	0.238	0.253	0.249	0.225	0.234	0.259	0.239
260.0	20.93	19.98	41.71	206.3	274.8	212.5	455.0	2621	3925	251.2	28.15	5.524	3.705	3.478	2.478	2.539	1.395	1.195	1.155	0.924	0.792	0.793	0.507	0.735	0.683	0.787	0.589	0.557	0.441	0.471	0.512	0.447	0.415	0.371	0.334	0.426	0.422	0.344	0.304	0.354	0.305	0.344	0.316	0.313	0.325	0.328	0.333	0.255	0.300	0.348	0.609	1.392	1.518	1.135	0.646	1.021	1.174	3.035	8.863	17.94	22.83	27.22	5.339	0.839	0.253	0.327	0.299	0.278	0.240	0.200	0.269	0.237	0.217	0.239	0.220	0.304	0.218
265.0	22.62	22.42	23.30	107.6	346.5	238.5	133.6	848.9	3743	4288	202.2	11.90	5.242	4.461	2.630	3.370	1.451	1.353	1.187	0.903	0.843	0.751	0.626	0.811	0.612	0.766	0.667	0.468	0.405	0.403	0.520	0.442	0.424	0.418	0.298	0.381	0.402	0.292	0.298	0.320	0.365	0.297	0.351	0.320	0.333	0.361	0.331	0.279	0.328	0.250	0.326	0.745	1.539	2.161	1.434	0.752	0.493	0.989	2.379	5.373	12.33	43.40	23.48	14.12	3.461	0.469	0.245	0.288	0.248	0.261	0.260	0.225	0.211	0.234	0.232	0.258	0.290
270.0	27.17	22.67	17.84	38.95	164.6	378.6	267.6	245.1	1144	3750	4691	759.4	50.14	6.632	4.262	4.319	2.027	1.692	1.624	1.222	0.972	1.000	0.808	0.776	0.690	0.802	0.698	0.548	0.496	0.423	0.537	0.478	0.401	0.412	0.400	0.484	0.380	0.313	0.305	0.320	0.364	0.329	0.341	0.344	0.366	0.359	0.356	0.309	0.265	0.296	0.261	0.394	0.625	1.236	1.803	2.220	1.900	1.106	0.947	1.540	3.223	11.97	11.52	19.51	24.19	20.91	12.46	4.433	0.585	0.351	0.304	0.260	0.311	0.260	0.283	0.251	0.294
275.0	34.60	34.72	23.53	27.69	61.62	184.2	512.3	338.0	398.9	1056	2903	5455	1075	57.16	6.755	6.593	2.722	1.976	1.820	1.418	1.141	1.053	0.941	1.073	0.770	0.946	0.720	0.619	0.551	0.587	0.604	0.535	0.437	0.517	0.424	0.556	0.385	0.338	0.370	0.333	0.333	0.359	0.380	0.344	0.351	0.372	0.397	0.288	0.322	0.312	0.316	0.409	0.370	0.627	0.767	1.224	2.367	3.448	2.680	1.488	1.469	3.476	3.453	5.616	8.044	16.85	34.02	33.07	18.88	4.358	0.504	0.319	0.309	0.248	0.271	0.257	0.301
280.0	49.87	60.19	45.93	44.94	60.06	117.3	388.8	789.5	595.2	761.2	1323	3923	5743	847.4	30.54	10.20	3.452	2.455	2.025	1.390	1.183	1.090	0.995	1.143	0.766	1.095	0.732	0.668	0.601	0.610	0.618	0.614	0.501	0.465	0.485	0.641	0.416	0.431	0.397	0.350	0.416	0.404	0.389	0.387	0.410	0.451	0.404	0.357	0.495	0.379	0.360	0.418	0.498	0.554	0.641	0.826	1.358	2.676	4.565	4.368	2.958	3.112	3.259	4.063	4.979	7.033	13.62	28.64	40.14	30.97	13.26	2.588	0.455	0.272	0.265	0.309	0.310
285.0	73.73	93.20	115.6	150.6	146.0	160.6	335.2	886.0	1249	1195	1412	1961	4932	6082	127.1	22.84	4.786	3.086	2.514	1.789	1.388	1.173	1.132	1.122	0.860	1.216	0.977	0.733	0.582	0.670	0.600	0.592	0.508	0.486	0.533	0.592	0.412	0.462	0.419	0.410	0.392	0.381	0.395	0.457	0.406	0.461	0.556	0.468	0.676	0.593	0.554	0.816	0.912	0.721	0.829	0.979	1.376	1.960	3.575	5.644	6.917	6.329	5.426	6.099	6.776	7.078	8.228	11.73	17.77	31.58	35.39	29.13	8.023	0.916	0.446	0.341	0.369
290.0	137.9	285.0	573.3	915.9	758.8	363.9	459.0	900.7	1731	2337	2334	2189	2259	4608	5271	2947	35.66	4.985	3.656	2.623	1.919	1.708	1.412	1.373	1.130	1.406	1.163	0.838	0.690	0.698	0.756	0.653	0.612	0.650	0.646	0.643	0.535	0.472	0.432	0.472	0.466	0.491	0.409	0.537	0.557	0.619	0.842	1.223	1.838	2.163	2.560	3.945	3.961	2.550	1.525	1.520	1.979	2.485	3.651	5.197	7.338	9.728	11.47	11.96	11.98	11.40	11.03	11.52	10.70	12.09	15.75	27.94	24.98	22.55	16.51	7.825	1.271
295.0	211.8	566.2	1273	2095	1737	635.0	597.9	1046	1847	2954	3622	3052	2166	2060	2984	9999.9	704.2	33.86	5.374	3.749	2.359	2.100	1.702	1.719	1.311	1.423	1.012	0.816	0.850	0.764	0.837	0.675	0.737	0.750	0.799	0.661	0.514	0.476	0.431	0.456	0.477	0.562	0.519	0.579	0.713	0.933	1.330	2.142	3.439	4.483	5.608	8.772	8.669	4.748	2.591	2.301	2.593	3.315	4.302	5.885	7.639	10.07	12.24	16.47	19.56	16.96	15.01	14.95	13.18	10.02	9.480	12.09	10.72	11.62	24.11	39.68	25.26
300.0	238.7	684.6	1729	2828	2340	784.7	641.7	1099	1879	2901	3996	3679	2391	1718	1402	6431	5303	529.3	14.73	4.767	3.036	2.608	2.164	1.872	1.504	1.603	1.117	0.986	0.853	0.681	0.932	0.678	0.678	0.783	0.761	0.792	0.761	0.535	0.448	0.469	0.456	0.604	0.496	0.642	0.794	1.032	1.620	2.666	4.491	6.018	7.926	11.86	11.60	6.414	3.012	2.438	2.783	3.389	4.517	5.898	7.983	9.816	12.50	15.78	19.31	20.51	19.03	17.77	14.51	10.76	9.396	9.529	8.274	6.390	8.085	18.14	31.11
305.0	256.4	770.2	1935	3296	2691	842.5	644.0	1068	1812	2739	3660	4025	2663	1769	1078	1785	4119	4479	76.13	7.886	3.413	3.152	2.674	2.079	1.590	1.821	1.283	0.945	0.839	0.766	0.976	0.786	0.741	0.719	0.759	0.800	0.653	0.589	0.500	0.448	0.546	0.539	0.502	0.693	0.746	1.155	1.643	3.254	4.931	7.099	9.028	13.68	13.95	6.877	3.635	2.454	2.541	3.431	4.514	6.142	7.792	10.06	11.76	14.69	16.73	18.68	20.15	20.41	16.60	11.87	9.635	9.495	8.620	5.462	3.694	5.136	9.909
310.0	240.7	748.8	1914	3250	2673	825.2	573.4	936.5	1562	2360	3039	3382	2793	1839	980.4	566.7	1119	3251	3752	1138	23.04	4.178	3.182	2.477	1.695	2.118	1.431	1.100	0.987	0.977	1.007	0.800	0.758	0.783	0.772	0.809	0.555	0.580	0.522	0.488	0.573	0.555	0.477	0.615	0.767	1.063	1.649	3.218	5.067	6.889	8.587	13.51	13.55	7.054	3.464	2.285	2.457	3.060	3.928	5.293	6.687	8.672	10.32	12.36	14.38	14.90	15.88	17.37	16.48	13.38	10.99	9.534	7.970	5.279	2.680	2.051	2.829
315.0	205.5	653.9	1678	2853	2374	729.6	491.8	758.7	1256	1868	2407	2613	2250	1928	959.8	284.2	293.9	766.0	2038	4590	503.6	21.62	4.139	3.728	2.079	2.497	1.707	1.300	1.138	1.056	1.253	0.882	0.643	0.705	0.762	0.858	0.568	0.594	0.520	0.438	0.596	0.493	0.463	0.527	0.756	0.964	1.499	2.700	4.402	5.827	7.564	12.21	11.69	6.228	3.160	2.185	2.147	2.610	3.343	4.308	5.437	6.767	8.158	10.29	11.65	11.40	12.38	13.05	12.58	10.60	10.89	10.69	8.105	5.093	2.207	1.335	1.260
320.0	166.8	558.4	1438	2463	2032	650.6	421.0	627.3	1029	1515	1941	2112	1774	1612	1058	238.8	115.8	201.4	520.9	2791	4024	395.0	12.72	4.451	2.585	2.927	1.820	1.486	1.074	0.949	1.079	0.875	0.707	0.772	0.784	0.851	0.564	0.603	0.478	0.448	0.509	0.446	0.437	0.480	0.593	0.861	1.245	2.421	3.825	5.106	6.374	10.51	10.15	5.591	2.698	1.965	1.931	2.339	2.806	3.395	4.405	5.611	6.650	8.081	9.071	9.475	9.850	10.57	9.734	8.488	8.400	8.958	8.492	5.913	2.558	1.310	1.033
325.0	149.0	471.7	1198	2035	1712	551.9	370.4	524.0	839.9	1222	1557	1705	1440	1211	1002	341.4	84.25	79.15	141.1	763.1	3408	3553	60.33	8.092	3.366	3.593	2.069	1.472	1.099	0.897	1.161	0.921	0.737	0.733	0.775	0.840	0.492	0.583	0.486	0.473	0.440	0.443	0.497	0.547	0.575	0.819	1.052	2.003	3.291	4.158	5.530	8.882	8.627	4.784	2.410	1.688	1.739	1.962	2.531	3.046	3.590	4.556	5.561	6.736	7.687	7.767	7.931	8.724	8.155	6.676	6.636	6.755	7.015	6.020	4.105	1.948	0.968
330.0	120.1	357.2	900.0	1561	1329	451.9	300.1	420.4	638.4	917.7	1174	1276	1094	888.9	669.6	433.3	189.9	70.30	63.50	196.2	931.2	2948	3790	1335	17.90	5.048	2.657	1.849	1.310	1.134	1.313	0.974	0.739	0.747	0.658	0.883	0.586	0.599	0.503	0.448	0.456	0.437	0.446	0.483	0.532	0.678	0.892	1.596	2.519	3.276	4.358	6.735	6.670	3.692	2.165	1.566	1.464	1.775	2.098	2.439	2.964	3.610	4.286	5.213	5.796	5.847	6.263	6.563	6.244	5.263	4.860	5.124	4.821	3.848	3.145	3.073	2.499
335.0	98.63	265.9	679.3	1156	972.6	367.3	261.8	337.9	484.3	675.6	850.1	932.5	809.6	673.4	456.4	272.7	331.6	168.6	59.84	76.35	232.5	691.5	2270	6775	413.4	24.50	3.941	2.333	1.482	1.097	1.563	0.996	0.750	0.792	0.822	0.921	0.599	0.487	0.580	0.441	0.436	0.454	0.494	0.438	0.526	0.551	0.771	1.153	1.798	2.469	3.246	4.958	5.032	2.880	1.772	1.304	1.469	1.572	1.630	2.060	2.268	2.727	3.165	3.741	4.499	4.394	4.635	4.819	4.617	4.333	3.851	3.781	3.360	2.696	2.026	1.654	2.115
340.0	80.83	212.9	546.7	898.5	763.8	324.1	231.5	290.8	397.2	541.1	670.4	724.3	647.7	539.7	370.5	189.6	249.8	292.8	84.40	54.47	81.91	177.2	583.7	4326	3459	379.9	9.745	2.616	1.863	1.337	1.845	0.981	0.819	0.792	0.789	0.913	0.563	0.567	0.522	0.422	0.436	0.404	0.414	0.468	0.490	0.489	0.714	0.976	1.632	2.105	2.524	4.111	3.933	2.385	1.572	1.182	1.274	1.421	1.565	1.753	1.937	2.283	2.485	2.831	3.399	3.584	3.697	3.783	3.625	3.489	3.031	2.951	2.896	2.210	1.588	1.270	1.251
345.0	63.08	173.5	418.5	716.1	624.8	284.6	221.2	257.9	336.5	442.7	538.8	583.0	524.5	445.0	308.4	163.5	153.3	278.5	202.4	63.93	51.04	66.61	151.9	1174	3555	3363	51.79	5.232	2.182	1.741	2.058	0.927	0.873	0.814	0.834	0.999	0.529	0.549	0.519	0.418	0.423	0.400	0.427	0.454	0.420	0.492	0.591	0.943	1.280	1.727	2.055	3.157	3.273	1.914	1.440	1.218	1.124	1.331	1.506	1.558	1.689	1.975	2.183	2.488	2.848	2.916	3.070	2.927	2.922	2.746	2.669	2.464	2.475	1.944	1.279	1.162	1.032
350.0	54.18	135.2	313.6	539.6	489.6	255.5	212.7	238.2	294.6	363.0	426.7	450.9	413.5	353.2	257.8	152.4	121.9	161.7	234.2	164.1	61.20	47.95	60.17	284.2	988.6	3948	3571	775.4	13.35	2.340	2.481	1.347	1.041	0.867	0.806	0.965	0.497	0.530	0.508	0.507	0.457	0.415	0.421	0.433	0.445	0.423	0.490	0.729	0.985	1.370	1.623	2.384	2.469	1.652	1.287	1.160	1.174	1.236	1.303	1.460	1.598	1.737	1.928	2.184	2.309	2.360	2.431	2.338	2.274	2.124	2.157	2.009	2.134	1.712	1.227	1.147	1.012
355.0	48.16	103.7	239.7	407.7	380.0	233.7	199.1	213.2	250.4	306.7	338.5	350.5	325.8	280.8	217.3	143.9	113.0	114.5	139.6	219.9	142.1	56.42	46.16	89.17	242.4	926.7	2353	3326	345.6	12.26	3.643	1.690	1.251	0.854	0.883	1.172	0.574	0.603	0.420	0.449	0.513	0.360	0.395	0.415	0.501	0.434	0.534	0.592	0.806	1.094	1.343	1.991	1.968	1.406	1.223	1.074	1.091	1.171	1.299	1.346	1.285	1.622	1.787	1.860	1.991	1.821	1.855	1.911	1.976	1.767	1.732	1.701	1.755	1.460	1.163	1.181	1.079
360.0	38.98	85.66	194.8	345.0	327.4	223.3	200.0	203.3	231.6	265.2	289.8	301.0	273.9	241.1	192.9	136.3	114.1	104.0	102.9	160.5	213.9	74.38	49.03	51.10	80.82	229.6	622.7	2531	2534	273.5	8.292	2.147	1.393	0.960	0.843	1.101	0.614	0.525	0.452	0.574	0.504	0.426	0.366	0.439	0.472	0.419	0.474	0.500	0.768	0.943	1.153	1.779	1.760	1.350	1.114	1.109	1.030	1.100	1.150	1.263	1.252	1.456	1.561	1.678	1.626	1.580	1.588	1.537	1.726	1.505	1.597	1.485	1.559	1.312	1.156	1.173	1.063
365.0	34.20	73.28	163.7	293.1	290.6	220.9	200.3	199.5	225.6	244.7	265.4	262.8	241.5	216.1	178.7	131.8	114.0	102.8	96.54	110.5	191.8	167.7	64.96	47.88	49.33	76.96	158.5	743.8	2474	2129	47.36	3.705	1.775	1.340	1.238	1.404	0.672	0.509	0.517	0.482	0.535	0.563	0.330	0.507	0.481	0.408	0.432	0.478	0.687	0.830	0.945	1.388	1.449	1.183	1.163	1.101	1.044	1.090	1.104	1.089	1.177	1.324	1.396	1.399	1.503	1.635	1.555	1.335	1.584	1.265	1.380	1.365	1.288	1.179	1.087	1.079	0.941
370.0	41.27	67.80	140.2	243.5	261.6	213.1	195.0	193.9	208.6	224.2	236.5	229.3	214.4	191.7	161.6	130.0	115.9	106.0	98.55	95.27	121.5	177.9	146.8	69.38	48.46	48.15	57.45	181.1	722.1	1889	4352	191.2	11.58	1.825	1.491	1.571	0.724	0.593	0.572	0.500	0.505	0.497	0.410	0.568	0.497	0.432	0.461	0.482	0.572	0.745	0.868	1.262	1.280	1.097	1.176	1.033	1.154	1.046	1.108	1.069	1.015	1.212	1.329	1.245	1.312	1.358	1.345	1.322	1.370	1.215	1.273	1.096	1.213	1.145	1.072	0.977	1.034
375.0	38.66	59.65	126.1	214.0	237.2	209.9	190.5	187.7	193.4	203.0	211.1	212.4	192.8	169.5	146.4	124.4	111.9	106.8	101.1	95.44	96.97	115.9	173.3	140.3	61.24	47.39	39.94	58.38	172.8	449.9	3244	2799	297.8	10.22	1.952	1.851	0.818	0.724	0.650	0.513	0.572	0.561	0.368	0.542	0.442	0.430	0.456	0.490	0.513	0.530	0.791	1.167	1.143	0.987	1.090	1.006	1.090	1.024	1.109	1.039	0.995	1.092	1.153	1.292	1.334	1.279	1.240	1.347	1.153	1.069	1.153	1.099	1.206	1.124	1.103	1.028	0.942
380.0	38.17	51.08	114.0	188.0	222.4	208.9	188.9	178.3	179.1	190.8	191.0	191.6	179.9	158.7	140.6	121.2	110.3	104.5	99.81	94.90	92.57	93.33	126.0	179.9	97.69	51.36	38.52	33.38	53.16	111.6	870.6	2577	2305	216.2	6.243	2.651	1.018	0.765	0.629	0.529	0.537	0.537	0.437	0.542	0.458	0.452	0.461	0.460	0.567	0.495	0.759	1.052	1.041	1.093	1.079	1.041	0.965	0.941	1.015	1.023	0.953	1.018	1.086	1.128	1.122	1.151	1.155	1.204	0.997	1.104	1.109	1.166	1.084	1.049	0.950	0.951	0.912
385.0	38.12	50.53	107.8	182.8	221.8	202.9	186.2	179.3	171.1	180.7	182.8	174.1	166.4	150.0	131.1	118.9	110.8	103.1	101.6	95.06	91.94	88.03	93.13	150.8	148.0	62.39	39.72	29.24	28.93	37.73	206.7	789.8	2287	1785	38.73	4.365	1.310	0.812	0.768	0.536	0.645	0.579	0.450	0.553	0.494	0.413	0.431	0.449	0.453	0.591	0.772	1.056	1.000	1.044	1.101	1.069	1.063	0.938	1.040	0.990	1.051	1.021	1.069	1.025	1.113	1.028	1.113	1.044	0.985	1.089	1.054	1.174	1.097	1.001	0.940	0.908	0.922
390.0	31.91	49.12	97.78	165.2	203.0	196.8	183.1	170.2	164.9	167.6	170.8	164.4	154.8	141.4	125.2	113.4	106.2	102.3	96.58	92.27	90.91	86.46	84.48	99.51	138.6	117.8	52.53	31.26	25.05	23.46	58.98	186.2	659.8	1595	1948	764.3	9.485	1.210	1.083	0.702	0.726	0.623	0.532	0.584	0.508	0.452	0.434	0.409	0.501	0.535	0.707	0.957	0.993	0.979	1.098	1.048	1.021	1.001	1.068	1.022	1.005	1.041	1.032	1.038	1.086	0.976	1.051	1.108	1.002	1.009	0.970	1.011	0.984	0.910	0.886	0.932	0.961
395.0	32.33	47.12	91.39	149.6	194.1	196.2	184.1	167.4	156.3	154.8	157.7	155.2	141.8	131.2	119.9	107.6	98.82	98.91	94.99	90.57	90.36	85.88	81.04	80.56	90.26	124.0	104.6	44.48	28.33	23.09	27.81	52.46	155.0	377.2	1363	3838	241.6	7.471	1.320	0.883	0.811	0.659	0.548	0.679	0.450	0.486	0.381	0.460	0.488	0.507	0.660	0.865	0.891	0.950	1.094	0.983	0.989	0.993	1.059	1.031	1.037	0.956	1.015	1.035	1.002	0.933	0.862	1.044	0.928	0.976	0.943	0.982	0.882	0.861	1.018	0.932	0.962
400.0	29.88	48.98	92.93	150.6	189.9	192.5	179.9	167.0	152.3	149.3	150.4	145.1	138.0	122.9	112.8	102.8	94.47	95.14	91.45	88.04	86.16	82.80	78.86	74.76	72.16	90.43	125.6	74.23	32.34	25.23	23.02	23.79	44.06	91.63	368.0	2829	1505	37.60	3.830	1.107	0.936	0.663	0.598	0.592	0.479	0.520	0.423	0.493	0.514	0.508	0.672	0.795	0.912	0.892	1.010	1.100	1.188	1.070	1.012	1.003	0.949	0.920	0.941	1.018	0.904	0.873	0.811	0.870	0.995	0.947	0.916	0.886	0.789	0.918	1.006	0.815	0.933
405.0	27.35	43.33	87.70	144.2	183.4	188.6	176.4	164.3	154.4	144.2	141.8	136.2	130.8	121.2	111.7	99.58	91.94	91.50	88.62	85.46	85.70	79.95	75.54	73.38	66.16	68.14	101.2	106.6	47.44	28.16	22.76	18.92	20.08	28.17	89.29	832.9	1424	1178	33.41	2.022	1.143	0.846	0.650	0.665	0.519	0.466	0.459	0.483	0.493	0.501	0.650	0.791	0.840	0.863	0.865	0.999	1.004	0.974	0.903	0.902	1.016	0.957	0.848	0.876	0.846	0.847	0.868	0.799	0.892	0.959	0.934	0.871	0.876	0.820	0.878	0.789	1.019
410.0	28.31	41.45	84.97	138.1	173.5	183.4	171.3	160.3	148.9	135.9	129.0	124.0	119.6	111.5	103.3	92.09	86.99	84.13	82.81	80.93	80.15	76.21	73.59	69.16	63.45	59.49	66.45	91.43	85.11	42.35	24.95	18.86	15.78	15.19	26.79	192.4	405.1	1077	1292	145.3	9.565	1.093	0.803	0.876	0.629	0.552	0.490	0.469	0.535	0.548	0.657	0.792	0.814	0.882	1.028	0.983	0.997	0.990	0.988	0.954	1.023	0.854	0.801	0.913	0.852	0.768	0.891	0.810	0.891	1.015	0.798	0.817	0.809	0.773	0.851	0.751	0.847
