Sample:	'1
File name:	章丘二厂6.23 19.45 圣泉东门水拐角.FD3
Run date:	'10:40:01, 06/24/2025
Operator:	Administrator
Comment:	'

Instrument
Model:	F-2700 FL Spectrophotometer
Serial number:	23B8-004
ROM Version:	4J14000 07

Instrument parameters
Measurement type:	3-D scan
Data mode:	Fluorescence
EX  Start WL:	220.0 nm
EX  End WL:	600.0 nm
EX Sampling interval:	5.0 nm
EM  Start WL:	230.0 nm
EM  End WL:	650.0 nm
EM Sampling interval:	5.0 nm
Scan speed:	12000 nm/min
EX Slit:	5.0 nm
EM Slit:	5.0 nm
PMT Voltage:	700 V
Response:	Auto 
Corrected spectra:	Off
Contour interval:	50.000

Peak integration
Integration method:	Rectangular
Sensitivity:	1
Threshold:	1.000

Peaks
No.	ApexEX/EM(nm)	Height(Data)
1	260.0/575.0	186.2
2	265.0/585.0	205.6
3	270.0/600.0	210.3
4	275.0/345.0	5036
5	275.0/610.0	199.2
6	445.0/345.0	7.799
7	560.0/345.0	21.66

Data points
	220.0	225.0	230.0	235.0	240.0	245.0	250.0	255.0	260.0	265.0	270.0	275.0	280.0	285.0	290.0	295.0	300.0	305.0	310.0	315.0	320.0	325.0	330.0	335.0	340.0	345.0	350.0	355.0	360.0	365.0	370.0	375.0	380.0	385.0	390.0	395.0	400.0	405.0	410.0	415.0	420.0	425.0	430.0	435.0	440.0	445.0	450.0	455.0	460.0	465.0	470.0	475.0	480.0	485.0	490.0	495.0	500.0	505.0	510.0	515.0	520.0	525.0	530.0	535.0	540.0	545.0	550.0	555.0	560.0	565.0	570.0	575.0	580.0	585.0	590.0	595.0	600.0
230.0	80.91	1097	1664	355.0	16.22	8.517	8.253	7.926	7.762	8.141	7.821	7.980	7.037	6.072	4.976	4.099	3.768	3.408	2.990	2.559	2.507	2.219	2.009	1.963	1.888	1.645	1.583	1.464	1.407	1.246	1.184	1.111	1.150	1.026	0.971	0.836	0.790	0.730	0.623	0.646	0.689	0.632	0.579	0.541	0.512	0.564	1.849	5.337	6.690	3.873	1.391	0.530	0.375	0.358	0.365	0.330	0.341	0.336	0.322	0.304	0.311	0.324	0.334	0.321	0.308	0.320	0.265	0.300	0.312	0.305	0.305	0.280	0.289	0.260	0.283	0.274	0.332
235.0	56.59	321.7	1431	2003	460.0	31.19	9.666	9.682	8.733	9.318	9.066	7.712	8.149	6.202	4.960	4.323	3.951	3.725	3.036	2.543	2.398	2.412	2.303	1.984	1.805	1.740	1.611	1.503	1.456	1.402	1.337	1.089	1.123	1.120	1.010	0.877	0.730	0.741	0.694	0.722	0.593	0.680	0.599	0.654	0.555	0.518	0.726	1.772	3.266	5.419	7.556	7.732	3.445	0.901	0.333	0.352	0.326	0.377	0.291	0.347	0.326	0.388	0.356	0.341	0.292	0.285	0.255	0.289	0.272	0.306	0.267	0.401	0.286	0.276	0.300	0.305	0.275
240.0	74.69	109.3	515.9	2451	3000	398.1	24.73	12.37	11.07	10.88	9.102	9.252	7.780	6.435	5.486	4.447	3.979	3.504	3.405	2.773	2.603	2.312	2.379	2.196	1.767	1.890	1.788	1.563	1.502	1.353	1.275	1.025	1.147	0.927	0.979	0.902	0.852	0.810	0.630	0.693	0.577	0.610	0.630	0.544	0.628	0.615	0.547	0.753	1.067	2.054	4.948	12.28	15.46	10.65	3.836	0.670	0.377	0.398	0.395	0.450	0.380	0.380	0.322	0.303	0.280	0.303	0.302	0.278	0.265	0.288	0.333	0.371	0.288	0.282	0.332	0.315	0.284
245.0	69.37	88.47	144.8	1048	4762	3521	322.4	19.13	13.29	13.42	10.11	8.778	8.234	6.900	6.489	5.274	4.091	4.096	3.577	2.827	2.778	2.448	2.486	2.104	1.815	1.965	1.515	1.539	1.550	1.292	1.221	1.235	1.217	0.948	1.017	0.861	0.781	0.753	0.666	0.661	0.641	0.664	0.550	0.646	0.659	0.596	0.631	0.656	0.561	0.776	1.425	4.822	13.86	25.71	23.56	13.50	3.459	0.539	0.449	0.477	0.369	0.381	0.397	0.381	0.286	0.285	0.344	0.288	0.289	0.275	0.326	0.307	0.284	0.344	0.270	0.320	0.289
250.0	51.76	81.91	112.9	281.4	1865	6527	8042	1446	93.58	18.74	15.57	12.32	10.89	8.539	6.676	5.859	4.538	4.103	3.813	3.126	2.948	2.338	2.360	2.307	2.202	2.036	1.713	1.761	1.658	1.593	1.354	1.263	1.231	1.018	1.064	0.911	0.868	0.807	0.746	0.653	0.712	0.688	0.616	0.633	0.643	0.590	0.610	0.650	0.604	0.683	0.695	1.499	3.762	9.258	18.87	33.56	41.23	43.79	14.33	5.622	0.637	0.417	0.449	0.400	0.375	0.376	0.392	0.370	0.312	0.334	0.330	0.341	0.325	0.326	0.287	0.352	0.337
255.0	56.29	55.01	112.4	173.7	468.6	1896	9999.9	9999.9	2130	111.8	22.98	17.93	13.23	11.42	8.160	7.034	5.547	4.694	4.260	3.756	3.272	2.601	2.675	2.499	2.406	2.286	1.850	1.799	1.841	1.488	1.748	1.326	1.233	1.102	1.243	0.996	0.906	0.822	0.772	0.859	0.724	0.802	0.721	0.657	0.522	0.632	0.548	0.599	0.598	0.736	0.817	0.935	1.274	2.495	4.636	8.583	19.49	55.77	98.26	94.55	23.13	6.070	0.643	0.569	0.509	0.522	0.468	0.477	0.438	0.388	0.392	0.318	0.379	0.401	0.401	0.378	0.455
260.0	58.11	50.22	70.37	173.6	237.8	492.9	3551	9999.9	9999.9	1664	69.02	26.32	17.88	13.61	9.949	8.337	6.312	5.508	4.679	4.370	3.881	2.995	2.781	2.593	2.438	2.336	2.125	1.838	1.852	1.714	1.714	1.508	1.463	1.221	1.135	0.964	0.934	0.951	0.938	0.926	0.848	0.778	0.763	0.771	0.701	0.675	0.643	0.569	0.554	0.608	0.799	1.125	1.287	1.282	1.624	2.480	5.065	16.01	48.81	108.5	135.5	31.85	18.59	2.850	0.664	0.632	0.519	0.486	0.525	0.421	0.405	0.446	0.415	0.421	0.396	0.366	0.537
265.0	72.60	57.74	58.06	117.9	260.9	254.2	893.7	5408	9999.9	9999.9	1190	42.67	24.94	17.23	13.06	9.440	7.657	5.744	5.598	4.345	3.868	3.754	3.167	2.716	2.711	2.461	2.488	2.043	1.877	1.886	1.607	1.645	1.553	1.371	1.230	1.081	0.986	1.015	0.960	0.869	1.018	0.913	0.812	0.751	0.749	0.796	0.747	0.691	0.528	0.547	0.602	0.872	1.372	1.502	1.369	1.207	1.851	4.266	12.14	34.37	87.73	147.1	165.8	29.59	12.89	1.288	0.681	0.626	0.557	0.569	0.552	0.421	0.504	0.414	0.500	0.391	0.437
270.0	293.9	259.6	183.3	118.4	207.5	356.9	432.5	1381	5759	9999.9	9999.9	4824	83.43	28.28	19.09	12.83	10.62	7.757	6.575	5.419	4.476	4.084	3.516	3.151	3.082	2.746	2.536	2.392	2.228	2.104	1.983	1.947	1.665	1.624	1.589	1.429	1.376	1.301	1.235	1.139	1.188	1.235	1.157	1.198	1.171	1.260	1.119	1.199	0.884	0.782	0.732	0.788	0.934	1.396	1.753	1.938	2.043	2.081	3.605	8.459	21.40	46.18	92.93	130.0	168.4	127.2	75.34	9.565	1.527	0.649	0.589	0.553	0.633	0.551	0.548	0.458	0.556
275.0	942.4	851.8	573.9	241.1	176.6	306.6	564.3	610.5	1499	3269	9999.9	9999.9	6536	93.68	30.03	19.85	14.05	9.989	8.005	6.576	5.515	4.591	4.810	3.845	3.515	3.237	2.763	2.457	2.498	2.225	2.229	2.147	2.122	2.157	2.462	2.114	2.113	1.977	1.844	1.755	1.926	2.052	2.069	2.360	2.366	2.611	2.482	2.480	1.941	1.469	1.157	1.035	0.961	1.199	1.305	1.608	2.700	3.284	3.021	3.200	5.993	11.47	21.97	31.31	55.16	121.2	233.7	223.8	30.39	12.57	1.193	0.742	0.700	0.749	0.676	0.570	0.541
280.0	1598	1480	980.5	391.3	207.6	269.2	521.3	727.8	624.4	1066	4260	9999.9	9999.9	1059	65.94	27.80	17.94	12.58	10.32	8.469	6.452	5.528	5.018	4.161	4.044	3.650	3.130	2.798	2.716	2.398	2.260	2.356	2.454	2.597	3.109	3.359	3.017	2.475	2.249	2.257	2.638	2.688	2.763	3.422	3.525	4.016	3.642	3.628	3.146	2.072	1.624	1.286	1.163	1.284	1.309	1.516	2.016	2.999	3.906	3.791	3.467	4.079	6.566	9.036	14.41	31.34	86.53	192.4	262.2	204.4	25.63	6.744	1.008	0.873	0.760	0.647	0.697
285.0	2179	1988	1352	525.0	241.8	282.5	437.6	793.7	847.8	762.5	1473	6170	9999.9	9999.9	748.2	43.30	24.48	16.01	12.13	10.08	7.570	6.271	5.672	4.879	4.136	3.960	3.297	3.131	2.824	2.465	2.645	2.239	2.710	3.125	3.967	4.357	3.827	3.058	3.101	2.878	3.159	3.378	3.772	4.128	4.534	5.031	4.813	4.853	3.997	2.966	1.974	1.596	1.244	1.373	1.483	1.666	1.878	2.450	3.092	4.215	4.631	4.196	3.922	4.672	6.009	9.588	21.95	51.86	120.2	240.7	259.0	168.1	19.61	2.798	1.077	0.931	0.878
290.0	2705	2483	1671	674.0	295.2	311.4	447.1	718.1	1145	1299	1311	2286	6133	9999.9	9999.9	3084	59.17	25.72	17.54	13.02	9.614	7.484	6.597	5.711	4.723	4.432	3.910	3.475	3.309	2.924	2.869	2.539	3.105	3.756	4.762	5.190	4.594	4.020	3.732	3.558	3.844	4.091	4.518	5.301	5.861	6.180	5.863	5.935	4.960	3.517	2.418	1.821	1.489	1.474	1.610	1.664	1.985	2.561	2.909	3.479	4.768	5.813	6.310	6.401	5.850	6.630	9.279	15.54	31.01	64.58	111.4	180.0	202.1	157.9	114.9	14.21	4.135
295.0	2939	2655	1801	772.3	361.7	373.4	520.5	770.9	1175	1781	1966	1918	2423	3269	9999.9	9999.9	4519	66.57	27.37	17.61	13.08	10.27	8.362	7.025	5.731	5.418	4.448	4.195	3.645	3.379	2.991	2.819	3.016	3.967	5.207	5.339	5.366	4.615	4.433	4.171	4.039	4.688	5.218	5.544	6.239	6.614	6.471	6.352	5.310	4.145	2.774	2.146	1.866	1.603	1.919	1.890	2.220	2.742	3.256	4.022	4.651	5.452	6.553	9.080	10.01	8.780	8.521	9.497	12.54	19.64	28.83	43.50	54.13	97.44	229.3	270.6	180.5
300.0	2934	2627	1827	825.9	414.8	409.3	590.1	875.9	1267	1847	2537	2297	1833	1531	3556	9999.9	9999.9	653.4	50.34	23.19	16.45	12.28	9.329	7.542	6.626	5.522	4.878	4.473	3.885	3.598	3.480	3.123	3.554	4.258	5.093	5.531	5.384	5.147	4.892	4.699	4.479	4.838	5.135	5.768	6.348	6.597	6.488	6.287	5.538	4.143	2.857	2.497	2.019	1.821	1.987	2.061	2.702	3.098	3.559	4.366	4.894	6.040	7.122	8.595	10.83	12.15	11.19	9.858	10.02	10.44	11.70	13.79	15.30	24.92	68.11	160.7	293.1
305.0	2778	2512	1780	853.2	468.2	463.8	655.4	979.1	1424	1972	2636	2894	2093	1359	1284	4616	9999.9	9999.9	504.4	35.96	22.14	15.46	11.71	9.216	7.581	6.410	5.500	4.747	4.426	3.992	3.436	3.429	3.649	4.182	5.085	5.500	5.544	5.467	4.781	4.989	4.730	5.067	5.144	5.617	6.183	6.404	6.355	6.242	5.412	4.085	3.023	2.707	2.217	2.012	2.124	2.370	3.044	3.361	4.061	4.873	5.552	6.730	7.256	9.112	10.29	12.27	13.26	13.00	11.10	9.891	9.053	7.906	7.213	8.449	17.42	39.92	100.1
310.0	2581	2346	1637	867.5	511.8	546.2	760.7	1125	1613	2178	2746	3113	2736	1705	993.1	1375	4652	9999.9	9999.9	2242	47.44	23.01	16.09	12.08	9.292	7.497	6.458	5.474	4.821	4.511	3.869	3.507	3.800	4.065	4.878	5.351	5.277	5.362	4.902	4.916	4.933	4.960	5.366	5.524	5.765	6.050	5.977	5.985	4.991	3.832	2.979	2.797	2.423	2.389	2.426	2.673	3.292	3.954	4.655	5.370	6.530	7.721	8.552	10.21	11.29	12.45	13.04	13.47	13.60	12.95	10.73	8.261	6.927	5.789	6.926	11.17	24.45
315.0	2475	2251	1576	886.5	621.7	652.2	908.1	1323	1872	2487	3025	3305	3098	2392	1286	829.2	1334	2651	9999.9	9999.9	3630	53.14	23.94	16.62	11.47	9.177	7.696	6.103	5.421	5.281	4.511	3.894	3.756	3.944	4.907	5.035	5.087	5.308	4.956	4.604	4.923	5.161	5.084	5.465	5.713	5.847	5.595	5.646	4.919	3.961	2.958	3.075	2.692	2.619	2.697	3.057	3.779	4.556	5.296	6.142	7.353	8.533	10.10	10.82	12.96	13.35	13.53	14.65	14.15	14.00	13.76	11.74	9.823	6.951	6.058	5.766	8.235
320.0	2515	2267	1639	947.9	697.7	772.2	1054	1522	2121	2794	3352	3630	3336	2763	1791	913.0	727.8	870.2	2994	9999.9	9999.9	506.3	44.81	21.47	15.26	11.02	8.856	7.387	6.264	5.493	4.939	4.156	3.687	3.966	4.756	4.991	5.200	5.094	5.291	4.913	5.067	5.047	5.244	5.803	5.487	5.915	5.658	5.685	4.956	3.988	3.218	3.177	3.090	2.987	3.237	3.741	4.329	5.253	5.866	7.084	8.131	9.602	10.95	12.18	13.67	14.37	15.03	15.27	15.12	14.95	14.30	13.32	12.51	9.425	7.217	5.756	5.550
325.0	2663	2416	1782	1078	808.8	900.2	1205	1718	2384	3099	3723	3987	3678	3006	2227	1221	730.1	556.9	907.1	3758	9999.9	9999.9	433.1	32.13	19.80	13.74	10.39	8.569	7.327	5.876	5.388	4.367	3.817	4.005	4.480	4.607	5.082	5.188	5.455	5.028	5.335	5.278	5.433	5.734	6.085	6.284	6.162	6.301	5.391	4.261	3.701	3.695	3.259	3.287	3.548	4.162	5.211	5.712	6.632	7.745	9.409	10.69	11.97	13.56	15.13	15.71	16.68	16.65	16.51	16.29	15.22	13.65	13.63	11.44	9.489	7.269	5.889
330.0	2928	2650	2028	1288	957.5	1045	1400	1985	2718	3522	4177	4450	4154	3401	2494	1630	992.3	614.4	518.5	1054	3941	9999.9	9999.9	6759	41.12	19.88	14.14	10.77	8.440	7.220	6.116	5.043	4.159	4.555	4.811	4.704	5.428	5.323	5.408	5.187	5.477	5.800	5.800	5.960	6.683	6.778	6.669	6.857	5.849	4.742	4.226	4.132	3.777	3.811	3.940	4.442	5.772	6.442	7.451	8.965	10.78	12.16	13.85	15.18	16.88	17.61	18.32	18.60	18.97	18.22	17.18	15.78	14.62	12.57	10.68	9.602	8.071
335.0	3183	2838	2152	1471	1129	1176	1584	2218	3018	3854	4561	4842	4575	3798	2767	1789	1343	835.2	536.1	507.1	1040	2484	9999.9	9999.9	3215	46.79	20.71	15.01	11.28	8.972	7.224	6.072	5.042	5.013	4.686	4.987	5.360	5.365	5.622	5.520	5.560	6.110	6.441	6.388	7.323	7.116	7.271	7.222	6.376	5.398	4.625	4.701	4.446	4.377	4.508	5.098	6.133	7.258	8.229	9.830	11.95	13.38	15.07	16.90	18.24	18.79	19.57	20.43	20.37	20.37	19.21	17.64	16.53	14.11	11.45	9.935	9.064
340.0	3307	3009	2198	1527	1232	1285	1690	2335	3187	4035	4740	5008	4780	4011	2953	1888	1396	1046	623.6	435.6	431.6	685.1	2778	9999.9	9999.9	2547	38.05	18.69	13.75	9.759	8.050	6.601	5.598	5.332	5.062	4.844	5.769	5.296	5.501	5.508	5.886	6.265	6.563	6.611	7.551	7.700	7.438	7.344	6.628	5.554	4.882	4.940	4.580	4.696	4.801	5.478	6.455	7.469	8.940	10.45	12.15	13.86	15.42	17.27	19.25	20.00	20.47	21.09	21.12	21.03	19.87	18.58	17.92	14.74	12.62	10.81	9.381
345.0	3339	2973	2250	1573	1260	1325	1755	2382	3216	4076	4752	5036	4809	4043	3037	1946	1379	1106	777.5	473.0	338.2	317.7	736.8	3500	9999.9	9999.9	391.4	29.71	16.73	11.86	8.788	6.813	5.849	5.394	5.077	5.075	5.317	5.363	5.318	5.513	5.892	5.802	6.513	6.824	7.482	7.799	7.293	7.281	6.768	5.433	5.010	5.062	4.689	4.807	4.905	5.407	6.786	7.920	8.778	10.61	11.96	14.37	15.69	17.75	19.40	19.85	21.28	21.01	21.66	20.45	20.12	18.80	17.92	15.00	12.80	10.99	9.585
350.0	3253	2933	2154	1548	1270	1370	1766	2384	3194	3998	4623	4901	4704	4010	3024	1978	1395	1067	885.7	639.8	401.7	299.9	335.2	909.6	3737	9999.9	9999.9	5822	35.62	16.69	11.70	8.736	6.966	5.770	5.583	5.154	5.240	5.433	5.131	5.483	5.602	5.978	6.387	7.002	7.193	7.664	7.003	7.055	6.414	5.117	4.904	5.025	4.709	4.962	5.033	5.610	6.644	7.902	8.848	10.52	12.05	13.86	15.78	17.40	18.63	19.41	20.03	20.51	20.86	20.50	19.31	18.66	17.97	15.15	12.44	11.22	9.734
355.0	3173	2777	2005	1509	1273	1405	1789	2387	3130	3890	4450	4676	4492	3868	2955	1973	1433	1096	891.0	794.0	570.5	388.3	317.3	384.7	963.1	2464	9999.9	9999.9	2930	41.28	16.99	11.40	8.777	6.799	5.892	5.331	5.235	5.249	5.462	5.154	5.424	5.730	6.115	6.612	6.833	7.476	6.774	6.723	6.062	4.941	4.414	4.841	4.818	4.964	5.175	5.993	6.748	7.680	8.873	10.37	11.89	13.67	14.83	16.70	17.47	18.60	18.89	19.22	19.63	20.07	18.30	18.07	16.63	15.36	12.29	10.92	9.785
360.0	3036	2637	1897	1474	1292	1412	1785	2355	3054	3757	4267	4452	4285	3728	2868	1952	1450	1134	920.1	814.3	722.1	500.6	375.0	315.1	382.3	672.3	2718	9999.9	9999.9	2349	33.19	14.06	10.35	7.478	6.216	5.723	5.141	5.293	5.283	5.494	5.081	5.976	6.167	6.427	6.565	6.805	6.542	6.390	5.716	4.779	4.409	5.063	4.832	5.243	5.405	5.713	7.021	7.591	8.747	10.18	11.29	13.47	14.32	15.85	17.08	17.48	17.82	18.57	18.91	18.90	17.75	17.31	16.10	14.39	12.10	10.73	9.818
365.0	2850	2501	1793	1406	1293	1402	1761	2303	2960	3603	4056	4238	4072	3555	2772	1912	1446	1169	966.4	837.0	776.8	651.2	461.0	355.7	299.7	303.1	714.2	3424	9999.9	9999.9	362.7	22.72	12.80	9.319	7.456	5.880	5.355	5.621	5.313	5.265	5.025	5.563	6.304	5.979	6.358	6.775	6.248	6.059	5.533	4.561	4.157	4.915	4.615	5.048	5.494	5.406	6.819	7.740	8.344	10.17	10.85	12.89	13.96	15.39	16.37	17.15	17.68	17.98	18.20	17.65	17.35	16.76	15.68	14.16	11.80	10.92	9.837
370.0	2668	2314	1674	1327	1263	1413	1725	2216	2797	3362	3771	3919	3766	3319	2622	1859	1451	1212	1039	916.6	821.4	767.4	631.0	463.4	354.8	282.0	311.6	870.0	3647	9999.9	9999.9	5080	30.04	13.66	9.359	7.130	6.127	5.980	5.684	5.358	5.277	5.437	6.047	5.953	6.317	6.258	5.868	5.783	5.171	4.275	4.100	4.836	4.681	5.240	5.418	5.621	6.644	7.412	8.284	9.400	10.54	11.89	13.25	14.41	15.25	15.61	16.03	16.33	16.50	16.59	16.07	15.48	14.87	13.29	11.57	10.72	9.468
375.0	2408	2092	1542	1255	1239	1397	1693	2109	2608	3095	3471	3579	3435	3057	2453	1799	1455	1254	1111	1002	900.0	817.4	772.3	638.9	450.8	344.8	272.6	334.8	911.3	2459	9999.9	9999.9	2515	34.14	13.55	9.244	7.479	6.658	6.031	5.210	5.356	5.648	5.758	5.748	6.073	5.770	5.393	5.694	4.718	4.106	4.046	4.664	4.529	4.876	5.425	5.846	6.491	7.274	8.328	9.583	9.754	11.07	11.98	13.25	14.09	14.33	14.85	14.64	15.11	14.45	14.87	13.93	13.63	12.57	11.26	10.47	9.107
380.0	2305	1972	1469	1221	1248	1387	1661	2026	2487	2917	3221	3318	3190	2851	2335	1755	1456	1272	1160	1062	970.7	876.9	811.4	754.6	558.4	410.8	306.2	251.8	328.1	637.7	2764	9999.9	9999.9	1900	26.43	11.62	9.377	7.346	6.484	5.563	5.713	5.670	5.718	5.612	5.745	5.487	5.243	5.439	4.458	3.918	3.885	4.468	4.516	4.913	5.331	5.976	6.427	6.868	8.039	8.522	9.438	10.93	11.73	12.64	12.65	13.59	14.07	13.95	14.00	14.11	13.34	13.51	13.11	11.63	10.68	10.14	9.124
385.0	2165	1863	1385	1177	1238	1371	1613	1965	2353	2725	3029	3102	2971	2688	2231	1731	1453	1297	1190	1113	1025	933.1	847.8	793.8	680.3	483.9	358.8	273.0	233.5	259.0	704.2	3428	9999.9	9999.9	290.8	18.38	11.27	8.376	6.795	6.142	5.829	5.594	5.593	5.567	5.449	5.580	5.141	5.426	4.560	3.756	3.661	4.338	4.466	4.827	5.061	5.645	6.410	6.738	7.660	8.630	9.057	10.14	11.17	12.03	12.30	12.74	12.95	12.84	13.01	12.74	13.02	12.73	12.25	11.29	10.40	9.953	9.556
390.0	1982	1700	1302	1165	1229	1378	1584	1888	2216	2540	2775	2848	2739	2501	2107	1688	1455	1322	1229	1154	1084	1004	916.8	824.1	750.2	621.3	453.0	347.4	274.5	230.4	287.8	867.1	3503	9999.9	9999.9	1162	24.60	11.46	8.671	7.242	6.081	5.704	5.636	5.530	5.470	5.409	4.833	4.986	4.324	3.761	3.590	4.323	4.475	4.947	5.235	5.438	6.285	6.881	7.538	8.312	8.919	9.748	10.13	10.98	11.49	11.83	11.85	12.17	12.09	11.95	12.10	11.64	11.53	11.07	10.01	9.683	9.343
395.0	1820	1582	1257	1127	1204	1354	1560	1848	2120	2389	2586	2625	2517	2314	1987	1642	1449	1339	1254	1183	1128	1059	973.9	881.2	783.3	707.5	594.8	443.7	351.8	288.1	249.6	332.4	884.3	2450	9230	9999.9	2011	27.57	11.37	8.953	7.210	6.011	5.753	5.636	5.266	5.161	4.769	4.672	4.296	3.586	3.671	4.514	4.600	5.094	5.135	5.156	6.168	6.980	7.627	7.831	8.412	9.277	9.543	10.11	10.73	11.27	10.91	11.61	11.42	11.07	11.34	10.76	10.73	10.57	9.658	9.130	8.724
400.0	1613	1494	1206	1105	1189	1345	1560	1789	2043	2293	2458	2499	2366	2194	1909	1610	1434	1335	1266	1206	1140	1079	1005	918.8	819.3	736.6	671.1	531.8	416.6	340.1	282.8	248.3	327.4	640.8	2564	9999.9	9999.9	291.4	20.70	10.25	8.316	6.531	6.116	5.458	5.206	4.922	4.733	4.555	4.081	3.529	3.635	4.279	4.522	4.987	5.067	5.368	6.193	6.721	7.188	7.418	8.045	8.931	9.011	9.900	10.50	10.16	10.64	10.39	10.69	10.92	10.21	10.17	10.53	10.35	9.146	8.973	8.899
405.0	1592	1418	1159	1106	1178	1351	1546	1768	2009	2217	2359	2373	2247	2079	1840	1571	1425	1318	1255	1200	1146	1091	1032	943.1	852.5	765.6	700.7	621.7	484.2	401.1	329.1	262.9	231.1	256.2	651.8	3219	9999.9	9999.9	246.6	14.46	9.333	7.183	6.258	5.539	5.389	5.190	4.714	4.352	4.079	3.577	3.567	4.194	4.490	4.936	5.021	5.833	6.468	6.676	7.019	7.402	7.976	8.727	8.861	9.323	9.844	9.801	10.09	10.10	10.06	10.02	10.02	9.720	9.647	9.682	8.969	8.917	8.697
410.0	1454	1345	1099	1064	1177	1331	1530	1734	1947	2125	2253	2243	2104	1948	1746	1513	1376	1295	1231	1175	1131	1091	1042	970.0	886.4	805.9	721.7	673.0	596.7	486.6	394.8	316.4	251.2	204.4	248.1	792.0	3245	9999.9	9999.9	1072	20.92	9.375	7.364	6.061	5.327	4.998	4.661	4.348	3.965	3.526	3.405	4.177	4.395	4.936	5.125	5.506	6.255	6.511	7.121	7.333	7.890	8.237	8.717	8.981	9.515	9.400	9.649	9.479	9.843	9.590	9.226	9.149	9.195	9.368	8.731	8.618	8.652
415.0	1363	1207	1058	1030	1165	1293	1497	1689	1886	2045	2149	2106	1974	1809	1636	1445	1331	1246	1193	1138	1101	1069	1032	974.5	902.7	827.9	751.7	690.8	654.6	586.5	461.5	371.5	295.2	223.1	183.7	267.4	785.0	2401	7427	9999.9	1728	24.15	8.891	7.285	5.699	5.299	4.651	4.301	3.923	3.391	3.357	3.975	4.571	4.885	4.999	5.590	6.029	6.338	6.854	7.031	7.684	8.233	8.649	8.559	9.506	8.753	9.103	8.538	9.332	8.992	8.986	8.654	8.688	8.922	8.398	8.184	8.226
420.0	1301	1149	1003	1018	1134	1269	1455	1654	1842	1968	2064	2024	1864	1698	1554	1384	1287	1205	1146	1107	1073	1040	1010	962.6	902.7	837.8	763.6	704.1	663.4	627.6	523.1	408.4	326.6	248.8	187.3	166.2	250.3	590.2	2018	9094	9999.9	268.3	17.75	8.331	6.506	5.445	4.552	4.429	3.894	3.467	3.641	4.084	4.316	4.811	4.854	5.502	5.899	6.247	6.764	7.109	7.449	8.285	7.976	8.646	8.796	8.607	8.703	8.744	8.578	8.421	8.206	8.349	8.465	8.236	8.217	7.665	7.935
425.0	1183	1076	987.1	985.7	1096	1248	1435	1618	1794	1906	1978	1936	1776	1626	1472	1328	1235	1164	1110	1061	1043	1012	987.0	943.3	888.6	837.4	774.5	715.7	668.2	637.1	573.6	454.7	355.2	276.5	206.5	159.5	144.9	196.2	498.0	2745	9999.9	8500	226.7	11.92	7.843	6.183	4.892	4.534	4.000	3.407	3.518	3.894	4.385	4.676	4.845	5.177	5.623	6.117	6.730	6.952	7.579	7.832	8.018	8.757	8.532	8.712	8.205	8.326	8.035	7.729	7.920	7.810	8.182	7.551	7.585	7.464	7.701
