Sample:	'1
File name:	支脉河打鱼渔张河汇入后11.FD3
Run date:	'19:08:16, 06/11/2025
Operator:	Administrator
Comment:	'

Instrument
Model:	F-2700 FL Spectrophotometer
Serial number:	23B8-004
ROM Version:	4J14000 07

Instrument parameters
Measurement type:	3-D scan
Data mode:	Fluorescence
EX  Start WL:	220.0 nm
EX  End WL:	600.0 nm
EX Sampling interval:	5.0 nm
EM  Start WL:	230.0 nm
EM  End WL:	650.0 nm
EM Sampling interval:	5.0 nm
Scan speed:	12000 nm/min
EX Slit:	5.0 nm
EM Slit:	5.0 nm
PMT Voltage:	700 V
Response:	Auto 
Corrected spectra:	Off
Contour interval:	50.000

Peak integration
Integration method:	Rectangular
Sensitivity:	1
Threshold:	1.000

Peaks
No.	ApexEX/EM(nm)	Height(Data)
1	225.0/335.0	541.7
2	225.0/560.0	41.44
3	225.0/570.0	38.17
4	225.0/600.0	32.55
5	230.0/345.0	553.6
6	230.0/415.0	407.5
7	230.0/500.0	255.5
8	235.0/375.0	435.3
9	235.0/405.0	413.0
10	235.0/510.0	218.7
11	240.0/260.0	381.7
12	240.0/415.0	403.0
13	240.0/525.0	195.9
14	245.0/270.0	375.4
15	245.0/535.0	174.8
16	250.0/275.0	436.1
17	250.0/425.0	388.7
18	250.0/550.0	139.9
19	255.0/280.0	583.7
20	255.0/440.0	375.7
21	255.0/560.0	125.3
22	260.0/285.0	587.0
23	260.0/435.0	379.5
24	260.0/575.0	101.1
25	265.0/290.0	572.2
26	265.0/585.0	99.23
27	270.0/300.0	789.6
28	270.0/595.0	80.88
29	275.0/305.0	931.3
30	275.0/375.0	319.4
31	275.0/610.0	66.57
32	280.0/310.0	778.6
33	280.0/335.0	394.7
34	280.0/625.0	58.63
35	285.0/315.0	733.3
36	285.0/635.0	41.97
37	290.0/325.0	634.9
38	295.0/330.0	479.8
39	300.0/335.0	436.5
40	305.0/340.0	368.4
41	310.0/350.0	296.4
42	315.0/355.0	274.8
43	320.0/360.0	266.3
44	325.0/370.0	232.1
45	330.0/375.0	225.2
46	335.0/380.0	231.2
47	345.0/395.0	181.1
48	350.0/400.0	186.3
49	355.0/405.0	172.9
50	365.0/420.0	150.6
51	370.0/425.0	138.2
52	380.0/440.0	106.7
53	385.0/445.0	95.98
54	400.0/465.0	56.87
55	405.0/470.0	46.02
56	410.0/475.0	38.67
57	415.0/485.0	34.17
58	420.0/490.0	29.01
59	425.0/495.0	25.27
60	430.0/505.0	21.67
61	435.0/510.0	17.66
62	440.0/515.0	15.98
63	445.0/525.0	13.57
64	450.0/530.0	11.08
65	460.0/545.0	7.336
66	470.0/560.0	4.394
67	480.0/260.0	2.024
68	485.0/265.0	2.320
69	495.0/270.0	2.100
70	505.0/275.0	2.958
71	515.0/280.0	3.368
72	520.0/285.0	3.608
73	530.0/290.0	3.410
74	540.0/295.0	4.477
75	545.0/300.0	5.247
76	555.0/305.0	4.901
77	560.0/310.0	4.075
78	575.0/315.0	4.156
79	580.0/290.0	37.28
80	580.0/320.0	4.442
81	585.0/325.0	4.069

Data points
	220.0	225.0	230.0	235.0	240.0	245.0	250.0	255.0	260.0	265.0	270.0	275.0	280.0	285.0	290.0	295.0	300.0	305.0	310.0	315.0	320.0	325.0	330.0	335.0	340.0	345.0	350.0	355.0	360.0	365.0	370.0	375.0	380.0	385.0	390.0	395.0	400.0	405.0	410.0	415.0	420.0	425.0	430.0	435.0	440.0	445.0	450.0	455.0	460.0	465.0	470.0	475.0	480.0	485.0	490.0	495.0	500.0	505.0	510.0	515.0	520.0	525.0	530.0	535.0	540.0	545.0	550.0	555.0	560.0	565.0	570.0	575.0	580.0	585.0	590.0	595.0	600.0
230.0	55.79	554.0	2224	1060	65.73	5.669	4.309	3.451	3.313	2.686	2.365	2.340	1.865	1.629	1.496	1.127	0.955	0.899	0.868	0.733	0.697	0.619	0.578	0.530	0.545	0.465	0.488	0.419	0.430	0.396	0.438	0.387	0.355	0.372	0.304	0.292	0.283	0.314	0.289	0.323	0.328	0.500	0.595	0.424	0.290	0.249	0.492	3.043	7.056	6.566	3.010	0.793	0.241	0.225	0.198	0.217	0.234	0.193	0.199	0.188	0.202	0.183	0.173	0.183	0.218	0.214	0.188	0.202	0.191	0.209	0.180	0.205	0.185	0.182	0.169	0.181	0.209
235.0	153.9	178.2	1029	2324	627.4	109.5	5.854	4.761	2.957	2.856	3.055	2.390	1.852	1.525	1.780	1.176	1.056	1.196	0.881	0.881	0.740	0.650	0.659	0.595	0.515	0.488	0.504	0.407	0.433	0.506	0.437	0.390	0.400	0.351	0.302	0.306	0.272	0.326	0.247	0.295	0.327	0.327	0.529	0.550	0.638	0.424	0.362	0.920	2.241	4.080	7.099	8.562	5.163	1.460	0.294	0.232	0.232	0.192	0.183	0.198	0.176	0.214	0.188	0.156	0.160	0.204	0.227	0.212	0.201	0.196	0.191	0.199	0.162	0.156	0.197	0.192	0.166
240.0	192.0	182.3	293.4	1441	2580	522.7	55.85	5.658	3.804	2.827	3.476	2.351	2.007	2.066	1.693	1.100	1.213	1.109	0.765	0.820	0.812	0.710	0.526	0.569	0.509	0.600	0.580	0.534	0.419	0.404	0.403	0.358	0.376	0.313	0.263	0.330	0.295	0.344	0.278	0.243	0.330	0.323	0.358	0.428	0.612	0.803	0.687	0.574	0.682	1.191	2.868	7.965	12.24	10.05	4.423	0.947	0.250	0.178	0.217	0.213	0.184	0.207	0.211	0.174	0.146	0.207	0.203	0.173	0.217	0.204	0.204	0.187	0.162	0.155	0.177	0.241	0.164
245.0	112.1	267.3	186.0	422.8	2081	2853	395.7	25.84	5.067	3.450	3.563	2.594	2.292	2.111	1.933	1.284	1.158	0.995	0.800	1.102	0.711	0.706	0.526	0.674	0.495	0.611	0.573	0.424	0.471	0.419	0.377	0.360	0.366	0.408	0.343	0.349	0.300	0.317	0.310	0.272	0.309	0.259	0.339	0.383	0.412	0.595	0.917	0.955	0.512	0.467	0.796	2.320	6.244	12.13	14.88	9.894	3.334	0.550	0.270	0.240	0.185	0.192	0.216	0.195	0.176	0.190	0.206	0.181	0.252	0.177	0.215	0.197	0.199	0.183	0.201	0.208	0.178
250.0	44.25	156.8	279.9	243.7	600.7	2006	3082	1339	101.9	6.612	4.149	4.126	2.874	2.359	1.844	1.447	1.406	1.172	1.039	0.967	0.753	0.796	0.628	0.763	0.514	0.565	0.538	0.542	0.449	0.487	0.451	0.438	0.374	0.381	0.346	0.353	0.338	0.333	0.347	0.359	0.312	0.328	0.334	0.306	0.318	0.350	0.482	0.817	0.962	0.942	0.767	0.837	1.680	3.504	6.889	11.43	15.62	15.73	10.50	3.640	0.514	0.223	0.213	0.202	0.183	0.239	0.185	0.210	0.228	0.220	0.199	0.200	0.198	0.181	0.219	0.184	0.188
255.0	28.59	53.02	148.5	368.4	280.0	490.7	1629	4520	1925	127.0	6.958	4.836	3.946	2.732	2.410	1.579	1.499	1.430	1.093	1.063	0.832	0.841	0.611	0.644	0.717	0.598	0.577	0.526	0.473	0.492	0.499	0.402	0.427	0.414	0.443	0.327	0.302	0.298	0.378	0.347	0.319	0.266	0.294	0.311	0.284	0.345	0.432	0.368	0.429	0.784	1.186	1.491	1.019	1.104	1.788	2.809	4.611	10.11	22.64	27.87	16.24	4.482	0.515	0.263	0.208	0.263	0.182	0.176	0.245	0.258	0.192	0.211	0.208	0.217	0.232	0.229	0.228
260.0	26.04	26.69	54.11	260.2	381.7	205.9	436.7	2697	5496	1528	70.86	6.768	4.554	3.510	2.594	2.092	1.642	1.396	1.282	1.270	1.240	0.839	0.774	0.663	0.705	0.649	0.615	0.576	0.425	0.648	0.445	0.457	0.392	0.473	0.403	0.365	0.329	0.264	0.321	0.295	0.285	0.324	0.353	0.323	0.279	0.372	0.298	0.288	0.309	0.359	0.585	1.430	2.024	1.389	0.831	0.885	1.387	2.715	7.773	18.74	30.78	27.80	14.36	2.586	0.347	0.296	0.219	0.283	0.227	0.238	0.195	0.218	0.245	0.231	0.214	0.245	0.222
265.0	31.26	26.99	27.54	100.7	367.2	325.5	148.3	771.0	4072	6000	1116	25.15	5.906	4.599	3.292	2.450	1.814	1.579	1.311	1.227	0.979	0.940	0.781	0.619	0.689	0.704	0.547	0.581	0.605	0.629	0.449	0.479	0.418	0.496	0.541	0.436	0.344	0.331	0.288	0.313	0.260	0.277	0.358	0.345	0.331	0.352	0.283	0.248	0.315	0.276	0.333	0.621	1.496	2.320	1.799	0.905	0.666	0.886	2.121	5.018	12.46	26.81	38.65	25.58	9.716	1.400	0.317	0.266	0.249	0.270	0.182	0.213	0.276	0.281	0.189	0.209	0.286
270.0	31.93	30.02	27.08	38.60	148.8	375.4	331.6	241.5	1126	3975	6267	2513	69.14	7.207	4.537	3.134	2.255	1.868	1.444	1.299	1.069	1.062	0.795	0.788	0.757	0.706	0.605	0.692	0.649	0.528	0.484	0.570	0.491	0.471	0.528	0.415	0.391	0.383	0.308	0.381	0.360	0.277	0.385	0.391	0.339	0.358	0.300	0.326	0.261	0.265	0.257	0.338	0.606	1.088	1.637	2.100	2.060	1.277	0.888	1.441	3.140	7.096	14.73	24.40	28.16	31.69	17.63	8.151	1.238	0.325	0.250	0.250	0.311	0.313	0.203	0.243	0.240
275.0	57.99	53.35	44.75	32.74	53.38	144.4	436.1	370.9	305.5	942.9	2898	8466	1308	80.17	6.909	4.592	3.021	2.463	1.674	1.838	1.368	1.119	0.928	0.858	0.862	0.743	0.749	0.732	0.644	0.568	0.641	0.605	0.555	0.521	0.506	0.480	0.423	0.370	0.404	0.492	0.352	0.339	0.384	0.339	0.376	0.388	0.390	0.458	0.364	0.297	0.272	0.356	0.381	0.476	0.674	0.929	1.855	2.958	2.525	1.263	1.030	1.892	3.626	5.808	7.438	15.40	33.62	50.35	27.44	9.747	0.887	0.316	0.338	0.322	0.285	0.254	0.247
280.0	91.66	79.12	68.18	38.79	38.09	63.35	221.5	583.7	280.5	257.6	753.2	4522	8631	1014	39.03	6.625	4.154	3.032	1.999	1.821	1.483	1.332	1.008	1.067	0.794	0.771	0.784	0.804	0.629	0.665	0.625	0.592	0.540	0.604	0.612	0.524	0.526	0.390	0.524	0.403	0.395	0.356	0.401	0.476	0.345	0.438	0.416	0.491	0.409	0.382	0.312	0.295	0.339	0.392	0.418	0.445	0.834	1.684	3.208	3.368	1.705	0.946	1.211	1.677	2.083	3.991	9.847	25.88	45.94	34.89	23.15	5.206	0.521	0.356	0.286	0.294	0.261
285.0	112.2	109.8	92.58	57.35	40.65	44.70	94.49	397.8	587.0	189.7	228.7	1230	6074	7773	673.7	15.26	5.285	3.619	2.633	1.948	1.759	1.539	1.324	1.169	0.910	0.789	0.778	0.816	0.779	0.692	0.656	0.607	0.603	0.690	0.686	0.545	0.680	0.500	0.530	0.445	0.434	0.425	0.487	0.481	0.425	0.525	0.525	0.634	0.501	0.468	0.413	0.365	0.363	0.355	0.391	0.387	0.451	0.727	1.539	2.735	3.608	2.599	1.114	0.736	0.904	1.446	2.582	6.447	15.09	30.45	54.01	32.70	16.76	2.485	0.360	0.294	0.325
290.0	166.8	166.3	139.4	85.51	58.88	53.52	65.40	159.8	459.0	572.2	207.5	375.4	1624	4895	6439	2063	36.75	5.468	3.474	2.574	2.080	1.679	1.348	1.246	1.001	0.947	0.822	0.890	0.721	0.678	0.686	0.605	0.620	0.662	0.735	0.662	0.717	0.707	0.605	0.521	0.473	0.480	0.518	0.547	0.534	0.567	0.592	0.699	0.638	0.508	0.469	0.430	0.450	0.391	0.433	0.425	0.400	0.577	0.768	1.141	1.912	2.928	3.410	2.789	1.632	1.056	1.184	2.057	3.910	7.737	16.92	24.98	37.28	36.04	30.41	11.77	2.674
295.0	210.8	233.6	190.8	123.3	78.97	69.95	74.07	104.6	198.6	505.8	703.6	262.2	485.6	1194	2846	7606	731.3	39.00	5.031	3.841	2.982	1.956	1.604	1.315	1.181	1.014	0.916	0.882	1.046	0.715	0.701	0.697	0.763	0.710	0.804	0.690	0.770	0.671	0.659	0.593	0.565	0.573	0.537	0.596	0.555	0.627	0.725	0.728	0.821	0.647	0.531	0.525	0.441	0.493	0.481	0.526	0.461	0.549	0.663	0.731	0.885	1.316	1.743	3.083	4.477	3.341	1.669	1.307	1.641	2.597	4.579	6.169	9.154	12.95	30.23	50.81	34.15
300.0	256.4	263.9	232.2	157.1	99.11	88.65	94.77	111.5	159.2	300.2	789.6	596.9	270.1	387.2	758.7	4111	5932	589.0	17.38	4.812	3.155	2.420	1.835	1.614	1.302	1.144	1.299	1.032	0.892	0.716	0.660	0.845	0.753	0.707	0.785	0.727	0.827	0.752	0.729	0.604	0.686	0.671	0.566	0.666	0.711	0.696	0.796	0.793	0.842	0.738	0.617	0.621	0.552	0.529	0.510	0.541	0.574	0.648	0.660	0.827	0.748	1.027	1.206	1.852	3.250	5.247	4.220	2.409	1.552	1.532	1.901	2.178	2.684	3.543	8.090	20.23	39.61
305.0	289.2	298.8	284.9	176.5	121.9	110.6	113.9	143.5	183.7	257.9	528.4	931.3	437.3	252.7	279.7	1117	4977	5149	79.39	8.206	3.683	2.990	2.066	1.780	1.673	1.437	1.126	1.027	0.939	0.813	0.731	0.737	0.830	0.787	0.802	0.783	0.740	0.800	0.742	0.705	0.736	0.678	0.598	0.685	0.737	0.985	0.849	0.860	0.872	0.803	0.652	0.639	0.725	0.602	0.708	0.674	0.790	0.780	0.824	0.951	1.026	1.213	1.294	1.455	2.041	3.290	4.636	4.901	3.271	1.904	1.368	1.447	1.463	1.512	2.480	5.267	11.40
310.0	286.5	335.5	302.4	204.7	139.5	129.2	144.9	173.3	206.3	267.4	377.2	652.2	778.6	403.7	207.9	340.0	1356	3943	4719	1421	23.01	4.191	3.050	2.066	1.958	1.535	1.408	1.134	1.046	0.922	0.773	0.832	0.756	0.838	0.843	0.877	0.799	0.785	0.774	0.756	0.808	0.712	0.702	0.803	0.838	0.909	0.819	1.119	0.936	0.809	0.741	0.748	0.754	0.672	0.689	0.720	0.847	0.889	0.952	1.050	1.095	1.232	1.425	1.571	1.743	1.943	2.580	3.456	4.075	3.981	2.964	1.909	1.443	1.253	1.361	1.902	3.172
315.0	324.7	361.7	333.2	220.9	163.6	144.8	160.9	193.5	230.5	280.9	353.5	443.4	595.9	733.3	312.5	187.4	381.5	944.2	2492	5950	516.3	22.13	4.264	2.867	2.141	1.859	1.503	1.150	1.267	1.007	0.950	0.718	0.900	0.838	0.803	0.828	0.946	0.729	0.722	0.698	0.792	0.733	0.691	0.878	0.777	0.945	0.939	1.165	1.058	0.920	0.712	0.739	0.829	0.708	0.688	0.785	0.836	0.924	1.001	1.037	1.151	1.212	1.599	1.563	1.640	1.727	1.889	2.321	2.544	2.971	3.884	4.156	2.846	1.737	1.289	1.289	1.313
320.0	356.1	394.9	366.8	249.9	178.0	159.4	176.3	203.4	239.8	291.7	350.2	405.7	448.7	653.1	560.2	199.4	182.7	271.7	646.1	3626	4244	412.1	9.724	3.690	2.667	2.057	1.732	1.471	1.181	1.067	0.922	0.928	0.914	0.929	0.809	0.764	0.951	0.853	0.915	0.815	0.808	0.759	0.842	0.842	0.941	0.968	1.014	1.247	1.284	0.998	0.855	0.916	0.865	0.769	0.789	0.898	0.908	1.059	1.124	1.093	1.308	1.220	1.521	1.594	1.759	1.777	1.747	2.122	1.958	2.241	2.779	3.486	4.442	3.496	1.691	1.196	1.070
325.0	375.9	458.0	419.9	294.2	197.9	170.1	185.0	211.1	241.3	298.6	359.6	394.8	400.1	458.0	634.9	345.2	151.5	131.2	184.9	991.5	4174	3737	59.59	5.520	3.201	2.556	1.979	1.597	1.159	1.165	0.941	1.026	0.875	0.779	0.902	0.900	0.872	0.797	0.841	0.754	0.863	0.788	0.796	0.900	0.983	1.085	1.248	1.473	1.416	1.195	1.101	1.072	0.940	0.874	0.829	0.780	0.953	1.011	1.175	1.012	1.237	1.243	1.587	1.654	1.659	1.737	1.918	1.948	2.065	2.026	2.139	2.454	3.185	4.069	3.441	2.182	1.323
330.0	389.0	496.0	491.4	371.6	244.8	192.7	193.9	212.5	250.8	296.6	350.6	395.7	389.7	378.9	429.0	479.8	279.8	119.2	92.71	257.9	1153	3260	3690	1046	17.54	3.584	2.471	1.775	1.479	1.428	1.208	1.030	1.049	0.827	0.907	0.916	0.720	0.792	0.830	0.850	0.785	0.801	0.799	0.839	0.948	1.144	1.265	1.442	1.491	1.270	1.189	1.219	1.087	1.032	0.933	0.829	0.985	1.056	1.100	1.196	1.267	1.341	1.472	1.582	1.660	1.876	1.952	1.958	2.139	1.969	1.970	1.939	2.102	2.371	3.036	3.137	2.856
335.0	413.4	541.7	536.9	423.5	287.6	217.7	209.8	220.8	253.5	295.7	354.8	392.0	394.7	362.5	331.6	334.9	436.5	229.8	89.18	106.1	288.9	768.0	2258	4775	418.9	18.29	3.417	2.210	1.827	1.628	1.284	0.959	1.166	0.851	0.867	0.870	0.726	0.825	0.779	0.767	0.832	0.765	0.752	0.903	0.948	1.159	1.321	1.568	1.592	1.452	1.160	1.341	1.261	1.112	1.041	0.885	1.032	0.976	1.236	1.329	1.238	1.381	1.389	1.668	1.651	1.788	1.842	1.955	2.059	2.001	2.125	1.938	1.984	1.927	2.098	2.135	2.503
340.0	411.9	524.9	540.1	443.8	312.4	233.6	218.4	228.2	255.8	300.5	348.1	385.0	386.1	350.9	313.3	268.6	348.5	368.4	136.6	79.43	103.2	199.8	587.4	3196	3477	343.7	7.285	3.054	2.256	1.694	1.409	1.341	1.063	0.841	1.037	0.866	0.943	0.728	0.841	0.764	0.945	0.815	0.804	0.881	0.922	1.242	1.272	1.733	1.693	1.500	1.289	1.447	1.350	1.149	1.110	1.040	1.143	1.106	1.209	1.266	1.336	1.218	1.362	1.588	1.676	1.726	1.910	1.823	1.964	1.890	2.062	1.837	1.870	1.880	1.807	1.670	1.876
345.0	405.8	513.6	553.6	452.5	328.1	259.4	227.0	236.3	261.4	298.1	334.8	367.2	371.8	347.3	297.4	245.6	244.6	358.2	253.1	86.41	68.49	78.13	155.5	893.6	3645	3087	51.31	4.620	2.740	2.132	1.606	1.301	1.078	1.011	1.056	0.872	0.929	0.761	0.788	0.774	0.784	0.721	0.723	0.772	1.033	1.300	1.233	1.685	1.652	1.512	1.231	1.433	1.398	1.203	1.222	1.107	1.241	1.115	1.190	1.195	1.271	1.395	1.384	1.510	1.640	1.708	1.641	1.653	2.017	1.812	1.965	1.895	1.710	1.717	1.635	1.503	1.547
350.0	377.6	477.7	522.3	450.0	342.2	275.8	246.2	244.5	260.0	290.4	323.3	351.7	353.3	331.1	288.9	242.7	211.6	236.5	296.4	201.9	85.51	61.33	68.83	225.2	1030	2711	3015	858.1	15.88	2.785	1.962	1.493	1.313	1.059	1.046	0.821	0.868	0.836	0.778	0.792	0.760	0.734	0.732	0.793	0.962	1.201	1.256	1.478	1.566	1.418	1.300	1.391	1.456	1.314	1.241	1.199	1.260	1.202	1.255	1.215	1.325	1.316	1.440	1.442	1.604	1.694	1.740	1.621	1.873	1.746	1.947	1.787	1.855	1.639	1.591	1.534	1.475
355.0	363.6	446.2	504.6	439.0	354.8	300.4	270.0	266.2	269.6	288.4	313.4	336.2	333.8	322.0	284.5	248.7	211.5	191.9	202.8	274.8	180.2	73.50	61.71	84.26	255.1	640.1	1857	3820	382.7	17.01	2.564	1.999	1.456	1.288	1.104	0.830	0.884	0.789	0.807	0.732	0.742	0.731	0.689	0.779	0.909	1.224	1.125	1.367	1.526	1.381	1.295	1.355	1.436	1.362	1.166	1.406	1.162	1.339	1.313	1.271	1.366	1.379	1.495	1.582	1.472	1.569	1.602	1.723	1.799	1.685	1.712	1.655	1.799	1.579	1.602	1.598	1.503
360.0	346.4	418.6	476.1	428.2	369.5	316.5	281.9	279.7	279.2	286.5	308.0	324.0	331.3	311.3	285.6	248.0	215.5	187.8	171.7	219.9	266.3	128.7	69.97	62.31	89.19	166.3	484.1	2605	3154	323.6	7.008	2.730	1.816	1.320	1.163	0.969	0.993	0.856	0.841	0.766	0.638	0.797	0.745	0.709	1.017	1.131	1.073	1.326	1.431	1.185	1.496	1.412	1.457	1.282	1.469	1.331	1.214	1.448	1.215	1.345	1.428	1.450	1.462	1.555	1.494	1.611	1.677	1.604	1.788	1.791	1.716	1.891	1.951	1.836	1.630	1.700	1.621
365.0	326.0	414.4	466.3	445.3	378.1	326.4	292.2	291.2	279.6	296.5	307.6	324.8	320.8	311.5	282.7	248.5	224.0	194.4	173.6	172.6	248.0	218.9	97.68	66.64	60.10	66.69	130.2	737.6	3115	2832	48.67	4.284	2.330	1.770	1.148	0.954	1.046	0.916	0.882	0.676	0.718	0.664	0.748	0.834	0.933	1.027	1.138	1.182	1.486	1.267	1.263	1.540	1.451	1.489	1.493	1.242	1.237	1.396	1.419	1.315	1.409	1.371	1.533	1.466	1.608	1.466	1.596	1.550	1.643	1.544	1.688	1.718	1.772	1.683	1.733	1.712	1.534
370.0	317.0	391.7	442.6	429.4	376.7	342.0	315.7	306.6	299.4	300.6	315.2	317.6	317.2	306.2	281.8	250.7	232.9	206.5	187.1	169.6	183.3	232.1	191.0	97.87	66.25	56.02	59.69	187.5	877.0	2409	2751	820.4	14.70	2.344	1.609	1.206	1.004	1.016	0.871	0.775	0.755	0.752	0.838	0.837	0.825	0.959	1.084	1.205	1.323	1.158	1.183	1.500	1.398	1.563	1.474	1.314	1.441	1.511	1.482	1.421	1.451	1.443	1.478	1.568	1.551	1.536	1.582	1.571	1.723	1.554	1.719	1.730	1.706	1.704	1.670	1.643	1.650
375.0	319.2	388.6	426.9	435.3	396.0	361.1	336.7	321.5	310.7	316.0	318.7	319.4	311.7	298.4	280.1	256.2	236.0	216.5	200.6	178.7	168.3	175.2	225.2	183.3	90.19	65.10	54.98	73.86	218.0	569.5	1650	3426	336.2	15.79	2.172	1.499	1.259	1.121	0.909	0.755	0.722	0.757	0.834	0.805	0.910	0.931	0.944	1.310	1.364	1.144	1.205	1.446	1.474	1.563	1.455	1.355	1.554	1.540	1.515	1.491	1.522	1.467	1.558	1.471	1.584	1.615	1.687	1.741	1.571	1.606	1.698	1.638	1.627	1.749	1.668	1.751	1.616
380.0	304.3	382.2	418.7	426.6	400.7	370.9	346.2	334.7	318.7	317.4	323.8	316.4	311.5	294.7	276.8	258.2	239.2	223.6	207.7	186.2	171.6	160.7	184.5	231.2	138.8	78.70	59.83	54.67	76.54	148.0	429.5	2264	2725	278.4	7.124	1.889	1.462	1.176	1.029	0.847	0.821	0.755	0.758	0.810	0.969	0.959	0.945	1.251	1.291	1.232	1.127	1.364	1.493	1.489	1.584	1.475	1.577	1.735	1.572	1.608	1.576	1.659	1.707	1.528	1.631	1.659	1.461	1.703	1.584	1.490	1.721	1.613	1.524	1.593	1.630	1.600	1.501
385.0	297.0	384.4	420.4	422.3	403.5	387.0	361.7	342.1	332.8	331.2	329.8	317.9	306.2	293.1	271.8	253.1	241.6	230.1	212.4	193.9	177.0	161.8	156.9	204.0	200.4	105.6	69.91	57.13	51.12	58.61	115.5	625.8	2460	2374	40.62	3.481	1.894	1.331	1.105	1.016	0.795	0.767	0.864	0.915	0.993	1.031	0.919	1.155	1.187	1.206	1.192	1.433	1.533	1.622	1.593	1.455	1.739	1.640	1.698	1.517	1.609	1.643	1.729	1.600	1.572	1.526	1.333	1.682	1.653	1.609	1.730	1.728	1.503	1.750	1.554	1.624	1.610
390.0	306.8	380.8	418.5	418.9	399.8	392.0	367.6	359.1	342.5	332.9	332.0	320.7	306.2	286.7	271.1	255.0	241.2	229.1	216.3	203.0	183.0	170.5	154.6	161.7	191.1	173.4	100.1	66.60	54.42	46.51	50.66	158.1	670.1	1802	2080	670.6	13.30	1.814	1.358	1.163	1.053	0.917	0.849	0.904	0.975	1.006	0.964	1.113	1.211	1.170	1.200	1.453	1.551	1.630	1.731	1.588	1.843	1.684	1.821	1.736	1.589	1.683	1.676	1.739	1.602	1.599	1.532	1.693	1.693	1.562	1.671	1.627	1.581	1.720	1.620	1.582	1.689
395.0	306.9	389.4	402.1	419.6	394.4	389.6	384.6	362.3	351.7	340.1	334.8	317.5	302.1	289.8	268.0	251.6	238.5	233.0	214.5	202.0	190.2	175.9	163.6	153.1	151.6	181.1	163.7	91.41	63.84	53.75	43.87	59.32	165.5	421.2	1122	2462	286.8	16.67	1.930	1.373	1.249	1.032	1.024	1.022	0.972	1.051	1.046	1.166	1.280	1.193	1.150	1.471	1.566	1.542	1.540	1.561	1.834	1.682	1.845	1.736	1.671	1.608	1.710	1.729	1.517	1.567	1.560	1.536	1.650	1.546	1.664	1.566	1.533	1.749	1.686	1.565	1.653
400.0	304.2	367.8	410.0	408.4	407.1	395.1	389.9	368.7	355.9	346.1	335.8	326.9	304.5	289.4	264.9	249.7	236.0	226.7	216.6	204.0	193.2	178.0	168.5	154.8	141.2	150.5	186.3	134.3	77.97	59.94	48.02	42.99	57.51	108.1	283.9	1455	2212	257.4	9.463	1.766	1.423	1.112	1.073	0.991	1.030	1.057	1.021	1.188	1.232	1.240	1.230	1.387	1.699	1.534	1.680	1.615	1.814	1.587	1.741	1.698	1.591	1.638	1.726	1.802	1.559	1.541	1.557	1.525	1.614	1.588	1.519	1.529	1.619	1.505	1.732	1.512	1.625
405.0	288.3	356.6	393.4	413.0	402.6	397.0	398.8	377.5	363.9	350.3	337.0	327.8	298.4	282.1	264.5	244.7	236.4	225.0	214.0	205.4	195.1	181.0	169.7	158.8	143.8	139.4	160.6	172.9	105.2	69.95	55.72	44.63	37.84	41.20	76.50	384.1	1659	1962	198.1	4.053	1.499	1.137	1.147	0.944	1.036	0.984	1.016	1.214	1.196	1.192	1.306	1.433	1.764	1.535	1.569	1.521	1.887	1.661	1.840	1.906	1.716	1.864	1.756	1.772	1.714	1.654	1.639	1.561	1.580	1.487	1.488	1.507	1.542	1.539	1.651	1.691	1.660
