Sample:	'1
File name:	城北污水厂总排口 5倍.FD3
Run date:	'15:25:55, 08/19/2024
Operator:	horiz
Comment:	'

Instrument
Model:	F-2700 FL Spectrophotometer
Serial number:	23B8-004
ROM Version:	4J14000 07

Instrument parameters
Measurement type:	3-D scan
Data mode:	Fluorescence
EX  Start WL:	220.0 nm
EX  End WL:	600.0 nm
EX Sampling interval:	5.0 nm
EM  Start WL:	230.0 nm
EM  End WL:	650.0 nm
EM Sampling interval:	5.0 nm
Scan speed:	12000 nm/min
EX Slit:	5.0 nm
EM Slit:	5.0 nm
PMT Voltage:	700 V
Response:	Auto 
Corrected spectra:	Off
Contour interval:	50.000

Peak integration
Integration method:	Rectangular
Sensitivity:	1
Threshold:	1.000

Peaks
No.	ApexEX/EM(nm)	Height(Data)
1	225.0/345.0	5699
2	225.0/490.0	291.9
3	225.0/575.0	100.3
4	230.0/500.0	279.9
5	235.0/255.0	357.9
6	235.0/510.0	221.5
7	240.0/265.0	421.9
8	240.0/525.0	187.2
9	245.0/270.0	413.2
10	245.0/540.0	170.0
11	250.0/275.0	531.7
12	250.0/550.0	144.4
13	255.0/280.0	635.2
14	255.0/510.0	1278
15	255.0/560.0	129.3
16	265.0/510.0	775.5
17	265.0/585.0	318.5
18	270.0/300.0	1358
19	275.0/305.0	1432
20	280.0/345.0	1677
21	280.0/625.0	77.98
22	285.0/640.0	62.59
23	315.0/355.0	514.8
24	320.0/360.0	492.2
25	325.0/370.0	422.4
26	330.0/375.0	382.6
27	335.0/380.0	348.8
28	345.0/395.0	240.6
29	350.0/400.0	228.5
30	360.0/415.0	170.6
31	365.0/420.0	161.7
32	375.0/435.0	109.8
33	380.0/440.0	104.8
34	385.0/445.0	89.07
35	395.0/460.0	65.56
36	400.0/465.0	56.28
37	410.0/480.0	38.98
38	415.0/485.0	34.49
39	425.0/500.0	23.73
40	430.0/505.0	21.49
41	440.0/520.0	14.57
42	445.0/525.0	12.42
43	455.0/345.0	14.89
44	455.0/540.0	8.640
45	470.0/560.0	4.232
46	485.0/265.0	2.478
47	495.0/270.0	2.330
48	505.0/275.0	3.538
49	510.0/280.0	3.861
50	520.0/285.0	4.260
51	530.0/290.0	4.147
52	540.0/295.0	5.685
53	545.0/300.0	6.826
54	555.0/305.0	6.746
55	560.0/310.0	5.513
56	560.0/345.0	7.160
57	575.0/340.0	7.086
58	585.0/325.0	6.204

Wavelength data
No.	EX/EM(nm)	Height(Data)	

Data points
	220.0	225.0	230.0	235.0	240.0	245.0	250.0	255.0	260.0	265.0	270.0	275.0	280.0	285.0	290.0	295.0	300.0	305.0	310.0	315.0	320.0	325.0	330.0	335.0	340.0	345.0	350.0	355.0	360.0	365.0	370.0	375.0	380.0	385.0	390.0	395.0	400.0	405.0	410.0	415.0	420.0	425.0	430.0	435.0	440.0	445.0	450.0	455.0	460.0	465.0	470.0	475.0	480.0	485.0	490.0	495.0	500.0	505.0	510.0	515.0	520.0	525.0	530.0	535.0	540.0	545.0	550.0	555.0	560.0	565.0	570.0	575.0	580.0	585.0	590.0	595.0	600.0
230.0	98.22	1075	2091	545.9	30.04	12.38	9.695	8.430	6.563	6.037	5.863	4.996	4.303	3.495	3.112	2.808	2.293	1.967	1.786	1.787	1.542	1.476	1.356	1.145	1.117	1.105	1.045	1.125	1.016	0.990	0.961	0.910	0.864	0.807	0.840	0.767	0.770	0.775	0.762	0.698	0.907	1.126	1.070	0.774	0.652	0.633	1.642	5.051	7.137	4.629	1.679	0.690	0.516	0.516	0.552	0.534	0.571	0.587	0.560	0.553	0.515	0.588	0.548	0.577	0.545	0.554	0.566	0.576	0.561	0.535	0.562	0.569	0.557	0.581	0.585	0.577	0.632
235.0	183.6	325.2	1287	1868	552.2	38.48	12.38	9.514	6.602	6.296	5.145	5.476	4.547	3.326	3.270	2.841	2.251	2.295	1.789	1.668	1.636	1.381	1.332	1.151	1.163	1.048	1.016	1.038	1.016	0.981	0.955	0.862	0.848	0.708	0.680	0.773	0.724	0.705	0.707	0.665	0.797	0.848	1.024	1.156	1.034	0.732	0.839	1.661	2.880	4.734	6.049	6.320	2.793	0.899	0.566	0.485	0.578	0.570	0.591	0.581	0.510	0.583	0.515	0.582	0.525	0.552	0.519	0.608	0.541	0.563	0.539	0.580	0.594	0.603	0.561	0.649	0.621
240.0	270.1	205.2	396.6	1595	2223	394.9	22.21	11.02	7.853	6.406	6.019	5.532	4.306	4.168	3.210	2.950	2.422	1.942	1.886	1.579	1.681	1.429	1.357	1.306	1.209	1.131	0.924	1.185	1.078	0.965	0.939	0.850	0.863	0.848	0.727	0.772	0.770	0.732	0.651	0.713	0.773	0.738	0.795	0.928	1.284	1.147	0.885	0.865	1.043	1.693	3.534	8.214	8.401	6.152	2.411	0.772	0.585	0.601	0.530	0.560	0.523	0.605	0.573	0.590	0.543	0.524	0.505	0.576	0.517	0.540	0.467	0.609	0.627	0.521	0.576	0.573	0.587
245.0	204.9	285.5	175.9	560.7	2365	1879	304.7	14.05	8.529	6.225	6.379	5.670	5.004	3.846	3.089	2.837	2.360	2.124	1.629	1.579	1.813	1.564	1.309	1.404	1.209	1.167	1.114	1.186	0.997	0.938	0.957	0.830	0.888	0.807	0.771	0.690	0.754	0.763	0.643	0.666	0.730	0.639	0.671	0.760	0.910	1.189	1.316	1.153	0.765	0.753	1.256	3.074	6.245	9.769	9.948	5.029	1.446	0.769	0.576	0.598	0.496	0.644	0.528	0.563	0.616	0.567	0.549	0.604	0.594	0.652	0.521	0.595	0.573	0.565	0.628	0.541	0.623
250.0	96.14	210.0	282.7	235.2	771.2	1833	2656	964.6	49.93	8.005	6.713	5.923	4.997	4.018	3.440	2.961	2.544	2.087	1.854	1.772	1.785	1.538	1.421	1.265	1.361	1.269	1.129	1.144	1.108	0.955	0.983	0.868	0.897	0.821	0.793	0.746	0.764	0.801	0.695	0.738	0.715	0.701	0.716	0.726	0.722	0.852	0.969	1.173	1.457	1.062	0.957	1.218	1.905	3.563	6.054	8.507	10.63	9.296	5.113	1.872	0.671	0.571	0.522	0.623	0.559	0.520	0.574	0.567	0.585	0.604	0.553	0.627	0.610	0.610	0.594	0.582	0.624
255.0	62.86	88.15	213.7	357.9	272.8	485.1	2022	3493	364.6	47.75	8.450	6.986	5.958	5.222	3.237	3.032	2.357	2.404	1.763	1.832	1.813	1.555	1.484	1.495	1.310	1.179	1.253	1.082	1.195	1.091	0.924	0.904	0.903	0.775	0.795	0.719	0.690	0.807	0.629	0.750	0.740	0.714	0.802	0.726	0.699	0.717	0.614	0.735	0.863	1.047	1.677	1.749	1.210	1.193	1.879	2.468	4.128	9.224	15.49	14.83	7.446	1.914	0.662	0.607	0.649	0.551	0.530	0.622	0.620	0.560	0.572	0.595	0.548	0.572	0.568	0.573	0.604
260.0	48.24	48.22	90.51	319.7	355.1	177.2	629.9	2995	2824	303.1	23.41	8.413	6.224	4.574	3.432	2.957	2.709	2.200	2.033	1.975	1.865	1.505	1.318	1.194	1.310	1.328	1.276	1.128	0.993	1.034	0.890	0.838	1.108	0.852	0.809	0.767	0.618	0.836	0.738	0.690	0.757	0.704	0.702	0.682	0.713	0.686	0.578	0.604	0.642	0.616	1.171	1.969	2.058	1.380	1.003	1.001	1.571	2.826	6.781	13.93	18.48	15.01	6.055	1.226	0.723	0.547	0.559	0.647	0.559	0.580	0.576	0.614	0.546	0.596	0.548	0.575	0.631
265.0	53.34	43.68	46.19	150.5	421.9	268.6	193.6	1010	3447	2437	231.3	13.74	6.984	5.389	4.133	3.345	2.719	2.253	2.257	2.068	1.781	1.590	1.407	1.370	1.298	1.306	1.105	1.129	1.047	0.994	1.017	1.018	0.982	0.995	0.905	0.856	0.765	0.759	0.713	0.804	0.705	0.730	0.707	0.617	0.686	0.715	0.602	0.617	0.592	0.527	0.631	1.147	1.895	2.478	1.726	1.023	0.859	1.200	2.197	4.351	9.949	18.79	21.25	13.29	4.023	0.754	0.617	0.608	0.619	0.568	0.617	0.592	0.694	0.664	0.576	0.558	0.645
270.0	67.13	55.74	38.48	58.77	205.4	413.2	320.7	292.3	1094	2868	3409	895.4	48.73	7.254	4.826	3.752	2.922	2.557	2.275	2.029	1.947	1.658	1.584	1.366	1.390	1.266	1.221	1.077	1.105	1.014	1.125	1.058	0.971	0.993	0.903	0.872	0.768	0.853	0.768	0.887	0.807	0.711	0.815	0.728	0.756	0.736	0.652	0.639	0.616	0.487	0.525	0.704	0.998	1.480	1.982	2.330	2.160	1.488	1.193	1.632	2.897	5.639	10.08	15.75	19.76	16.40	9.859	3.312	0.883	0.640	0.612	0.590	0.633	0.631	0.640	0.631	0.662
275.0	135.8	92.94	68.12	52.82	86.29	204.3	531.7	369.3	311.9	752.9	2458	5533	1224	48.41	6.529	4.339	3.574	2.695	2.519	2.243	1.976	1.884	1.541	1.609	1.447	1.431	1.280	1.101	1.189	1.062	1.097	1.042	0.976	0.971	0.960	0.950	1.030	0.980	0.867	0.907	0.796	0.806	0.923	0.820	0.861	0.797	0.713	0.661	0.597	0.548	0.569	0.715	0.704	0.816	1.002	1.301	2.500	3.538	2.765	1.411	1.304	1.922	2.932	4.219	6.252	11.22	22.26	24.75	14.33	3.400	0.910	0.604	0.651	0.616	0.683	0.558	0.733
280.0	235.4	202.1	146.5	78.08	70.69	105.8	334.2	635.2	291.1	270.0	776.6	3946	5291	869.5	20.46	5.329	4.084	2.951	2.618	2.494	1.977	1.933	1.655	1.689	1.471	1.429	1.164	1.099	1.144	1.013	0.968	1.090	0.925	1.048	1.096	1.098	1.197	1.092	1.048	0.939	1.026	0.931	1.039	1.028	1.031	1.065	1.008	0.875	0.833	0.683	0.598	0.775	0.665	0.694	0.792	0.918	1.360	2.472	3.861	3.343	1.976	1.277	1.493	1.764	2.268	3.467	7.971	16.93	25.07	23.72	10.60	1.962	0.655	0.593	0.677	0.614	0.623
285.0	428.2	380.9	276.5	146.4	85.58	98.80	175.6	551.4	631.5	281.0	369.0	1314	4783	4939	138.9	9.282	5.079	3.959	2.799	2.292	2.080	1.878	1.768	1.639	1.552	1.267	1.173	1.228	1.142	1.112	1.042	1.010	1.000	0.994	1.222	1.417	1.306	1.405	1.258	1.096	1.240	1.269	1.296	1.303	1.308	1.457	1.430	1.356	1.169	0.988	0.900	0.861	0.838	0.858	0.790	0.965	0.973	1.326	2.243	3.532	4.260	2.752	1.749	1.549	1.612	2.030	2.938	5.174	10.51	21.13	29.77	20.07	6.472	1.198	0.657	0.667	0.599
290.0	688.8	695.5	531.6	268.3	141.1	118.5	149.3	302.9	664.3	778.2	493.5	633.9	1569	4127	3870	530.1	34.71	4.672	3.543	2.906	2.556	2.109	1.885	1.663	1.529	1.492	1.157	1.281	1.221	1.174	1.130	1.107	1.003	1.172	1.528	1.735	1.800	1.823	1.757	1.427	1.529	1.515	1.621	1.699	1.902	1.987	1.988	2.195	1.841	1.460	1.155	1.170	1.015	0.948	0.927	1.008	1.015	1.122	1.364	1.894	2.792	3.689	4.147	3.724	2.801	2.298	2.443	2.918	4.041	6.556	11.68	16.61	20.22	19.83	12.88	5.111	1.331
295.0	950.4	974.6	795.8	405.2	197.1	151.9	168.6	257.6	443.2	905.5	1119	680.5	725.1	1136	2247	4718	776.0	30.78	4.749	3.672	3.057	2.544	2.091	1.750	1.777	1.486	1.293	1.226	1.285	1.306	1.028	1.050	0.962	1.285	1.646	2.078	2.162	2.151	1.999	1.806	1.768	1.760	1.909	1.974	2.349	2.502	2.700	2.707	2.421	1.956	1.530	1.539	1.195	1.045	1.046	1.076	1.174	1.118	1.429	1.659	1.913	2.257	3.114	4.908	5.685	4.867	3.497	2.951	3.119	3.480	4.274	4.864	5.892	8.974	18.42	26.21	19.32
300.0	1073	1086	912.0	467.1	238.1	184.1	205.6	293.3	442.3	719.2	1358	1038	631.8	493.3	667.9	3112	4466	540.1	12.50	4.665	3.631	2.681	2.473	1.913	1.898	1.606	1.341	1.386	1.167	1.256	1.178	0.987	0.959	1.291	1.684	2.172	2.321	2.175	2.093	1.992	1.712	1.821	2.049	2.175	2.574	2.889	2.880	3.479	2.654	2.099	1.707	1.583	1.261	1.218	1.139	1.028	1.341	1.506	1.610	1.913	2.048	2.273	2.725	3.498	4.847	6.826	6.009	4.203	3.255	3.051	2.706	2.294	2.396	2.974	5.831	13.13	24.77
305.0	1108	1166	908.2	514.0	266.6	210.6	252.9	329.0	462.9	667.9	1099	1432	777.7	393.0	278.1	923.6	3710	3514	86.21	7.649	3.939	3.141	2.670	2.110	2.018	1.577	1.494	1.480	1.294	1.300	1.217	1.030	1.096	1.287	1.664	2.148	2.494	2.282	2.155	2.020	1.874	2.117	2.195	2.425	2.578	2.998	2.973	3.585	2.705	2.134	1.844	1.666	1.375	1.287	1.339	1.280	1.484	1.550	1.760	1.989	2.386	2.425	2.686	3.124	3.921	4.973	6.472	6.746	4.489	3.436	2.617	1.960	1.844	1.706	2.193	3.970	8.667
310.0	1032	1133	900.9	500.9	274.0	223.6	265.8	353.8	474.5	648.9	862.4	1155	1149	547.1	228.7	302.1	1062	2705	2876	353.5	23.17	3.986	3.270	2.556	2.184	1.756	1.670	1.381	1.426	1.281	1.362	1.220	1.190	1.309	1.696	2.121	2.487	2.258	2.073	1.948	1.875	2.050	2.138	2.479	2.579	2.957	3.007	3.334	2.804	2.119	1.788	1.774	1.474	1.363	1.300	1.299	1.453	1.665	1.753	1.964	2.126	2.611	2.706	3.184	3.622	4.050	4.617	5.203	5.513	5.395	3.872	2.529	1.800	1.478	1.545	1.824	2.859
315.0	1266	1430	1023	524.3	288.1	244.8	290.9	381.0	509.1	668.3	846.3	966.9	1054	1029	427.2	265.3	344.4	700.6	1659	3471	534.7	20.68	4.114	3.110	2.626	1.990	1.809	1.453	1.570	1.430	1.331	1.139	1.160	1.501	1.574	2.042	2.362	2.335	2.149	2.036	1.860	2.313	2.244	2.613	3.146	3.614	3.577	3.873	2.976	2.310	1.887	1.821	1.475	1.523	1.379	1.377	1.499	1.827	1.843	2.060	2.231	2.369	2.697	3.221	3.597	4.043	3.890	4.115	4.338	4.788	5.543	5.398	3.444	2.546	1.945	1.782	2.136
320.0	1995	2116	1433	765.6	382.3	292.7	339.3	448.8	598.7	795.4	998.4	1119	1104	1241	916.2	457.4	333.0	298.9	501.8	2314	3493	392.3	10.42	3.792	2.762	2.201	1.953	1.816	1.587	1.467	1.321	1.420	1.102	1.334	1.393	1.950	2.371	2.353	2.297	2.156	2.298	2.634	2.795	3.786	4.487	5.352	5.941	5.946	4.415	3.228	2.509	2.403	1.857	1.679	1.481	1.489	1.659	1.873	2.204	2.399	2.487	2.998	3.016	3.755	4.091	4.467	4.509	4.850	4.927	4.735	5.072	6.063	6.144	4.562	3.173	2.714	2.482
325.0	2713	3342	2525	1363	625.8	390.2	403.6	523.9	705.0	940.7	1166	1318	1284	1265	1257	777.7	424.0	268.0	239.5	733.5	3077	2677	64.77	6.229	3.867	2.724	2.214	1.953	1.771	1.453	1.465	1.215	1.129	1.388	1.532	1.902	2.286	2.409	2.519	2.259	2.574	3.069	3.704	4.889	5.903	7.197	8.474	8.612	7.164	5.361	4.272	3.873	2.582	2.274	1.713	1.907	1.984	2.038	2.504	2.631	2.953	3.304	3.648	4.432	4.791	5.276	5.175	5.905	5.698	5.657	5.489	5.740	6.023	6.204	5.492	4.211	3.176
330.0	3276	4260	3570	2104	942.1	530.7	491.3	599.3	796.1	1024	1292	1471	1462	1363	1218	1096	658.4	329.1	225.6	294.3	941.1	2204	2505	274.5	19.21	3.745	2.540	2.025	1.845	1.605	1.571	1.552	1.313	1.331	1.584	1.851	2.181	2.366	2.434	2.593	2.859	3.305	4.099	5.452	6.994	9.062	10.52	11.26	9.762	7.723	6.364	5.735	3.766	2.939	2.337	2.152	2.337	2.435	2.747	2.971	3.219	3.519	4.062	4.890	5.203	5.523	5.658	6.269	6.260	6.591	6.385	6.118	6.041	5.605	5.801	5.785	5.357
335.0	3712	4831	4230	2542	1145	618.6	540.3	661.1	837.6	1086	1366	1536	1563	1452	1197	1015	888.3	478.6	259.5	232.2	345.6	606.5	1576	3198	443.4	14.48	3.721	2.457	2.278	1.921	1.600	1.542	1.376	1.478	1.480	1.758	2.205	2.638	2.501	2.887	3.165	3.970	4.778	6.038	7.537	10.05	11.82	12.82	11.43	9.458	7.668	7.005	4.575	3.430	2.779	2.360	2.552	2.606	2.874	3.139	3.419	3.717	4.336	5.118	5.250	6.121	5.916	6.694	6.260	6.762	6.455	6.589	6.086	5.809	5.577	5.157	5.600
340.0	3923	5292	4995	3080	1396	713.7	600.9	708.2	902.2	1139	1418	1602	1640	1544	1271	980.1	837.7	668.7	339.8	250.9	249.9	268.5	491.7	2299	3501	62.06	8.257	3.092	2.683	2.149	1.746	1.622	1.570	1.476	1.603	1.937	2.144	2.487	2.696	3.064	3.321	3.883	4.748	6.209	8.703	10.91	12.66	14.62	13.62	11.10	9.091	8.511	5.551	3.831	3.159	2.798	2.730	2.874	3.079	3.275	3.762	4.040	4.526	5.108	5.612	6.070	6.596	6.964	6.772	6.931	6.875	7.086	6.209	6.067	5.576	5.129	4.804
345.0	4030	5699	5433	3487	1599	832.9	656.1	754.5	926.2	1178	1438	1623	1677	1562	1313	979.7	716.1	690.9	487.7	287.9	256.1	224.9	228.2	724.1	3267	1956	54.48	4.224	3.000	2.499	1.803	1.601	1.553	1.363	1.528	1.755	2.139	2.321	2.511	2.898	3.306	3.923	4.906	6.510	8.457	11.14	12.89	14.89	14.73	11.99	10.40	9.561	6.427	4.249	3.534	3.031	3.080	3.123	3.246	3.335	3.922	4.229	4.610	4.935	5.618	6.136	6.477	6.927	7.160	7.051	7.103	6.969	6.705	6.167	5.953	5.227	4.557
350.0	3754	5297	5236	3436	1655	936.3	774.2	841.5	962.4	1165	1382	1535	1569	1470	1247	937.8	656.5	536.8	548.4	419.9	291.3	237.7	196.3	265.2	972.6	1734	2021	226.3	13.52	2.881	2.142	1.760	1.603	1.394	1.448	1.709	2.070	2.251	2.522	2.914	3.283	3.683	4.671	5.955	8.061	10.37	12.35	14.77	13.93	11.78	10.05	9.078	6.426	4.559	3.744	3.362	3.511	3.453	3.554	3.890	3.990	4.228	4.710	5.119	5.564	5.646	5.999	6.587	6.679	6.614	6.776	6.467	6.306	6.178	5.411	4.881	4.367
355.0	3374	4704	4843	3247	1622	967.6	825.0	856.1	958.2	1105	1292	1402	1438	1339	1143	880.7	613.3	459.0	435.7	514.8	397.6	267.6	209.2	182.6	284.9	440.8	1371	2164	346.1	9.153	2.698	2.095	1.816	1.471	1.425	1.765	1.973	2.110	2.420	2.512	3.017	3.477	4.282	5.332	7.445	9.518	11.13	13.09	12.71	11.28	9.149	8.679	6.331	4.626	3.707	3.434	3.402	3.590	3.827	3.912	3.863	3.993	4.711	5.003	5.193	5.346	5.678	6.005	6.095	5.826	5.923	6.102	5.766	5.693	5.117	4.326	4.249
360.0	3087	4288	4459	3049	1583	959.8	805.7	825.1	919.0	1033	1210	1300	1321	1226	1070	817.5	579.6	440.1	384.9	446.2	492.2	319.0	224.7	171.1	140.0	142.7	389.0	1690	2091	54.87	4.693	2.702	2.033	1.575	1.431	1.719	2.002	2.035	2.406	2.554	2.795	3.079	3.975	5.152	6.616	8.518	10.10	12.56	12.09	10.54	8.861	8.282	6.113	4.538	3.649	3.496	3.190	3.312	3.701	3.817	3.760	3.876	4.461	4.761	4.975	5.437	5.208	5.543	5.531	5.725	5.640	5.509	5.359	5.290	5.001	4.291	3.848
365.0	2761	3849	4002	2773	1496	937.7	778.3	798.1	870.2	962.6	1101	1187	1207	1118	977.9	760.1	554.6	429.1	373.3	372.1	466.4	409.5	247.7	177.4	119.2	82.01	119.9	526.3	2140	1566	43.81	3.519	2.188	1.851	1.619	1.621	1.829	1.982	2.393	2.422	2.470	2.974	3.893	4.558	5.776	7.853	9.114	11.03	10.84	9.682	8.216	7.560	5.952	4.485	3.608	3.587	3.255	3.321	3.574	3.623	3.802	3.767	3.915	4.294	4.490	4.773	5.039	4.941	5.113	5.324	5.190	4.948	4.992	4.920	4.538	4.269	3.605
370.0	2307	3272	3408	2408	1383	913.3	791.9	804.2	811.3	885.8	986.0	1041	1051	978.8	869.5	688.9	522.9	411.2	361.0	340.8	367.1	422.4	342.3	205.8	126.6	83.23	71.64	148.6	646.9	1551	1569	199.2	9.541	2.332	1.905	1.709	1.780	1.876	2.125	2.265	2.335	2.770	3.269	3.830	4.994	6.355	7.424	9.055	9.239	8.245	7.165	6.897	5.321	4.226	3.497	3.407	3.284	3.256	3.650	3.610	3.663	3.483	3.656	4.170	4.450	4.441	4.604	4.515	4.647	4.816	4.615	4.624	4.297	4.331	4.234	3.916	3.501
375.0	1907	2691	2809	2047	1236	868.9	748.7	746.5	746.2	788.6	859.7	887.6	893.2	840.6	748.1	605.5	481.2	389.5	350.0	330.2	324.3	334.8	382.6	291.3	151.5	101.5	74.55	73.76	171.0	386.0	1164	1993	272.3	7.150	2.277	1.973	1.819	1.952	2.018	2.264	2.204	2.299	2.705	3.366	4.287	5.271	6.143	7.766	7.697	6.982	5.907	6.135	4.651	3.977	3.428	3.379	3.272	3.238	3.201	3.378	3.254	3.306	3.420	3.832	3.740	3.949	3.964	4.009	4.108	4.044	4.145	3.918	3.996	3.835	3.706	3.527	3.242
380.0	1592	2224	2389	1768	1112	791.3	712.4	667.2	668.6	705.5	758.5	797.5	792.2	740.7	659.2	552.7	446.9	370.1	337.7	320.9	311.0	299.5	326.8	348.8	196.9	115.8	84.74	66.45	71.74	109.9	332.1	1630	1547	45.36	3.910	2.230	1.867	1.895	1.977	2.062	1.899	2.264	2.621	2.824	3.577	4.567	5.373	6.569	6.670	5.922	5.261	5.338	4.218	3.539	3.334	3.177	3.029	3.251	3.033	3.109	3.132	2.799	3.223	3.339	3.486	3.377	3.298	3.463	3.607	3.671	3.562	3.487	3.614	3.340	3.247	3.129	3.068
385.0	1417	1918	2065	1546	1019	756.1	660.0	620.6	618.0	648.4	684.1	702.5	705.9	656.5	594.1	500.7	417.5	357.7	328.7	308.0	298.5	281.3	276.9	315.0	268.0	141.1	96.33	71.49	56.73	52.88	95.09	510.6	1631	1344	34.31	2.909	2.036	2.038	1.920	1.841	2.034	2.109	2.292	2.800	3.103	4.036	4.753	5.831	5.590	5.069	4.418	4.736	3.656	3.280	3.119	2.933	2.925	2.852	2.898	2.964	2.784	2.856	2.832	2.976	3.298	2.976	3.309	3.292	3.485	3.223	3.135	3.099	3.273	3.261	2.992	2.770	2.859
390.0	1136	1551	1669	1293	902.0	715.0	630.7	591.5	571.5	580.9	597.1	610.0	605.9	564.7	520.8	446.5	383.3	333.5	312.5	296.7	287.7	270.5	254.9	248.7	264.6	217.9	125.3	83.70	63.51	48.29	46.22	132.8	494.4	1338	927.0	151.9	7.786	2.225	2.061	1.825	1.920	2.076	2.153	2.436	2.955	3.430	3.891	4.663	4.712	4.231	3.934	4.024	3.531	3.203	2.725	2.783	2.751	2.809	2.744	2.806	2.622	2.550	2.550	2.783	2.864	2.805	2.933	2.829	2.826	2.880	2.839	2.942	2.744	2.888	2.842	2.587	2.449
395.0	972.3	1270	1360	1090	808.8	667.7	597.5	558.9	533.7	516.2	524.1	523.4	532.4	499.4	452.0	397.3	347.9	312.9	293.8	285.5	274.5	263.0	245.9	224.8	212.1	240.6	194.5	106.9	75.78	56.90	44.13	51.70	125.9	329.2	849.0	1404	217.3	5.275	2.426	2.020	1.977	1.884	2.183	2.184	2.616	2.859	3.438	3.730	3.576	3.468	3.284	3.667	3.221	3.067	2.711	2.489	2.705	2.631	2.702	2.506	2.697	2.355	2.302	2.374	2.648	2.458	2.680	2.511	2.548	2.578	2.676	2.465	2.807	2.547	2.569	2.489	2.359
400.0	834.2	1117	1157	953.9	735.4	638.6	573.2	529.7	498.4	468.3	485.8	478.1	475.9	446.8	411.8	369.4	321.4	292.1	281.2	272.0	264.0	254.7	241.3	217.5	193.8	201.3	228.5	144.5	85.72	64.77	48.42	39.77	46.56	87.68	245.1	1161	1126	38.16	3.573	2.430	1.972	1.967	1.982	1.955	2.430	2.554	2.942	3.520	3.248	3.117	2.894	3.329	2.809	2.832	2.660	2.473	2.609	2.623	2.442	2.399	2.501	2.456	2.386	2.259	2.323	2.398	2.441	2.345	2.278	2.385	2.474	2.228	2.615	2.452	2.361	2.278	2.261
405.0	746.1	970.6	1013	870.9	686.5	598.8	545.9	510.0	476.0	434.9	446.1	441.5	433.1	414.0	387.6	342.4	306.6	278.9	267.0	259.8	252.4	244.0	233.8	210.6	189.0	174.8	202.9	194.4	108.5	69.25	54.59	40.58	33.36	35.56	67.32	365.1	1186	860.7	30.73	2.686	2.025	1.893	1.788	2.020	2.133	2.218	2.603	3.007	3.041	2.760	2.745	2.899	2.537	2.864	2.470	2.436	2.456	2.395	2.367	2.173	2.343	2.346	2.292	2.148	2.260	2.120	2.135	2.330	2.178	2.230	2.396	2.122	2.252	2.303	2.085	2.161	2.262
410.0	680.6	788.7	852.5	755.9	627.7	570.2	532.5	502.5	447.4	406.0	407.1	400.1	394.1	373.4	351.5	314.3	284.0	262.3	253.7	244.5	236.3	233.5	223.1	204.9	186.8	165.5	163.5	184.4	163.4	95.33	62.81	46.39	34.84	28.21	29.58	93.83	360.0	882.4	765.3	137.5	6.610	2.000	1.825	1.851	2.115	2.089	2.405	2.576	2.685	2.453	2.379	2.676	2.379	2.519	2.372	2.139	2.333	2.360	2.338	2.195	2.233	2.202	2.252	2.042	2.118	2.094	2.020	2.107	2.056	2.194	2.193	2.062	1.995	1.933	2.125	2.013	2.050
