Sample:	'1
File name:	Default_20230316_154807.FD3
Run date:	'15:41:46, 03/16/2023
Operator:	user
Comment:	'

Instrument
Model:	F-2700 FL Spectrophotometer
Serial number:	2190-003
ROM Version:	4J14000 07

Instrument parameters
Measurement type:	3-D scan
Data mode:	Fluorescence
EX  Start WL:	220.0 nm
EX  End WL:	600.0 nm
EX Sampling interval:	5.0 nm
EM  Start WL:	230.0 nm
EM  End WL:	650.0 nm
EM Sampling interval:	5.0 nm
Scan speed:	12000 nm/min
EX Slit:	5.0 nm
EM Slit:	5.0 nm
PMT Voltage:	700 V
Response:	Auto 
Corrected spectra:	Off
Contour interval:	50.000

Peak integration
Integration method:	Rectangular
Sensitivity:	1
Threshold:	1.000

Peaks
No.	ApexEX/EM(nm)	Height(Data)
1	235.0/510.0	-25.71
2	240.0/260.0	161.0
3	240.0/520.0	-7.455
4	245.0/265.0	172.6
5	245.0/360.0	 6779
6	245.0/535.0	-8.514
7	250.0/270.0	195.1
8	250.0/545.0	9.997
9	255.0/280.0	345.7
10	255.0/555.0	22.11
11	260.0/285.0	500.8
12	260.0/565.0	21.61
13	265.0/290.0	581.9
14	265.0/580.0	40.02
15	270.0/295.0	976.1
16	275.0/305.0	 1358
17	275.0/490.0	4.920
18	275.0/605.0	76.13
19	280.0/310.0	 1237
20	280.0/520.0	-12.07
21	280.0/610.0	53.13
22	285.0/315.0	912.0
23	285.0/465.0	20.57
24	285.0/485.0	7.534
25	285.0/625.0	35.63
26	290.0/640.0	13.88
27	295.0/540.0	-5.308
28	300.0/335.0	333.9
29	305.0/340.0	398.9
30	310.0/345.0	370.4
31	320.0/275.0	-6.115
32	320.0/360.0	245.3
33	325.0/245.0	-6.219
34	325.0/365.0	229.0
35	330.0/370.0	176.4
36	330.0/435.0	41.95
37	335.0/375.0	171.4
38	335.0/425.0	44.54
39	340.0/315.0	-4.519
40	340.0/385.0	170.2
41	345.0/390.0	140.0
42	345.0/615.0	-4.417
43	350.0/300.0	-3.849
44	350.0/395.0	134.4
45	355.0/405.0	129.9
46	360.0/410.0	106.1
47	360.0/460.0	27.66
48	365.0/305.0	-3.827
49	365.0/415.0	101.9
50	370.0/425.0	93.72
51	375.0/295.0	-3.086
52	375.0/430.0	77.65
53	380.0/435.0	68.28
54	385.0/445.0	62.80
55	390.0/450.0	49.05
56	395.0/455.0	44.30
57	400.0/465.0	38.06
58	405.0/470.0	30.31
59	410.0/475.0	26.01
60	415.0/485.0	23.26
61	420.0/490.0	19.13
62	425.0/495.0	16.24
63	430.0/505.0	13.55
64	435.0/510.0	10.43
65	440.0/515.0	9.246
66	445.0/525.0	8.174
67	450.0/530.0	6.323
68	455.0/535.0	5.504
69	460.0/545.0	4.473
70	470.0/560.0	2.237
71	480.0/575.0	-0.007
72	495.0/250.0	0.959
73	495.0/360.0	10.24
74	500.0/600.0	-1.338
75	505.0/275.0	-1.190
76	505.0/605.0	-1.597
77	510.0/280.0	-1.371
78	515.0/285.0	-1.015
79	545.0/300.0	0.491
80	550.0/305.0	0.441
81	560.0/310.0	0.162
82	565.0/315.0	-0.140

Data points
	220.0	225.0	230.0	235.0	240.0	245.0	250.0	255.0	260.0	265.0	270.0	275.0	280.0	285.0	290.0	295.0	300.0	305.0	310.0	315.0	320.0	325.0	330.0	335.0	340.0	345.0	350.0	355.0	360.0	365.0	370.0	375.0	380.0	385.0	390.0	395.0	400.0	405.0	410.0	415.0	420.0	425.0	430.0	435.0	440.0	445.0	450.0	455.0	460.0	465.0	470.0	475.0	480.0	485.0	490.0	495.0	500.0	505.0	510.0	515.0	520.0	525.0	530.0	535.0	540.0	545.0	550.0	555.0	560.0	565.0	570.0	575.0	580.0	585.0	590.0	595.0	600.0
230.0	-242.5	-81.65	 1330	824.2	-38.11	-81.30	-70.30	-64.14	-55.77	-56.98	-41.72	-33.91	-31.58	-26.38	-19.49	-16.14	-14.68	-12.08	-11.56	-9.966	-8.590	-7.931	-7.009	-7.053	-6.785	-6.318	-5.955	-5.400	-5.394	-5.037	-4.821	-4.864	-4.436	-4.225	-4.135	-3.248	-3.350	-3.203	-3.189	-3.093	-2.955	-3.161	-3.211	-3.292	-2.745	-2.761	-2.406	-1.661	-0.321	-0.284	-1.250	-2.322	-2.172	-2.344	-2.310	-2.398	-2.715	-2.595	-2.434	-2.403	-2.595	-2.878	-2.727	-2.640	-2.722	-2.630	-2.448	-2.887	-2.357	-2.640	-2.732	-2.795	-2.701	-2.557	-2.776	-2.861	-3.013
235.0	-238.5	-170.1	453.3	 1583	 1108	-1.292	-79.04	-66.36	-59.20	-47.32	-45.59	-35.23	-34.76	-24.04	-23.59	-19.51	-14.34	-14.41	-10.56	-10.31	-8.624	-8.884	-6.860	-7.399	-5.798	-5.424	-5.798	-4.768	-5.321	-5.660	-4.880	-5.209	-4.572	-4.378	-3.807	-3.541	-3.615	-3.792	-3.766	-2.765	-3.319	-3.033	-2.923	-3.101	-2.614	-2.603	-2.475	-2.097	-1.665	-0.901	0.294	-0.134	-1.311	-2.514	-2.343	-2.288	-2.685	-2.615	-2.681	-2.314	-2.609	-2.194	-2.605	-2.502	-2.266	-2.757	-2.360	-3.116	-2.830	-2.635	-2.737	-2.777	-2.404	-2.813	-2.611	-2.861	-2.948
240.0	-223.7	-150.7	-16.83	766.5	 2201	897.2	-47.63	-59.58	-61.60	-47.94	-39.17	-40.22	-31.63	-25.35	-19.89	-17.40	-13.28	-12.36	-12.07	-9.945	-9.104	-7.246	-7.061	-5.349	-6.247	-5.948	-6.111	-4.943	-4.643	-5.738	-5.471	-4.683	-3.496	-4.030	-3.945	-3.551	-3.529	-3.423	-3.876	-3.060	-2.985	-2.961	-2.865	-2.638	-2.613	-2.562	-2.342	-2.991	-2.367	-1.573	-0.376	0.493	1.224	0.047	-1.692	-2.261	-2.627	-2.686	-2.271	-2.585	-2.703	-2.109	-2.368	-2.623	-2.370	-2.662	-2.646	-2.832	-3.004	-2.562	-2.563	-2.556	-2.969	-3.012	-2.687	-2.995	-3.309
245.0	-253.9	-155.6	-97.35	108.9	 1301	 2439	671.4	-39.72	-53.52	-40.42	-40.64	-41.62	-33.37	-23.84	-19.66	-16.59	-15.43	-12.12	-11.82	-10.54	-9.701	-6.219	-6.979	-6.616	-7.337	-5.906	-5.166	-5.344	-5.359	-5.228	-5.133	-4.992	-3.618	-4.691	-3.707	-3.896	-3.309	-3.292	-3.435	-2.957	-3.152	-3.664	-2.852	-2.653	-2.676	-3.037	-2.258	-2.494	-2.223	-2.044	-1.610	-1.231	0.058	1.896	0.864	-0.811	-2.270	-2.806	-2.414	-2.612	-2.882	-2.264	-2.225	-2.711	-2.447	-2.778	-2.463	-2.509	-2.756	-2.937	-2.639	-2.779	-2.426	-2.787	-2.718	-2.648	-2.995
250.0	-213.3	-191.2	-75.34	-15.90	259.7	 1282	 2160	 1151	87.95	-43.75	-45.90	-39.07	-32.18	-27.46	-22.02	-16.04	-14.37	-12.37	-10.60	-9.658	-9.652	-6.832	-7.567	-7.378	-6.790	-5.444	-5.582	-5.575	-5.053	-4.855	-5.259	-5.192	-4.040	-4.562	-3.844	-3.717	-3.545	-3.700	-2.948	-3.154	-3.212	-2.924	-2.937	-2.988	-2.568	-2.991	-2.420	-2.386	-2.071	-1.786	-1.705	-2.083	-1.667	-0.912	-0.406	0.959	0.717	0.449	-1.228	-2.102	-2.594	-2.741	-2.421	-2.449	-2.309	-2.743	-2.664	-2.639	-2.833	-2.671	-2.600	-2.937	-2.496	-2.861	-2.725	-2.815	-2.917
255.0	-286.3	-205.4	-129.2	56.36	99.46	235.7	756.9	 2362	 1564	87.99	-43.29	-35.38	-27.72	-22.52	-20.37	-14.12	-15.89	-11.47	-11.54	-10.21	-8.992	-7.732	-7.471	-6.986	-7.714	-5.487	-6.132	-5.409	-5.355	-4.892	-5.378	-4.665	-4.068	-4.616	-3.736	-3.788	-3.268	-3.489	-3.412	-3.569	-3.204	-2.993	-3.163	-2.980	-2.500	-2.774	-2.164	-2.874	-2.367	-1.727	-1.773	-1.899	-2.096	-2.117	-2.201	-1.792	-1.268	0.090	2.393	2.179	-0.908	-2.323	-2.419	-2.610	-2.488	-2.552	-2.281	-2.734	-2.927	-2.367	-2.785	-3.097	-2.669	-2.333	-2.515	-2.894	-3.026
260.0	-271.7	-218.6	-156.7	6.773	161.0	63.46	125.7	 1055	 2718	 1241	19.28	-32.12	-23.14	-23.76	-20.19	-15.07	-14.66	-11.56	-11.12	-10.98	-8.571	-7.121	-7.888	-6.387	-5.957	-5.224	-5.164	-5.413	-5.693	-4.824	-4.910	-4.443	-4.355	-4.775	-4.023	-4.351	-3.761	-3.648	-2.880	-3.491	-3.067	-3.074	-3.405	-2.936	-2.585	-2.409	-2.362	-2.847	-2.252	-1.881	-1.773	-2.024	-1.821	-1.716	-2.400	-2.042	-1.882	-1.761	-0.633	2.521	3.184	1.259	-2.012	-2.636	-2.251	-2.469	-2.495	-2.640	-2.988	-2.739	-3.036	-3.358	-2.950	-2.543	-2.667	-3.185	-3.139
265.0	-234.8	-236.0	-158.1	-80.30	87.75	172.6	-7.310	232.6	 1382	 2753	873.7	-11.55	-26.19	-22.60	-18.77	-17.63	-14.39	-10.53	-10.74	-11.19	-9.003	-6.997	-7.395	-6.128	-6.642	-6.472	-5.239	-5.813	-5.447	-5.335	-4.792	-5.031	-3.997	-4.498	-3.832	-3.604	-3.960	-3.583	-3.047	-3.571	-3.029	-3.362	-2.862	-3.266	-2.281	-2.837	-2.597	-2.573	-1.995	-1.630	-1.693	-1.993	-2.078	-2.097	-1.714	-2.357	-2.558	-2.574	-2.468	-0.767	1.081	3.649	2.247	-0.299	-1.931	-2.613	-2.396	-2.683	-3.114	-2.953	-2.563	-3.116	-2.397	-3.068	-2.551	-3.144	-2.762
270.0	-263.4	-221.2	-135.2	-114.3	-38.77	121.5	195.1	72.94	302.9	 1252	 2393	 1591	136.9	-20.29	-17.18	-17.68	-12.68	-10.93	-11.29	-10.31	-9.171	-7.201	-7.072	-6.829	-6.282	-6.298	-5.570	-5.958	-5.516	-5.077	-5.279	-4.891	-4.665	-3.946	-3.759	-3.651	-3.942	-3.601	-3.613	-3.500	-2.904	-3.358	-2.985	-2.657	-2.586	-2.850	-2.407	-2.580	-1.922	-1.799	-1.771	-2.363	-2.180	-2.219	-1.848	-1.773	-1.868	-2.273	-2.411	-2.168	-1.896	-0.166	0.816	2.222	2.552	1.628	-0.891	-2.406	-2.819	-2.747	-2.649	-2.618	-2.311	-2.881	-2.500	-3.227	-3.013
275.0	-223.0	-200.3	-139.2	-109.3	-93.67	-19.96	167.0	294.5	86.77	260.2	799.8	 2703	 1089	148.5	-19.74	-16.82	-13.78	-12.11	-9.770	-9.257	-6.115	-7.443	-6.016	-6.608	-5.408	-6.189	-5.298	-5.324	-4.905	-5.388	-5.984	-4.842	-4.753	-4.109	-3.150	-3.526	-3.789	-3.443	-3.798	-3.439	-3.067	-3.223	-3.349	-2.851	-2.792	-2.716	-2.300	-2.268	-2.223	-2.125	-1.790	-2.234	-2.171	-2.351	-1.839	-2.068	-1.786	-1.190	-2.165	-2.380	-2.309	-2.104	-1.845	-1.810	-0.589	2.162	6.110	3.371	-0.525	-2.472	-2.566	-2.846	-2.147	-2.731	-2.783	-3.349	-2.834
280.0	-229.2	-198.1	-114.5	-130.3	-101.3	-73.92	26.02	345.7	255.7	73.43	202.1	 1111	 2943	887.7	39.52	-13.92	-15.37	-12.50	-9.212	-8.112	-8.155	-7.943	-7.503	-6.707	-5.593	-6.613	-5.769	-4.742	-4.626	-6.052	-5.067	-4.537	-4.229	-4.361	-3.634	-3.331	-3.308	-3.639	-3.165	-2.967	-3.101	-3.055	-3.443	-2.850	-3.249	-2.583	-2.477	-2.064	-2.050	-1.624	-1.751	-2.204	-2.085	-2.711	-2.366	-2.262	-2.188	-1.656	-1.371	-1.557	-2.142	-2.442	-2.202	-2.735	-1.996	-1.781	1.370	5.057	6.224	1.817	-2.147	-2.462	-2.277	-2.753	-2.769	-2.743	-2.662
285.0	-220.7	-163.9	-88.46	-109.2	-86.91	-61.73	-28.45	153.2	500.8	189.0	117.9	367.0	 1513	 3353	624.4	4.243	-14.02	-9.828	-9.828	-10.19	-9.026	-7.510	-7.657	-6.064	-6.366	-5.893	-6.158	-5.425	-4.562	-4.715	-5.915	-4.272	-4.302	-3.860	-3.995	-3.794	-3.415	-3.405	-3.154	-2.840	-3.250	-3.080	-3.265	-3.233	-3.238	-2.724	-2.363	-2.296	-2.413	-1.805	-2.257	-2.293	-2.092	-2.335	-2.151	-2.674	-2.343	-2.571	-1.712	-1.015	-1.036	-1.861	-2.315	-2.429	-2.244	-2.372	-1.370	-0.030	2.564	6.667	5.418	0.441	-3.023	-2.542	-2.999	-2.699	-2.915
290.0	-175.9	-80.36	-33.86	-46.42	-65.27	-42.62	-18.82	53.96	294.6	581.9	439.5	383.6	640.0	 1552	 2426	 1499	122.2	-7.872	-9.533	-10.07	-7.419	-7.708	-6.600	-6.826	-5.940	-5.765	-5.302	-5.449	-5.082	-5.057	-5.494	-4.187	-4.337	-3.739	-3.572	-4.006	-3.203	-3.284	-3.157	-3.066	-3.141	-2.949	-3.014	-2.883	-2.977	-2.682	-1.833	-1.936	-2.146	-1.775	-1.817	-2.444	-2.302	-2.108	-2.202	-2.285	-2.459	-2.104	-2.190	-1.867	-1.469	-1.096	-1.235	-1.806	-2.005	-1.667	-1.754	-1.624	-0.947	0.851	2.366	3.553	3.747	1.549	-1.003	-2.818	-2.941
295.0	-166.8	-12.58	64.89	9.865	-51.56	-27.45	6.783	65.33	210.5	489.2	976.1	745.3	650.0	670.2	804.9	 2429	 1961	120.1	-7.880	-8.585	-7.355	-6.134	-6.982	-6.881	-5.426	-6.163	-4.550	-5.503	-4.803	-4.469	-4.698	-3.086	-4.226	-4.132	-3.754	-3.320	-3.725	-3.157	-2.962	-2.889	-3.426	-3.503	-2.929	-3.118	-2.351	-2.803	-2.216	-1.923	-1.627	-1.628	-1.559	-2.481	-2.257	-2.239	-2.300	-2.298	-2.372	-2.424	-2.284	-2.381	-2.339	-1.710	-1.035	-0.569	-0.191	-0.879	-1.242	-1.007	-1.631	-1.253	-0.829	-0.612	0.201	3.474	6.118	2.755	-0.536
300.0	-113.7	22.56	94.26	26.03	-7.388	-26.25	27.78	88.12	214.3	459.7	964.5	 1246	822.5	534.0	305.4	893.2	 2730	 1437	41.65	-7.905	-7.444	-6.948	-6.739	-5.464	-5.943	-5.970	-3.849	-5.089	-5.072	-4.727	-4.203	-4.442	-3.742	-4.004	-2.955	-3.431	-3.961	-3.587	-2.654	-2.759	-3.020	-3.438	-2.963	-3.196	-2.489	-2.854	-2.214	-2.073	-2.093	-1.475	-1.518	-2.339	-2.292	-2.166	-2.045	-2.010	-2.464	-2.113	-2.455	-2.501	-1.757	-1.883	-1.588	-1.541	0.124	0.491	-0.263	-1.404	-1.403	-1.391	-1.686	-1.768	-2.049	-0.538	1.034	4.943	6.514
305.0	-84.12	46.79	119.2	45.75	4.032	7.352	22.92	103.4	241.1	439.9	775.6	 1358	 1126	573.1	208.7	236.3	 1187	 2769	360.2	7.898	-7.193	-6.224	-6.323	-6.281	-6.302	-6.779	-4.678	-5.769	-5.493	-3.827	-4.562	-4.901	-4.268	-4.148	-3.342	-2.898	-3.725	-3.635	-3.079	-2.898	-2.938	-3.226	-3.260	-3.047	-2.071	-2.776	-2.123	-1.858	-1.678	-1.653	-1.532	-2.191	-2.333	-2.276	-1.877	-1.841	-2.319	-2.293	-2.018	-2.160	-1.897	-1.995	-1.533	-1.482	-0.688	0.200	0.441	-0.614	-0.704	-1.165	-1.749	-2.281	-2.503	-1.488	-1.813	0.117	3.779
310.0	-126.5	54.30	129.9	89.06	15.76	6.932	43.74	105.6	248.2	422.4	713.5	 1026	 1237	803.1	198.9	80.10	288.4	 1117	 1873	 1127	86.96	-4.830	-6.334	-6.774	-5.743	-6.091	-5.129	-6.109	-5.163	-4.413	-5.074	-4.614	-4.361	-3.882	-3.762	-3.412	-3.451	-3.475	-2.918	-3.462	-2.845	-3.155	-3.358	-3.089	-2.339	-2.525	-2.081	-1.905	-1.826	-1.293	-1.742	-2.073	-2.262	-2.350	-2.217	-2.234	-2.149	-2.482	-2.182	-2.091	-1.800	-1.896	-1.802	-1.569	-0.932	-0.462	-0.156	0.043	0.162	-0.843	-1.356	-2.605	-2.582	-2.342	-2.519	-1.902	-1.264
315.0	-135.1	37.46	133.2	100.6	56.59	54.19	76.61	143.3	250.6	410.6	637.4	835.4	872.2	912.0	421.2	56.47	79.64	260.7	560.3	 1931	 1523	102.1	-5.684	-5.585	-4.519	-5.972	-4.558	-6.361	-5.522	-3.910	-4.603	-4.459	-4.873	-3.464	-3.523	-3.360	-3.873	-3.456	-3.859	-4.048	-3.363	-2.874	-3.203	-2.974	-2.368	-2.526	-1.905	-2.406	-2.107	-1.731	-1.892	-1.638	-2.109	-2.525	-2.202	-1.990	-2.144	-1.663	-1.857	-1.789	-2.004	-1.476	-1.767	-1.686	-1.298	-0.751	-0.738	-0.540	-0.586	-0.140	-1.455	-1.669	-2.429	-2.776	-2.818	-2.550	-2.502
320.0	-141.6	31.92	172.1	157.8	185.3	199.7	213.2	217.0	274.0	426.6	593.0	707.4	706.7	663.4	600.3	165.8	41.39	75.39	140.8	719.2	 2195	 1113	38.55	-5.679	-4.730	-5.916	-5.263	-5.191	-5.061	-3.907	-4.696	-5.011	-4.496	-4.104	-3.770	-2.755	-3.609	-3.432	-2.649	-3.507	-3.023	-3.219	-3.196	-2.758	-2.892	-2.672	-1.964	-2.103	-1.901	-1.750	-1.558	-1.571	-1.991	-1.923	-2.047	-1.606	-2.387	-1.390	-1.963	-1.619	-1.779	-1.077	-1.645	-1.557	-1.302	-1.027	-0.872	-1.061	-0.781	-0.947	-0.943	-1.489	-1.155	-2.702	-2.668	-2.928	-2.984
325.0	-79.37	138.1	246.2	307.8	425.3	488.2	474.5	419.8	397.9	491.5	553.6	616.0	618.9	481.2	461.3	392.2	79.29	38.97	51.16	180.5	986.4	 2137	251.0	12.28	-6.034	-5.911	-4.987	-4.629	-4.780	-4.344	-4.284	-5.349	-4.038	-3.540	-3.930	-2.596	-3.201	-3.110	-3.545	-3.262	-2.779	-3.153	-3.365	-2.577	-3.088	-2.365	-1.553	-1.719	-1.898	-1.704	-1.448	-1.425	-1.477	-1.704	-1.405	-1.390	-1.503	-1.909	-1.422	-1.319	-1.303	-1.355	-1.581	-1.630	-1.866	-1.450	-1.024	-1.147	-1.529	-1.180	-1.944	-2.224	-1.201	-1.716	-2.279	-2.875	-2.716
330.0	-1.027	284.8	607.6	859.0	 1080	 1293	 1301	 1072	841.8	751.7	649.1	562.3	510.6	377.5	258.5	355.1	303.3	101.1	48.76	65.72	245.9	892.4	 1486	984.0	68.72	-3.691	-5.302	-4.851	-5.311	-5.360	-5.212	-4.461	-3.797	-3.756	-3.649	-3.491	-3.138	-3.104	-3.030	-3.099	-2.770	-2.852	-3.353	-2.619	-2.624	-2.200	-1.361	-1.312	-1.282	-0.775	-0.363	-0.339	-0.009	-0.356	-0.134	0.351	-0.135	0.074	-0.762	-0.549	-0.843	-0.719	-1.287	-1.752	-1.851	-1.579	-1.554	-1.576	-1.604	-1.786	-1.833	-2.326	-1.840	-1.587	-1.273	-1.856	-2.264
335.0	121.7	566.4	 1204	 1682	 2220	 2554	 2472	 2026	 1585	 1213	814.4	551.0	446.8	340.4	205.2	195.3	333.9	319.1	103.7	52.55	78.90	212.8	467.0	 2006	 1258	87.64	-3.958	-5.042	-4.513	-4.772	-4.556	-4.444	-3.809	-4.049	-3.872	-3.659	-3.373	-3.290	-3.281	-3.269	-2.880	-3.063	-3.144	-2.283	-2.348	-1.454	-1.241	-0.362	-0.476	0.382	0.777	1.186	1.676	2.596	2.188	2.539	2.658	2.135	1.322	1.060	0.061	0.226	-0.408	-1.317	-0.895	-1.624	-1.400	-1.539	-1.546	-1.954	-2.136	-1.975	-1.958	-2.423	-1.973	-1.874	-1.601
340.0	261.5	895.8	 1570	 2426	 3274	 3626	 3528	 2886	 2106	 1674	958.3	509.5	422.4	322.1	201.1	170.1	230.9	398.9	229.3	72.77	49.05	64.13	116.9	783.8	 1870	935.7	35.94	-4.780	-5.060	-4.492	-4.707	-4.122	-3.659	-3.940	-3.927	-3.161	-3.150	-2.910	-2.570	-2.501	-2.826	-3.355	-2.540	-2.637	-2.131	-1.895	-1.002	-0.099	0.840	1.238	1.373	3.046	3.340	4.310	4.117	5.393	4.733	3.672	2.838	1.827	1.238	0.604	0.379	-0.352	-1.208	-1.880	-1.613	-1.601	-1.730	-2.165	-2.403	-2.244	-2.358	-2.372	-2.164	-2.361	-1.684
345.0	293.6	 1197	 1916	 3063	 4089	 4700	 4542	 3627	 2649	 1948	 1123	534.0	384.2	324.5	219.4	179.5	188.1	298.6	370.4	137.5	52.93	35.85	36.59	190.5	868.0	 1810	198.6	7.913	-3.547	-4.305	-4.763	-4.574	-3.476	-4.216	-3.657	-3.028	-3.003	-3.123	-3.168	-2.870	-3.152	-3.591	-2.634	-2.516	-1.975	-1.359	-0.595	0.652	1.632	1.793	2.662	4.762	5.290	5.313	6.164	6.972	5.702	5.941	3.619	2.919	2.670	1.197	0.663	-0.397	-0.632	-1.570	-1.295	-1.759	-2.012	-2.038	-2.059	-2.389	-2.448	-2.056	-2.747	-2.433	-1.898
350.0	422.1	 1367	 2428	 3821	 4988	 5714	 5570	 4429	 3206	 2302	 1264	553.9	370.5	309.0	238.5	206.0	197.5	213.2	293.7	280.5	108.3	35.45	23.26	51.43	211.0	792.7	 1286	726.4	56.43	-4.332	-4.218	-4.628	-3.720	-3.479	-3.379	-3.537	-3.360	-3.364	-2.732	-3.156	-2.824	-2.986	-2.783	-1.813	-1.455	-0.846	0.092	1.191	2.594	2.626	3.955	6.137	6.479	8.054	8.154	8.456	8.027	7.134	5.576	4.526	3.501	2.457	1.021	0.176	-0.635	-1.445	-1.614	-1.888	-1.854	-2.058	-1.923	-2.365	-1.799	-2.025	-2.528	-2.084	-2.343
355.0	437.8	 1553	 2819	 4406	 5589	 6385	 6186	 5023	 3535	 2579	 1365	553.9	340.0	293.9	241.4	221.6	206.2	206.4	203.5	248.5	242.8	72.79	24.00	23.71	56.02	183.1	428.6	 1405	 1022	61.00	-3.529	-3.362	-3.043	-4.347	-3.289	-2.896	-2.966	-2.988	-3.170	-3.008	-2.745	-3.244	-2.822	-2.178	-1.490	-0.630	0.357	1.401	3.183	3.232	4.896	7.045	7.565	9.146	9.564	9.936	8.860	8.299	6.336	5.885	3.793	3.027	2.378	0.771	0.016	-1.124	-1.986	-1.788	-1.880	-1.943	-1.874	-2.153	-1.929	-2.310	-2.033	-2.076	-2.543
360.0	556.2	 1574	 2968	 4582	 5933	 6779	 6427	 5145	 3733	 2656	 1374	549.9	315.3	279.7	246.9	223.0	209.6	200.8	179.0	163.0	245.3	168.0	36.93	19.39	23.90	47.64	104.0	589.6	 1638	708.2	23.60	-3.655	-2.605	-3.488	-3.376	-3.186	-3.196	-3.294	-3.216	-3.136	-3.060	-2.906	-2.647	-1.754	-1.275	-0.390	0.592	1.741	3.670	3.672	5.619	7.862	8.406	9.848	9.725	10.24	9.746	8.100	6.802	5.448	4.182	2.815	1.786	0.910	-0.387	-0.929	-1.678	-2.095	-2.096	-1.750	-1.979	-1.487	-2.099	-2.081	-2.334	-2.036	-2.629
365.0	553.2	 1690	 3026	 4626	 5966	 6656	 6360	 5174	 3747	 2664	 1352	507.1	302.3	259.3	246.4	229.0	219.9	208.4	175.5	133.7	162.7	229.0	90.76	23.48	20.86	19.63	31.19	145.5	832.5	 1556	169.3	4.105	-2.947	-3.373	-2.895	-3.151	-3.218	-3.172	-3.178	-2.599	-2.972	-2.412	-2.397	-2.099	-1.518	-0.255	0.554	1.782	2.824	3.853	5.537	7.434	7.852	9.843	10.18	10.20	10.17	8.334	7.652	4.851	4.332	3.434	1.916	1.319	-0.501	-0.936	-1.742	-2.315	-2.047	-1.975	-1.943	-1.432	-1.875	-2.451	-2.648	-2.019	-2.376
370.0	524.6	 1558	 2892	 4365	 5627	 6448	 6159	 4947	 3573	 2581	 1271	478.5	286.0	246.2	226.7	220.1	220.3	201.9	168.5	123.1	104.0	146.6	176.4	79.30	25.99	16.51	18.20	38.56	204.3	735.1	 1154	602.9	40.82	-2.833	-3.248	-3.078	-3.174	-2.858	-3.464	-2.931	-3.007	-2.550	-2.308	-1.858	-1.812	-0.244	0.123	1.328	2.784	3.247	4.974	7.327	8.124	9.160	9.162	9.667	9.668	7.593	6.264	4.863	3.803	2.836	1.325	0.524	-0.805	-1.587	-1.902	-2.113	-2.170	-2.212	-2.241	-1.874	-2.186	-2.094	-2.237	-2.538	-2.159
375.0	516.5	 1359	 2610	 3971	 5223	 5836	 5714	 4480	 3239	 2265	 1172	447.1	256.2	236.4	212.4	199.6	207.2	190.6	156.5	118.7	84.72	73.70	125.7	171.4	64.39	20.84	17.02	17.73	51.90	169.8	413.7	 1304	802.8	40.88	-3.042	-2.796	-3.140	-3.488	-3.378	-2.965	-1.993	-2.790	-3.091	-1.924	-1.541	-0.970	-0.120	1.186	2.422	2.936	4.101	6.744	6.474	8.869	8.720	8.874	8.480	7.237	6.213	3.971	3.339	2.202	1.203	0.153	-1.199	-1.628	-2.163	-2.169	-2.593	-2.515	-1.990	-2.036	-2.218	-2.302	-2.394	-1.780	-2.343
380.0	479.7	 1288	 2439	 3613	 4827	 5404	 5207	 4063	 2949	 2088	 1070	394.5	245.2	210.7	196.9	184.5	186.5	170.1	155.7	116.3	84.96	60.60	74.52	157.8	139.0	39.52	16.61	15.70	20.63	43.27	99.98	589.6	 1403	523.8	10.58	-2.471	-2.779	-3.269	-2.381	-3.187	-2.377	-3.095	-2.659	-1.841	-1.264	-1.252	0.027	0.828	2.416	2.753	3.934	5.748	5.407	7.096	7.775	7.833	7.324	6.675	5.306	3.492	2.677	1.552	1.068	-0.046	-0.600	-1.589	-2.142	-1.678	-2.381	-2.298	-2.199	-2.434	-2.238	-2.783	-2.145	-2.186	-2.108
385.0	351.5	 1163	 2258	 3264	 4313	 4885	 4575	 3655	 2688	 1865	990.0	363.5	219.5	184.6	186.0	169.7	178.7	165.1	146.6	112.2	80.49	57.79	52.62	95.80	170.2	85.60	23.61	17.16	14.98	16.99	26.74	145.0	787.2	 1242	123.0	-0.236	-2.550	-2.853	-2.795	-2.583	-2.908	-3.021	-2.516	-2.417	-1.767	-0.916	-0.329	0.833	2.141	1.740	3.167	4.835	4.796	6.452	7.057	6.725	6.870	5.699	3.762	3.250	1.836	1.820	0.434	0.113	-0.857	-1.341	-2.262	-2.461	-2.041	-2.252	-1.903	-1.942	-2.226	-2.340	-2.040	-2.368	-2.506
