Sample:	'1
File name:	Default_20230214_144049.FD3
Run date:	'14:34:28, 02/14/2023
Operator:	dsjg
Comment:	'

Instrument
Model:	F-2700 FL Spectrophotometer
Serial number:	2198-001
ROM Version:	4J14000 07

Instrument parameters
Measurement type:	3-D scan
Data mode:	Fluorescence
EX  Start WL:	220.0 nm
EX  End WL:	600.0 nm
EX Sampling interval:	5.0 nm
EM  Start WL:	230.0 nm
EM  End WL:	650.0 nm
EM Sampling interval:	5.0 nm
Scan speed:	12000 nm/min
EX Slit:	5.0 nm
EM Slit:	5.0 nm
PMT Voltage:	700 V
Response:	Auto 
Corrected spectra:	Off
Contour interval:	50.000

Peak integration
Integration method:	Rectangular
Sensitivity:	1
Threshold:	1.000

Peaks
No.	ApexEX/EM(nm)	Height(Data)
1	225.0/590.0	7.493
2	230.0/615.0	5.600
3	235.0/260.0	119.0
4	235.0/515.0	85.41
5	240.0/265.0	139.2
6	240.0/380.0	470.0
7	240.0/525.0	77.36
8	245.0/270.0	140.6
9	245.0/540.0	69.20
10	250.0/275.0	168.4
11	250.0/550.0	56.81
12	255.0/280.0	186.6
13	255.0/560.0	47.05
14	260.0/375.0	495.4
15	260.0/570.0	35.83
16	265.0/585.0	32.54
17	270.0/300.0	304.0
18	270.0/595.0	28.04
19	275.0/305.0	343.6
20	275.0/605.0	23.26
21	280.0/310.0	301.3
22	280.0/620.0	19.83
23	285.0/315.0	304.3
24	285.0/630.0	15.95
25	290.0/325.0	310.6
26	290.0/645.0	14.02
27	295.0/330.0	267.7
28	300.0/335.0	262.1
29	305.0/340.0	244.6
30	310.0/350.0	216.4
31	315.0/355.0	203.7
32	320.0/360.0	202.7
33	325.0/370.0	197.5
34	330.0/375.0	215.9
35	335.0/380.0	224.4
36	340.0/385.0	206.6
37	350.0/400.0	165.2
38	355.0/405.0	145.7
39	370.0/425.0	105.0
40	380.0/440.0	78.37
41	385.0/445.0	70.34
42	400.0/465.0	42.81
43	415.0/485.0	26.19
44	425.0/495.0	18.58
45	430.0/505.0	16.02
46	435.0/510.0	13.32
47	440.0/515.0	11.46
48	445.0/525.0	10.14
49	460.0/545.0	5.430
50	465.0/550.0	4.558
51	475.0/565.0	2.972
52	545.0/300.0	1.817

Data points
	220.0	225.0	230.0	235.0	240.0	245.0	250.0	255.0	260.0	265.0	270.0	275.0	280.0	285.0	290.0	295.0	300.0	305.0	310.0	315.0	320.0	325.0	330.0	335.0	340.0	345.0	350.0	355.0	360.0	365.0	370.0	375.0	380.0	385.0	390.0	395.0	400.0	405.0	410.0	415.0	420.0	425.0	430.0	435.0	440.0	445.0	450.0	455.0	460.0	465.0	470.0	475.0	480.0	485.0	490.0	495.0	500.0	505.0	510.0	515.0	520.0	525.0	530.0	535.0	540.0	545.0	550.0	555.0	560.0	565.0	570.0	575.0	580.0	585.0	590.0	595.0	600.0
230.0	9.472	190.8	428.8	114.5	3.036	1.050	0.804	0.741	0.881	0.653	0.667	0.572	0.530	0.356	0.351	0.293	0.324	0.300	0.274	0.244	0.198	0.175	0.185	0.178	0.169	0.146	0.156	0.099	0.148	0.117	0.128	0.121	0.112	0.102	0.098	0.199	0.215	0.206	0.177	0.163	0.156	0.150	0.144	0.126	0.113	0.096	0.133	0.422	1.169	1.395	0.769	0.204	0.073	0.081	0.067	0.060	0.049	0.042	0.045	0.049	0.042	0.037	0.031	0.020	0.045	0.032	0.021	0.019	0.025	0.031	0.021	0.017	0.019	0.006	0.014	0.013	0.008
235.0	12.07	59.58	337.0	543.2	194.4	6.636	1.199	0.919	1.138	0.874	0.730	0.711	0.481	0.420	0.358	0.419	0.293	0.282	0.232	0.195	0.157	0.195	0.187	0.219	0.183	0.205	0.146	0.103	0.135	0.118	0.129	0.098	0.123	0.123	0.107	0.151	0.162	0.271	0.174	0.162	0.156	0.115	0.166	0.158	0.192	0.101	0.100	0.154	0.445	0.897	1.646	2.299	1.547	0.439	0.094	0.063	0.083	0.045	0.050	0.049	0.053	0.015	0.055	0.029	0.013	0.044	0.015	0.023	0.012	0.011	0.031	0.028	0.005	0.009	0.005	0.003	0.020
240.0	27.51	26.20	121.4	597.4	743.4	153.5	3.795	1.419	1.177	1.031	0.756	0.696	0.480	0.616	0.453	0.329	0.384	0.246	0.277	0.270	0.206	0.243	0.151	0.287	0.127	0.167	0.146	0.095	0.139	0.189	0.142	0.120	0.105	0.133	0.108	0.099	0.117	0.230	0.164	0.200	0.255	0.170	0.136	0.128	0.132	0.154	0.208	0.084	0.188	0.292	0.764	2.209	3.510	3.277	1.442	0.268	0.054	0.067	0.038	0.059	0.039	0.028	0.036	0.031	0.010	0.041	0.009	0.026	0.029	0.000	0.020	0.045	0.031	-0.002	0.038	0.035	0.019
245.0	27.52	39.01	39.96	256.6	910.2	764.3	93.17	2.164	1.442	0.914	0.920	0.726	0.579	0.602	0.591	0.365	0.364	0.314	0.285	0.317	0.218	0.182	0.272	0.205	0.126	0.182	0.181	0.173	0.184	0.173	0.119	0.092	0.119	0.120	0.057	0.090	0.087	0.149	0.170	0.209	0.185	0.142	0.152	0.143	0.107	0.152	0.256	0.185	0.193	0.147	0.256	0.694	1.995	3.756	4.777	3.001	0.853	0.128	0.045	0.062	0.038	0.032	0.045	0.047	0.017	0.026	0.030	0.013	0.031	0.032	0.014	0.025	0.006	-0.008	0.004	0.020	0.006
250.0	10.89	42.90	64.98	81.24	339.6	881.1	749.3	165.1	14.70	1.556	1.071	0.884	0.970	0.600	0.508	0.509	0.335	0.370	0.352	0.319	0.239	0.187	0.298	0.210	0.180	0.182	0.150	0.199	0.173	0.134	0.122	0.125	0.087	0.094	0.109	0.093	0.071	0.105	0.130	0.181	0.181	0.172	0.166	0.150	0.157	0.133	0.176	0.223	0.351	0.316	0.255	0.251	0.546	1.153	2.409	3.885	5.071	4.340	2.813	0.845	0.125	0.049	0.048	0.040	0.016	0.020	0.024	0.015	0.026	0.016	0.019	0.016	0.008	0.009	0.014	0.011	0.013
255.0	4.348	13.17	67.43	111.4	103.0	244.2	776.3	 1250	222.6	15.13	1.646	1.628	1.031	0.792	0.645	0.496	0.526	0.420	0.387	0.337	0.276	0.195	0.266	0.284	0.218	0.186	0.169	0.174	0.134	0.168	0.150	0.119	0.165	0.091	0.101	0.091	0.089	0.092	0.115	0.145	0.149	0.222	0.189	0.122	0.182	0.143	0.127	0.140	0.228	0.248	0.512	0.582	0.402	0.375	0.629	0.978	1.755	3.705	6.911	7.459	4.076	0.986	0.062	0.025	0.049	0.033	0.027	0.036	0.006	0.027	0.043	0.016	0.018	0.010	0.032	0.012	0.035
260.0	3.037	4.751	31.14	119.0	108.4	71.26	268.6	 1101	 1312	178.7	8.370	1.820	1.461	0.938	0.567	0.684	0.486	0.404	0.396	0.250	0.376	0.345	0.224	0.327	0.204	0.207	0.220	0.236	0.220	0.216	0.154	0.157	0.155	0.126	0.078	0.100	0.105	0.051	0.094	0.110	0.120	0.164	0.174	0.206	0.159	0.151	0.217	0.119	0.167	0.155	0.293	0.589	0.772	0.489	0.309	0.299	0.462	1.071	2.927	6.104	9.294	7.083	2.889	0.426	0.049	0.032	0.053	0.048	0.024	0.025	0.019	0.021	0.022	0.025	0.048	0.037	0.029
265.0	2.815	2.511	10.28	68.46	139.2	81.16	71.67	416.2	 1398	 1281	136.6	3.469	1.580	1.149	0.814	0.699	0.496	0.564	0.414	0.318	0.304	0.255	0.256	0.230	0.208	0.190	0.227	0.122	0.183	0.145	0.113	0.141	0.192	0.145	0.123	0.092	0.112	0.054	0.053	0.096	0.108	0.164	0.180	0.178	0.148	0.219	0.159	0.132	0.152	0.117	0.126	0.303	0.544	0.790	0.721	0.349	0.214	0.301	0.749	1.859	4.854	8.575	9.640	6.362	1.562	0.123	0.053	0.070	0.039	0.063	0.038	0.029	0.018	0.039	0.015	0.042	0.038
270.0	5.254	5.340	5.910	21.08	77.61	140.6	94.06	112.5	471.0	 1231	 1433	524.3	30.99	1.421	1.241	0.956	0.660	0.675	0.385	0.369	0.314	0.335	0.278	0.231	0.222	0.219	0.223	0.192	0.176	0.128	0.144	0.140	0.139	0.131	0.123	0.085	0.123	0.071	0.101	0.074	0.082	0.119	0.146	0.184	0.162	0.181	0.141	0.135	0.140	0.115	0.104	0.156	0.208	0.373	0.613	0.772	0.710	0.426	0.328	0.475	1.241	2.550	4.658	6.916	8.397	7.031	4.142	1.289	0.135	0.041	0.042	0.040	0.024	0.017	0.020	0.034	0.025
275.0	9.315	9.563	8.960	10.56	22.75	78.04	168.4	117.6	123.4	331.5	 1030	 1733	748.0	29.99	1.645	1.294	0.951	0.673	0.591	0.366	0.485	0.300	0.349	0.200	0.264	0.303	0.210	0.260	0.232	0.147	0.163	0.138	0.133	0.158	0.137	0.105	0.124	0.114	0.076	0.112	0.077	0.102	0.121	0.143	0.173	0.221	0.192	0.168	0.151	0.138	0.119	0.129	0.117	0.158	0.239	0.328	0.639	1.001	0.922	0.483	0.409	0.722	1.132	1.689	2.851	5.136	9.268	10.08	5.788	1.097	0.066	0.036	0.027	0.037	0.020	0.029	0.019
280.0	14.09	15.66	13.75	11.49	12.20	32.07	122.3	186.6	98.16	100.9	334.9	 1240	 1747	552.9	10.70	1.756	1.166	0.760	0.730	0.544	0.462	0.389	0.335	0.258	0.236	0.310	0.256	0.207	0.191	0.172	0.182	0.136	0.121	0.160	0.139	0.123	0.097	0.122	0.151	0.076	0.075	0.110	0.150	0.098	0.163	0.211	0.214	0.235	0.180	0.198	0.136	0.120	0.115	0.128	0.148	0.170	0.300	0.636	1.102	1.136	0.669	0.337	0.386	0.522	0.772	1.520	3.622	7.792	11.37	9.020	3.423	0.359	0.058	0.048	0.037	0.056	0.027
285.0	20.45	27.75	22.03	15.37	13.53	18.07	56.55	171.1	176.3	79.94	113.5	438.0	 1391	 1656	97.86	3.860	1.604	1.024	0.834	0.652	0.594	0.403	0.444	0.307	0.322	0.329	0.220	0.169	0.218	0.184	0.178	0.197	0.185	0.136	0.157	0.198	0.128	0.156	0.131	0.097	0.042	0.101	0.123	0.104	0.167	0.147	0.233	0.216	0.195	0.200	0.177	0.176	0.147	0.171	0.165	0.178	0.191	0.336	0.514	1.019	1.330	0.857	0.426	0.320	0.367	0.549	0.987	2.349	5.453	9.594	11.39	6.796	1.387	0.066	0.057	0.018	0.000
290.0	26.79	36.21	33.96	23.70	20.65	20.89	33.59	86.72	179.1	195.3	119.7	157.2	463.3	 1148	 1308	370.0	22.61	1.636	1.081	0.970	0.708	0.546	0.508	0.378	0.364	0.358	0.254	0.247	0.226	0.250	0.211	0.257	0.139	0.148	0.171	0.153	0.157	0.138	0.142	0.140	0.102	0.097	0.102	0.134	0.154	0.152	0.234	0.248	0.292	0.228	0.166	0.264	0.197	0.204	0.156	0.170	0.193	0.229	0.268	0.483	0.781	1.093	1.222	1.081	0.696	0.467	0.490	0.805	1.525	2.960	5.329	7.603	8.719	7.424	4.088	0.870	0.065
295.0	32.01	45.41	42.89	34.23	31.68	31.20	34.61	53.53	105.0	222.5	267.6	145.0	168.3	319.0	735.6	 1537	553.9	23.27	1.794	1.150	0.898	0.758	0.664	0.419	0.403	0.383	0.374	0.312	0.306	0.233	0.236	0.183	0.174	0.202	0.188	0.176	0.141	0.146	0.150	0.153	0.152	0.100	0.143	0.116	0.135	0.167	0.175	0.284	0.372	0.260	0.224	0.246	0.218	0.257	0.200	0.205	0.262	0.207	0.229	0.342	0.384	0.575	0.747	1.186	1.655	1.341	0.642	0.597	0.697	1.025	1.408	1.953	3.029	6.096	10.87	11.33	5.153
300.0	40.17	54.50	51.93	41.40	34.53	35.49	43.81	53.31	83.68	164.8	304.0	249.8	128.4	126.2	238.3	966.1	 1709	416.4	8.179	1.440	1.023	0.794	0.751	0.484	0.465	0.404	0.429	0.370	0.305	0.347	0.292	0.233	0.232	0.221	0.192	0.169	0.137	0.174	0.183	0.118	0.125	0.089	0.122	0.106	0.146	0.155	0.178	0.247	0.310	0.283	0.239	0.249	0.280	0.233	0.264	0.181	0.261	0.218	0.315	0.374	0.300	0.467	0.531	0.865	1.270	1.817	1.539	0.923	0.699	0.641	0.630	0.695	0.851	1.825	4.479	9.479	12.65
305.0	43.77	60.51	61.74	50.33	44.51	44.58	51.87	63.71	86.31	135.9	246.4	343.6	162.0	100.8	97.05	327.7	 1214	 1662	62.91	3.283	1.472	0.980	0.894	0.633	0.450	0.487	0.428	0.422	0.376	0.276	0.256	0.228	0.184	0.236	0.210	0.169	0.137	0.184	0.214	0.157	0.163	0.116	0.091	0.139	0.173	0.181	0.173	0.252	0.299	0.315	0.308	0.328	0.284	0.295	0.307	0.322	0.315	0.340	0.345	0.382	0.355	0.560	0.561	0.651	0.894	1.311	1.856	1.650	1.049	0.745	0.568	0.418	0.418	0.566	1.305	3.089	6.707
310.0	41.04	60.43	67.58	58.92	57.02	58.06	66.95	78.42	98.82	131.4	183.8	277.0	301.3	171.7	85.95	113.9	378.7	 1042	 1370	601.9	16.44	1.535	1.200	0.774	0.758	0.526	0.405	0.426	0.392	0.354	0.275	0.247	0.228	0.233	0.196	0.188	0.171	0.199	0.213	0.142	0.162	0.131	0.160	0.141	0.163	0.175	0.187	0.250	0.277	0.276	0.364	0.316	0.351	0.350	0.316	0.333	0.382	0.406	0.362	0.424	0.426	0.574	0.596	0.638	0.815	0.889	1.145	1.416	1.786	1.593	1.030	0.600	0.501	0.427	0.527	0.920	1.824
315.0	46.57	69.22	73.71	73.69	69.69	73.97	80.93	95.80	113.4	140.4	177.9	213.4	263.8	304.3	117.9	85.83	129.1	280.2	677.7	 1666	408.5	16.43	1.487	1.184	0.898	0.574	0.636	0.466	0.433	0.378	0.236	0.227	0.256	0.283	0.217	0.241	0.235	0.214	0.187	0.176	0.189	0.183	0.159	0.155	0.209	0.124	0.218	0.256	0.324	0.224	0.306	0.333	0.413	0.427	0.392	0.440	0.446	0.464	0.464	0.439	0.486	0.591	0.719	0.670	0.824	0.801	0.917	0.999	1.135	1.463	1.804	1.607	0.841	0.471	0.455	0.486	0.686
320.0	63.59	98.24	111.8	86.95	81.86	81.27	96.77	114.1	131.8	163.0	194.7	217.2	235.6	299.6	256.2	101.9	87.07	108.7	210.2	917.2	 1668	312.0	6.480	1.385	0.987	0.571	0.569	0.486	0.470	0.331	0.438	0.285	0.300	0.265	0.218	0.210	0.215	0.195	0.180	0.200	0.151	0.162	0.178	0.156	0.208	0.200	0.238	0.365	0.470	0.354	0.302	0.400	0.386	0.392	0.467	0.445	0.476	0.594	0.553	0.539	0.590	0.756	0.724	0.812	0.909	0.941	0.867	0.967	1.002	1.073	1.491	1.876	1.578	0.913	0.595	0.507	0.476
325.0	84.23	135.5	146.9	109.2	92.48	96.95	110.2	130.6	148.0	181.1	217.4	243.7	240.1	258.1	310.6	198.0	92.34	80.60	85.15	283.8	 1165	 1582	49.04	2.771	1.250	0.964	0.704	0.578	0.479	0.440	0.421	0.313	0.333	0.222	0.282	0.187	0.212	0.184	0.232	0.170	0.169	0.156	0.144	0.159	0.172	0.264	0.340	0.451	0.596	0.545	0.453	0.416	0.392	0.519	0.521	0.536	0.612	0.582	0.595	0.695	0.719	0.842	0.845	0.947	0.987	1.037	0.940	1.155	1.084	1.239	1.312	1.363	1.847	1.757	1.239	0.633	0.594
330.0	93.74	164.0	190.3	141.4	114.9	113.1	124.8	145.5	169.9	200.9	238.0	267.5	265.6	246.4	252.9	267.7	180.9	95.18	69.30	96.45	338.7	 1004	 1327	537.8	13.55	1.362	0.848	0.747	0.593	0.561	0.410	0.358	0.319	0.317	0.298	0.216	0.237	0.210	0.246	0.213	0.185	0.130	0.177	0.174	0.213	0.311	0.375	0.549	0.678	0.669	0.604	0.537	0.560	0.575	0.543	0.596	0.678	0.632	0.701	0.738	0.764	0.900	0.917	1.062	1.099	1.161	1.200	1.214	1.246	1.363	1.277	1.273	1.382	1.513	1.664	1.609	1.120
335.0	113.1	203.8	231.1	186.5	147.3	138.6	146.5	171.3	193.9	227.4	270.4	296.0	297.2	272.2	242.2	229.8	262.1	168.7	83.16	66.34	105.8	254.9	641.0	 1673	338.4	14.18	1.317	1.080	0.765	0.521	0.604	0.415	0.417	0.292	0.278	0.275	0.226	0.230	0.264	0.227	0.178	0.151	0.164	0.223	0.273	0.365	0.429	0.627	0.737	0.856	0.623	0.749	0.697	0.636	0.651	0.623	0.732	0.808	0.826	0.804	0.828	0.988	1.061	1.203	1.243	1.299	1.334	1.348	1.485	1.495	1.433	1.391	1.267	1.234	1.213	1.407	1.671
340.0	116.8	236.3	278.0	233.3	181.2	166.3	174.9	195.6	216.4	244.8	289.3	321.6	324.8	300.6	255.9	215.7	233.4	244.6	120.6	69.50	63.64	86.21	184.9	937.3	 1679	268.7	5.030	1.407	0.892	0.658	0.636	0.473	0.336	0.281	0.267	0.291	0.210	0.216	0.250	0.198	0.223	0.183	0.206	0.221	0.305	0.377	0.480	0.763	0.766	0.864	0.761	0.869	0.771	0.798	0.753	0.743	0.875	0.959	0.929	1.041	1.090	1.181	1.158	1.251	1.226	1.383	1.383	1.495	1.609	1.480	1.509	1.561	1.259	1.249	1.177	1.130	1.218
345.0	126.4	242.5	298.5	255.6	220.2	200.3	197.6	220.5	243.8	268.6	304.5	334.4	342.3	316.5	273.2	219.4	196.3	243.3	191.1	87.28	62.24	57.28	69.57	278.2	 1250	 1492	41.81	2.626	1.181	0.880	0.677	0.562	0.480	0.385	0.299	0.374	0.293	0.265	0.255	0.250	0.239	0.200	0.262	0.222	0.276	0.382	0.498	0.724	0.886	0.899	0.832	0.918	0.934	0.830	0.834	0.735	0.886	1.061	0.961	1.127	1.141	1.187	1.327	1.264	1.337	1.450	1.388	1.516	1.777	1.576	1.606	1.571	1.368	1.225	1.208	1.029	1.128
350.0	124.9	230.6	309.0	302.7	277.5	254.2	260.5	281.4	296.1	311.5	338.2	358.2	361.3	339.2	295.2	239.5	198.0	195.6	216.4	166.0	85.58	62.14	54.22	91.34	355.1	 1011	 1260	467.3	12.07	1.306	1.047	0.663	0.603	0.377	0.314	0.333	0.287	0.265	0.237	0.220	0.214	0.221	0.256	0.262	0.308	0.447	0.496	0.665	0.969	0.981	0.948	1.033	1.176	1.046	1.097	1.062	1.125	1.265	1.305	1.321	1.453	1.482	1.417	1.569	1.530	1.656	1.575	1.560	1.794	1.670	1.681	1.642	1.543	1.398	1.330	1.123	1.240
355.0	125.0	231.2	331.1	332.0	337.0	320.8	335.2	351.3	364.4	361.5	380.2	384.5	386.5	359.4	321.5	260.6	217.4	190.6	178.4	203.7	158.2	82.88	63.67	59.96	107.0	252.5	622.1	 1549	308.5	13.56	1.346	0.965	0.662	0.492	0.427	0.372	0.359	0.303	0.194	0.290	0.230	0.216	0.202	0.319	0.298	0.396	0.565	0.762	0.937	0.987	1.016	1.192	1.351	1.162	1.292	1.294	1.366	1.564	1.560	1.670	1.781	1.713	1.640	1.822	1.907	1.661	1.799	1.702	1.879	1.861	1.801	1.668	1.727	1.607	1.443	1.443	1.304
360.0	124.0	233.4	330.7	353.7	367.3	358.2	375.1	399.8	406.5	399.2	400.1	408.5	400.6	370.7	335.4	273.0	229.7	196.3	170.1	173.9	202.7	122.2	74.31	60.77	59.05	81.68	173.7	895.9	 1540	247.6	4.929	1.180	0.797	0.631	0.484	0.354	0.301	0.324	0.255	0.226	0.262	0.236	0.248	0.261	0.295	0.457	0.517	0.685	0.896	1.055	1.012	1.263	1.431	1.445	1.532	1.487	1.562	1.652	1.740	1.768	2.072	1.898	1.905	1.864	1.886	1.805	1.798	1.842	2.013	1.825	1.968	1.732	1.794	1.715	1.403	1.579	1.333
365.0	131.7	227.0	328.2	368.3	391.0	391.6	402.1	425.5	437.6	425.7	417.3	421.4	402.8	378.2	339.5	285.1	239.4	207.1	176.3	158.4	188.9	180.1	98.67	70.69	56.14	50.72	61.40	259.8	 1187	 1402	39.49	2.516	1.117	0.739	0.572	0.385	0.341	0.334	0.284	0.263	0.239	0.251	0.217	0.269	0.316	0.412	0.546	0.742	0.903	0.972	1.000	1.400	1.473	1.646	1.604	1.588	1.614	1.935	1.901	1.871	2.126	2.105	2.006	1.983	1.962	1.835	1.900	1.773	1.849	1.856	1.937	1.834	1.766	1.667	1.525	1.464	1.388
370.0	120.5	225.2	337.2	395.2	432.7	421.2	432.7	466.1	472.0	461.7	448.3	440.0	409.2	380.4	342.9	290.6	252.6	224.3	196.4	175.0	171.2	197.5	180.9	117.2	83.23	65.68	55.96	85.86	335.8	986.6	 1232	423.1	11.11	1.178	0.819	0.493	0.455	0.354	0.378	0.304	0.262	0.270	0.255	0.335	0.358	0.466	0.536	0.751	0.874	1.062	1.125	1.455	1.683	1.749	1.722	1.685	1.852	1.903	2.029	2.175	2.242	2.220	2.196	2.217	2.211	1.967	2.068	2.043	1.999	1.917	1.935	1.862	1.839	1.710	1.501	1.636	1.521
375.0	119.1	209.7	360.9	415.3	462.5	450.4	454.7	482.3	495.4	482.3	480.2	470.0	415.8	377.1	337.4	299.7	265.9	238.8	215.6	196.4	184.1	186.3	215.9	199.9	131.3	104.6	79.59	63.31	103.1	246.3	640.7	 1466	269.2	12.26	1.117	0.784	0.549	0.435	0.369	0.294	0.266	0.328	0.288	0.316	0.333	0.481	0.635	0.701	0.927	1.022	1.162	1.585	1.742	1.814	1.788	1.728	1.946	1.918	2.108	2.351	2.465	2.312	2.292	2.278	2.312	2.140	2.180	2.207	2.065	1.902	1.960	1.989	1.860	1.759	1.751	1.573	1.536
380.0	112.2	211.0	335.0	421.3	470.0	452.6	448.9	481.8	487.9	478.4	470.1	464.4	412.0	372.2	330.5	296.8	266.0	243.5	222.7	204.1	189.6	186.4	194.6	224.4	172.1	120.0	88.20	65.27	56.47	78.96	179.9	864.8	 1376	212.9	3.789	0.898	0.723	0.462	0.421	0.353	0.299	0.313	0.316	0.351	0.377	0.451	0.508	0.683	0.813	1.003	1.240	1.515	1.813	1.903	1.998	1.816	1.946	1.942	2.073	2.218	2.487	2.256	2.388	2.253	2.164	2.210	2.160	2.173	2.054	1.848	1.924	1.891	1.741	1.684	1.692	1.701	1.628
385.0	111.3	198.7	322.7	409.8	463.8	436.1	434.3	470.2	467.9	462.5	452.9	444.1	403.4	363.5	324.1	291.4	263.7	245.5	226.5	206.4	190.7	185.7	179.1	200.6	206.6	136.2	94.20	69.58	50.76	45.04	64.43	255.0	 1080	 1161	32.28	1.645	0.895	0.567	0.432	0.389	0.366	0.314	0.321	0.330	0.350	0.453	0.517	0.612	0.838	1.002	1.205	1.564	1.907	1.951	1.850	1.776	1.891	1.928	2.090	2.143	2.300	2.108	2.320	2.156	2.075	2.010	1.938	2.130	1.948	1.824	1.815	1.846	1.685	1.640	1.567	1.641	1.688
390.0	105.0	196.3	307.8	397.1	443.6	425.8	425.6	444.6	444.4	437.5	433.7	422.0	383.6	345.6	315.3	285.7	261.7	246.0	225.8	209.3	198.1	187.6	179.4	177.2	191.8	177.0	115.6	76.60	55.66	43.68	42.52	77.87	301.0	814.4	958.8	133.4	9.177	0.865	0.559	0.430	0.409	0.367	0.356	0.315	0.367	0.417	0.507	0.655	0.839	0.972	1.145	1.436	1.803	1.832	1.845	1.728	1.922	1.822	2.033	2.113	2.159	2.089	2.150	2.083	1.954	2.018	1.969	2.024	1.883	1.746	1.702	1.683	1.662	1.624	1.590	1.593	1.544
395.0	104.7	184.4	292.5	377.4	428.6	413.0	407.6	419.5	414.7	407.2	416.5	400.0	359.6	330.1	298.1	275.7	256.8	241.8	225.9	211.5	199.2	192.8	182.2	175.6	168.7	175.5	160.6	95.10	63.19	48.25	40.61	41.84	82.14	195.0	494.7	 1101	222.7	10.05	0.773	0.521	0.485	0.377	0.410	0.371	0.381	0.428	0.394	0.584	0.755	0.932	1.080	1.346	1.756	1.821	1.721	1.678	2.033	1.783	1.852	1.984	1.963	1.944	1.947	2.007	1.771	1.903	1.716	1.957	1.711	1.706	1.658	1.655	1.637	1.471	1.650	1.690	1.570
400.0	101.8	181.2	281.4	366.2	419.4	399.8	394.3	396.6	394.6	391.9	389.0	380.8	341.0	318.0	290.3	268.1	250.5	236.8	221.1	210.1	197.2	193.8	180.6	172.3	161.4	155.0	165.2	125.8	72.34	53.55	44.37	37.09	36.10	54.16	129.9	659.9	 1095	181.3	3.301	0.743	0.541	0.441	0.439	0.462	0.380	0.385	0.459	0.634	0.752	0.912	1.007	1.268	1.661	1.633	1.716	1.595	1.781	1.820	1.803	2.008	1.904	1.731	1.809	1.800	1.700	1.662	1.759	1.978	1.594	1.647	1.585	1.616	1.527	1.478	1.506	1.593	1.559
405.0	106.9	161.1	259.9	340.5	396.2	383.7	385.0	381.1	374.3	368.6	364.4	356.0	326.3	305.2	278.4	258.2	243.5	230.3	215.2	205.1	192.8	187.6	177.3	166.4	155.7	140.9	143.2	145.7	91.71	59.95	48.44	39.18	28.59	24.88	38.46	183.3	818.1	920.6	28.79	1.457	0.664	0.479	0.427	0.351	0.374	0.384	0.490	0.669	0.727	0.793	0.909	1.330	1.578	1.606	1.620	1.539	1.676	1.613	1.805	1.824	1.738	1.807	1.745	1.641	1.558	1.558	1.611	1.576	1.414	1.634	1.499	1.544	1.466	1.393	1.498	1.471	1.514
410.0	95.05	163.2	246.4	323.8	368.4	372.9	366.2	363.6	354.4	344.0	336.1	327.8	304.2	283.2	261.6	243.2	229.4	219.1	207.3	195.0	185.5	179.4	169.4	159.1	148.8	134.1	122.7	126.8	120.6	79.67	54.97	43.46	30.91	22.95	21.10	50.19	221.4	626.6	759.1	124.5	8.190	0.718	0.557	0.446	0.374	0.470	0.442	0.591	0.772	0.813	0.888	1.229	1.404	1.531	1.600	1.542	1.702	1.603	1.717	1.636	1.693	1.624	1.509	1.513	1.450	1.506	1.475	1.568	1.467	1.397	1.389	1.434	1.428	1.350	1.392	1.346	1.372
