Sample:	'1
File name:	T2025042711新河东村07.FD3
Run date:	'10:03:53, 04/29/2025
Operator:	Administrator
Comment:	'

Instrument
Model:	F-2700 FL Spectrophotometer
Serial number:	23B8-004
ROM Version:	4J14000 07

Instrument parameters
Measurement type:	3-D scan
Data mode:	Fluorescence
EX  Start WL:	220.0 nm
EX  End WL:	600.0 nm
EX Sampling interval:	5.0 nm
EM  Start WL:	230.0 nm
EM  End WL:	650.0 nm
EM Sampling interval:	5.0 nm
Scan speed:	12000 nm/min
EX Slit:	5.0 nm
EM Slit:	5.0 nm
PMT Voltage:	700 V
Response:	Auto 
Corrected spectra:	Off
Contour interval:	50.000

Peak integration
Integration method:	Rectangular
Sensitivity:	1
Threshold:	1.000

Peaks
No.	ApexEX/EM(nm)	Height(Data)
1	225.0/560.0	66.02
2	225.0/600.0	53.89
3	225.0/615.0	52.71
4	225.0/635.0	53.14
5	230.0/345.0	1496
6	230.0/500.0	306.3
7	235.0/515.0	256.0
8	240.0/525.0	231.1
9	245.0/540.0	195.1
10	250.0/550.0	154.8
11	255.0/285.0	519.7
12	255.0/565.0	129.5
13	260.0/290.0	549.0
14	260.0/575.0	109.4
15	265.0/295.0	765.6
16	265.0/590.0	97.39
17	270.0/300.0	1044
18	270.0/600.0	96.45
19	275.0/310.0	1242
20	275.0/335.0	1351
21	275.0/610.0	87.68
22	280.0/315.0	1268
23	280.0/625.0	83.65
24	285.0/320.0	1301
25	285.0/635.0	63.96
26	315.0/355.0	433.8
27	320.0/365.0	412.9
28	330.0/375.0	373.7
29	335.0/380.0	364.6
30	425.0/500.0	38.71
31	455.0/345.0	4.806
32	455.0/540.0	13.39
33	505.0/275.0	3.230
34	510.0/280.0	3.353
35	520.0/285.0	3.678
36	530.0/290.0	3.751
37	545.0/300.0	5.923
38	550.0/305.0	6.314
39	555.0/330.0	6.705
40	560.0/335.0	7.059
41	570.0/315.0	7.466
42	575.0/320.0	7.802
43	585.0/325.0	7.528

Data points
	220.0	225.0	230.0	235.0	240.0	245.0	250.0	255.0	260.0	265.0	270.0	275.0	280.0	285.0	290.0	295.0	300.0	305.0	310.0	315.0	320.0	325.0	330.0	335.0	340.0	345.0	350.0	355.0	360.0	365.0	370.0	375.0	380.0	385.0	390.0	395.0	400.0	405.0	410.0	415.0	420.0	425.0	430.0	435.0	440.0	445.0	450.0	455.0	460.0	465.0	470.0	475.0	480.0	485.0	490.0	495.0	500.0	505.0	510.0	515.0	520.0	525.0	530.0	535.0	540.0	545.0	550.0	555.0	560.0	565.0	570.0	575.0	580.0	585.0	590.0	595.0	600.0
230.0	53.30	1458	4267	1678	70.19	7.869	6.990	6.039	5.170	5.092	4.719	4.513	3.779	3.308	2.813	2.659	2.373	2.149	2.117	1.838	1.742	1.489	1.481	1.293	1.323	1.212	1.069	1.041	0.972	0.990	0.952	0.838	0.871	0.734	0.750	0.705	0.593	0.597	0.585	0.513	0.521	0.591	0.587	0.524	0.474	0.507	1.255	6.729	13.82	12.28	5.652	1.252	0.412	0.379	0.321	0.313	0.341	0.301	0.317	0.255	0.299	0.292	0.245	0.266	0.261	0.262	0.262	0.247	0.206	0.227	0.204	0.230	0.219	0.229	0.228	0.229	0.202
235.0	86.86	408.0	2834	5479	2272	111.4	10.18	7.526	5.223	5.533	5.096	4.795	4.126	3.558	3.142	2.668	2.499	2.224	2.149	1.951	1.712	1.512	1.570	1.507	1.535	1.294	1.131	0.990	1.009	1.055	1.072	0.849	0.833	0.737	0.782	0.766	0.618	0.656	0.671	0.586	0.496	0.495	0.565	0.636	0.642	0.521	0.751	1.924	4.970	10.52	17.31	20.02	11.08	2.792	0.441	0.411	0.331	0.376	0.369	0.333	0.331	0.270	0.300	0.286	0.258	0.246	0.264	0.216	0.251	0.200	0.226	0.250	0.240	0.208	0.242	0.206	0.217
240.0	133.3	171.1	864.2	4806	6840	509.8	57.91	9.547	6.803	7.657	6.239	5.291	4.771	3.531	3.401	3.021	2.665	2.111	2.045	1.971	1.686	1.744	1.598	1.518	1.450	1.291	1.164	1.095	1.084	1.109	0.969	0.953	0.839	0.749	0.790	0.728	0.695	0.612	0.591	0.581	0.459	0.495	0.589	0.667	0.773	0.719	0.718	0.922	1.444	3.105	8.733	22.90	28.26	21.83	9.517	1.440	0.409	0.364	0.364	0.371	0.318	0.305	0.327	0.316	0.219	0.278	0.324	0.242	0.269	0.236	0.194	0.283	0.197	0.215	0.247	0.223	0.228
245.0	116.7	200.0	252.3	1680	7304	6757	399.7	24.74	10.43	8.146	7.293	6.199	4.543	4.239	3.195	3.069	3.069	2.572	2.152	2.147	1.983	1.829	1.794	1.521	1.531	1.418	1.290	1.118	1.096	1.028	1.097	0.967	0.882	0.767	0.679	0.689	0.663	0.651	0.598	0.628	0.583	0.558	0.578	0.540	0.611	0.759	0.876	0.801	0.746	0.994	2.390	7.279	19.23	37.56	28.86	19.09	6.790	0.826	0.375	0.385	0.336	0.319	0.314	0.310	0.298	0.294	0.315	0.272	0.281	0.291	0.255	0.256	0.260	0.280	0.259	0.241	0.232
250.0	59.16	148.4	243.5	461.6	2363	6854	8681	1428	101.7	13.28	10.06	8.236	6.133	4.921	4.146	3.672	3.288	2.742	2.528	2.328	2.191	1.940	1.732	1.521	1.744	1.420	1.539	1.278	1.236	1.188	1.071	0.996	0.947	0.771	0.741	0.729	0.678	0.659	0.604	0.673	0.644	0.597	0.622	0.603	0.571	0.597	0.659	0.892	1.051	0.988	1.092	2.010	4.813	11.62	19.32	32.53	37.22	40.12	15.19	6.164	0.800	0.396	0.371	0.343	0.321	0.293	0.323	0.289	0.237	0.263	0.274	0.253	0.270	0.268	0.251	0.266	0.217
255.0	46.48	64.87	181.1	339.2	608.0	1744	7053	9999.9	2052	119.7	15.26	12.69	8.529	6.226	5.167	4.420	3.688	3.349	2.601	2.606	2.328	1.950	1.813	1.672	1.699	1.556	1.471	1.207	1.240	1.301	1.199	1.073	1.031	0.898	0.807	0.693	0.645	0.701	0.577	0.671	0.645	0.553	0.578	0.607	0.594	0.609	0.580	0.579	0.669	0.895	1.355	1.544	1.689	2.920	4.664	7.862	13.63	37.59	68.29	73.11	23.79	6.849	0.696	0.462	0.406	0.361	0.397	0.272	0.301	0.238	0.284	0.337	0.241	0.262	0.272	0.323	0.216
260.0	45.36	35.21	79.72	288.1	357.2	447.8	2166	9999.9	9999.9	1587	61.90	17.50	12.36	8.390	5.719	5.575	4.185	3.369	3.204	2.697	2.545	2.316	1.813	1.874	1.747	1.607	1.541	1.532	1.338	1.298	1.229	1.219	1.074	0.931	0.847	0.749	0.707	0.649	0.762	0.724	0.749	0.656	0.620	0.634	0.601	0.665	0.597	0.492	0.531	0.644	0.920	1.710	1.951	1.489	1.527	2.183	3.559	9.998	29.15	68.91	93.04	31.29	18.94	3.089	0.480	0.468	0.392	0.311	0.360	0.285	0.288	0.363	0.313	0.281	0.260	0.256	0.247
265.0	39.25	38.85	37.81	140.1	369.4	262.4	535.5	3649	9999.9	9999.9	1096	31.91	16.29	10.13	7.573	6.473	4.888	4.204	3.245	2.763	2.791	2.640	2.157	1.847	1.935	1.718	1.663	1.468	1.400	1.385	1.295	1.184	1.044	1.011	0.913	0.907	0.770	0.685	0.780	0.727	0.686	0.631	0.667	0.654	0.608	0.614	0.577	0.516	0.558	0.497	0.546	1.115	1.782	2.077	1.552	1.080	1.253	2.767	7.036	19.63	50.39	91.39	111.7	28.74	11.97	1.215	0.507	0.423	0.527	0.387	0.343	0.350	0.347	0.335	0.403	0.339	0.233
270.0	58.82	49.84	41.67	60.44	192.4	361.2	314.4	884.0	3990	9999.9	9999.9	3981	71.96	16.76	11.44	8.269	6.473	5.265	4.218	3.824	3.169	2.867	2.430	2.281	2.089	2.090	1.828	1.835	1.559	1.524	1.380	1.435	1.195	1.180	1.069	0.921	0.858	0.780	0.840	0.813	0.819	0.611	0.765	0.653	0.678	0.644	0.625	0.596	0.550	0.502	0.445	0.626	0.843	1.341	1.849	2.217	1.858	1.527	2.081	4.879	12.09	26.53	55.74	77.08	98.31	80.87	18.22	8.973	1.337	0.498	0.500	0.384	0.401	0.394	0.378	0.385	0.308
275.0	104.9	94.39	74.07	59.47	75.17	196.9	468.6	396.2	950.0	2700	9999.9	9999.9	1263	75.30	17.92	12.54	8.890	6.842	5.334	4.455	3.915	3.435	2.805	2.408	2.215	2.050	1.891	2.122	1.700	1.797	1.533	1.446	1.387	1.324	1.250	1.136	0.998	0.939	0.934	0.766	0.868	0.659	0.777	0.768	0.706	0.712	0.811	0.719	0.671	0.570	0.534	0.560	0.591	0.685	0.868	1.266	2.466	3.230	2.280	1.829	3.282	6.442	13.09	18.19	29.65	68.77	139.0	151.2	29.22	10.03	0.820	0.549	0.561	0.434	0.415	0.422	0.323
280.0	171.1	166.7	126.4	89.53	59.62	90.80	339.6	512.6	339.8	690.2	3287	9999.9	9999.9	938.2	43.29	17.38	12.03	8.641	6.687	5.301	4.404	3.736	3.071	2.855	2.555	2.500	2.167	2.359	1.703	1.827	1.720	1.623	1.520	1.403	1.447	1.288	1.183	1.059	0.874	0.904	0.854	0.773	0.871	0.887	0.844	0.967	0.986	0.887	0.835	0.721	0.677	0.613	0.563	0.627	0.639	0.809	1.183	2.449	3.353	3.112	2.009	2.140	3.667	4.663	7.441	17.63	51.68	121.9	177.7	130.6	23.06	5.208	0.768	0.588	0.550	0.462	0.391
285.0	216.5	227.4	190.4	125.4	73.33	68.33	160.5	519.7	348.7	283.9	864.0	4602	9999.9	8866	639.1	27.53	16.28	12.34	8.443	6.297	5.459	4.021	3.592	3.282	2.907	2.683	2.341	2.424	1.851	1.907	1.784	1.735	1.586	1.516	1.526	1.473	1.237	1.210	1.144	0.964	0.912	0.976	1.014	1.064	1.006	0.987	1.202	1.153	0.940	0.839	0.776	0.799	0.542	0.655	0.703	0.660	0.740	1.171	2.060	3.583	3.678	2.182	1.762	1.978	2.549	4.851	12.65	31.84	79.75	152.4	184.9	33.76	16.53	1.938	0.608	0.623	0.520
290.0	294.8	359.7	310.1	189.6	106.8	88.46	115.7	264.9	549.0	494.9	425.0	1252	4731	9999.9	9999.9	2616	47.66	17.77	12.00	8.585	6.792	5.120	4.419	3.714	3.485	3.075	2.796	2.496	2.275	2.125	1.897	1.835	1.745	1.641	1.676	1.595	1.412	1.338	1.231	1.178	1.051	1.039	1.107	1.138	1.210	1.294	1.342	1.506	1.332	1.207	0.997	1.046	0.862	0.852	0.843	0.784	0.796	0.876	1.193	1.817	2.725	3.276	3.751	2.657	2.037	2.367	4.008	8.426	19.35	40.43	77.78	115.5	152.6	124.9	80.49	12.32	2.278
295.0	371.9	470.7	423.8	284.3	157.1	128.9	147.0	208.0	353.5	765.6	711.0	622.7	1333	2763	9999.9	9999.9	720.5	51.15	17.49	12.27	9.276	6.683	5.596	4.168	4.090	3.766	3.098	2.900	2.490	2.456	2.085	1.990	1.765	1.767	1.677	1.844	1.542	1.500	1.311	1.284	1.194	1.289	1.257	1.163	1.400	1.642	1.787	1.875	1.691	1.609	1.344	1.400	1.086	1.183	1.016	0.966	1.009	1.052	1.315	1.502	1.861	2.118	3.080	4.521	4.974	3.515	2.981	3.748	6.147	10.93	18.88	27.51	41.40	85.35	171.4	211.6	34.51
300.0	438.8	558.3	519.4	357.9	202.5	188.5	190.9	241.9	337.4	636.0	1044	741.3	678.6	899.4	3240	9999.9	9999.9	589.9	33.45	17.27	11.63	9.066	6.812	5.534	4.854	4.235	3.517	3.171	2.795	2.827	2.184	2.116	1.930	1.779	1.928	1.888	1.541	1.484	1.431	1.229	1.201	1.375	1.397	1.406	1.604	1.698	1.901	2.244	1.913	1.854	1.566	1.546	1.381	1.268	1.129	1.108	1.254	1.432	1.410	1.597	1.869	1.978	2.461	3.218	5.219	5.923	4.541	3.576	3.704	4.601	6.128	8.096	10.74	21.37	53.15	131.5	205.4
305.0	500.8	645.8	623.9	422.5	259.8	228.9	248.4	304.5	414.0	630.1	980.8	1174	712.4	590.2	985.1	4554	9999.9	9999.9	417.4	24.72	15.41	11.04	7.934	6.272	5.729	4.335	3.972	3.629	3.008	2.796	2.694	2.224	2.285	2.089	2.026	1.973	1.750	1.757	1.602	1.427	1.326	1.270	1.534	1.514	1.796	1.849	2.115	2.348	2.365	2.264	1.687	1.811	1.620	1.451	1.395	1.354	1.471	1.645	1.756	2.021	2.175	2.187	2.698	3.009	4.020	5.178	6.314	6.000	4.515	3.867	4.020	4.283	4.542	6.546	13.34	32.98	78.75
310.0	572.0	737.4	715.0	507.2	322.7	279.0	323.4	391.2	527.2	758.4	886.4	1242	1175	729.7	578.2	1236	4672	9999.9	9999.9	1925	36.70	16.00	11.35	8.262	7.008	5.555	4.625	4.160	3.557	3.154	2.954	2.441	2.324	2.138	2.105	1.959	1.895	1.846	1.770	1.544	1.501	1.503	1.569	1.783	1.921	2.094	2.302	2.912	2.610	2.544	2.037	2.154	1.887	1.624	1.732	1.585	1.807	1.946	2.048	2.342	2.665	2.844	3.250	3.414	4.054	4.542	5.250	6.357	6.985	6.285	5.289	4.399	3.754	3.880	4.978	8.998	19.01
315.0	636.4	827.3	841.5	567.7	386.8	336.1	391.2	484.8	638.3	908.4	963.4	1138	1268	1157	636.6	544.8	1196	2636	9999.9	9999.9	2778	39.33	16.64	11.46	8.782	6.944	5.304	4.662	4.158	3.356	3.008	2.867	2.521	2.129	2.254	2.094	1.895	1.920	1.879	1.675	1.571	1.632	1.928	1.787	1.969	2.406	2.554	3.421	2.658	2.981	2.191	2.459	2.005	1.803	1.958	1.947	2.158	2.052	2.377	2.710	2.910	3.199	3.782	3.956	4.399	4.865	4.941	5.634	6.229	6.596	7.466	6.999	5.049	4.087	3.566	4.142	5.857
320.0	729.2	974.4	935.0	642.6	437.0	384.2	442.8	537.4	721.4	1004	1046	1200	1202	1301	887.0	466.3	463.2	709.3	3194	9999.9	9999.9	448.3	28.09	15.79	10.99	8.142	6.268	5.435	4.730	3.741	3.618	2.968	2.562	2.346	2.445	2.255	2.099	1.873	1.816	1.886	1.638	1.740	1.929	1.971	2.084	2.527	2.928	3.658	3.034	3.157	2.398	2.400	2.202	2.066	2.021	2.082	2.353	2.405	2.633	3.006	3.144	3.630	4.142	4.324	4.731	5.378	5.272	5.835	6.361	5.961	6.646	7.802	7.079	5.683	4.032	3.068	3.012
325.0	801.6	1097	1082	732.4	489.3	426.2	481.0	578.3	778.1	1091	1114	1266	1221	1198	1111	582.6	338.8	301.9	814.4	4348	9999.9	9999.9	64.49	21.67	14.48	10.81	7.526	5.818	5.452	3.869	4.044	3.164	2.902	2.807	2.676	2.357	2.154	2.050	1.921	2.023	1.796	1.909	1.928	2.181	2.392	2.774	3.145	3.850	3.480	3.661	2.771	2.778	2.241	2.184	2.403	2.206	2.377	2.462	2.840	3.429	3.776	3.852	4.176	4.484	5.079	5.642	5.760	6.205	6.254	6.029	6.527	6.782	7.189	7.528	5.538	3.916	2.716
330.0	875.4	1267	1274	891.4	564.0	487.1	523.2	620.6	815.6	1146	1171	1323	1281	1156	1018	801.4	445.5	246.7	297.8	1070	4440	9999.9	9999.9	1598	31.72	14.93	10.48	8.010	6.631	5.153	4.832	3.828	3.188	2.897	2.922	2.543	2.185	2.132	1.967	1.972	1.811	1.929	2.071	2.208	2.607	2.983	3.359	4.253	3.954	4.284	3.219	3.288	2.644	2.463	2.371	2.352	2.760	2.728	2.941	3.544	3.771	4.274	4.471	4.824	5.314	5.556	5.899	6.705	6.512	6.588	6.640	6.607	6.317	6.374	5.861	5.458	4.369
335.0	920.2	1320	1395	1034	657.6	546.6	560.0	655.5	857.2	1177	1184	1351	1306	1170	951.7	758.8	668.0	337.7	217.7	347.5	1067	2650	9999.9	9999.9	2438	33.99	15.13	11.18	8.165	6.071	5.762	4.341	3.668	3.084	3.211	2.639	2.485	2.174	1.999	2.028	1.917	2.094	2.227	2.143	2.527	3.167	3.461	4.355	4.345	4.436	3.475	3.503	3.205	2.771	2.659	2.567	2.995	2.875	2.981	3.474	3.812	4.420	4.555	4.857	5.670	5.574	6.087	6.328	7.059	6.699	6.889	6.726	5.911	5.982	5.188	4.889	4.847
340.0	947.3	1344	1455	1094	720.5	597.3	589.5	671.9	865.4	1155	1176	1339	1297	1167	945.7	704.4	655.8	499.8	244.1	208.3	329.3	660.8	3209	9999.9	9999.9	385.2	24.23	13.57	9.911	7.163	6.245	4.775	3.928	3.570	3.406	2.807	2.554	2.247	2.268	1.993	1.930	2.190	2.280	2.391	2.643	3.219	3.656	4.776	4.535	4.631	3.835	3.753	3.217	3.067	3.004	2.793	2.961	3.162	3.207	3.346	3.919	4.301	4.650	4.990	5.461	5.349	6.121	6.588	6.770	6.873	7.043	6.499	6.225	6.086	5.114	4.698	4.212
345.0	919.3	1311	1496	1136	749.5	623.7	605.4	680.2	851.1	1132	1141	1279	1256	1135	933.0	685.0	566.6	561.6	352.4	199.9	180.8	228.9	784.0	4331	9999.9	9999.9	56.16	18.88	12.48	8.989	7.314	5.143	4.523	3.927	3.464	2.623	2.509	2.339	2.314	2.155	2.061	2.168	2.226	2.426	2.644	3.160	3.508	4.806	4.528	4.598	3.938	4.017	3.550	2.990	2.838	2.692	3.027	3.212	3.227	3.295	4.025	4.096	4.538	5.074	5.370	5.070	5.929	6.455	6.391	6.385	6.453	6.142	5.964	5.837	5.014	4.352	4.119
350.0	870.2	1251	1385	1129	798.9	646.3	629.1	681.3	810.1	1073	1074	1194	1175	1083	902.6	679.7	532.5	468.5	453.1	310.5	185.3	155.2	254.6	1039	4500	9999.9	9999.9	1463	27.99	12.48	10.12	6.411	5.066	4.044	3.941	2.906	2.733	2.431	2.312	2.294	1.935	2.203	2.070	2.164	2.464	2.888	3.459	4.422	4.331	4.429	3.873	3.912	3.797	3.276	3.011	2.936	3.136	3.174	3.358	3.444	3.912	4.157	4.385	4.782	4.952	5.295	5.453	5.801	6.030	6.038	5.955	5.728	5.914	5.461	4.985	4.422	4.081
355.0	807.4	1146	1301	1073	825.1	685.3	653.8	690.1	782.4	998.4	1004	1106	1095	1016	859.5	683.8	541.5	441.3	403.7	433.8	283.7	173.3	162.5	310.4	1062	2583	9999.9	9999.9	2288	30.42	13.85	8.436	6.214	5.075	4.595	3.371	3.108	2.751	2.314	2.259	2.094	2.138	2.282	2.103	2.413	2.684	3.383	4.140	4.101	4.101	3.553	3.711	3.443	3.153	3.186	3.122	3.397	3.344	3.417	3.550	3.984	3.859	4.304	4.488	4.782	5.091	5.131	5.446	5.682	5.568	5.954	5.501	5.474	5.219	4.700	4.413	4.025
360.0	722.7	1075	1208	1037	819.5	729.5	674.1	698.2	785.5	953.2	960.1	1039	1029	969.7	836.6	670.9	549.2	452.0	386.0	411.7	392.7	230.7	164.5	167.8	310.2	634.5	3002	9999.9	9999.9	371.0	24.33	10.75	7.475	6.180	4.939	3.725	3.327	2.707	2.619	2.419	2.195	2.044	2.328	2.240	2.374	2.902	3.051	3.880	3.871	3.979	3.556	3.689	3.618	3.430	3.262	3.175	3.464	3.536	3.434	3.621	3.828	4.079	4.308	4.443	4.524	4.777	4.660	5.215	5.322	5.248	5.376	5.300	5.154	4.984	4.386	4.327	4.071
365.0	702.4	1012	1153	999.1	832.3	735.1	692.1	705.1	778.0	929.2	919.6	986.6	969.1	920.3	801.9	669.4	562.6	470.7	402.6	374.7	412.9	331.7	196.8	154.9	158.7	207.5	726.6	3970	9999.9	9999.9	299.1	16.55	10.19	7.574	5.843	3.970	3.503	3.195	2.802	2.487	2.338	2.255	2.256	2.347	2.501	2.802	2.929	3.727	3.454	3.821	3.419	3.670	3.506	3.444	3.359	3.149	3.429	3.393	3.395	3.642	3.755	4.037	3.936	4.280	4.487	4.624	4.761	4.739	4.905	4.710	5.147	5.005	5.081	4.897	4.435	4.383	4.093
370.0	652.8	918.7	1049	967.5	841.2	748.7	718.5	716.6	757.3	875.4	877.6	923.9	910.9	864.5	763.5	655.1	572.9	493.1	433.3	388.5	371.2	384.4	305.7	195.2	152.0	134.1	228.4	945.6	4055	9999.9	9999.9	1356	24.96	10.41	7.748	5.138	4.283	3.305	3.113	2.736	2.548	2.412	2.225	2.231	2.271	2.666	2.804	3.557	3.425	3.506	3.302	3.688	3.551	3.452	3.299	3.280	3.433	3.568	3.632	3.680	3.722	3.669	3.955	4.244	4.342	4.159	4.451	4.434	4.537	4.598	4.805	4.873	4.842	4.860	4.441	4.078	4.249
375.0	625.5	828.3	975.9	930.6	840.1	783.4	734.3	720.4	736.1	834.1	817.2	869.9	856.1	814.7	727.9	639.3	573.7	511.0	459.9	416.5	376.6	357.6	373.7	293.2	185.3	145.2	139.2	277.7	953.0	2533	9999.9	9999.9	2123	27.92	10.89	6.681	5.164	3.821	3.476	3.135	2.737	2.478	2.317	2.172	2.413	2.689	2.662	3.551	3.234	3.140	3.433	3.783	3.655	3.525	3.376	3.333	3.710	3.284	3.424	3.507	3.551	3.700	3.664	3.808	4.139	3.982	4.085	4.413	4.408	4.289	4.429	4.286	4.497	4.529	4.300	3.827	3.804
380.0	578.0	794.3	910.8	918.8	840.6	784.8	736.1	721.9	739.9	791.5	800.3	820.0	817.7	778.9	708.0	623.9	576.7	519.4	477.0	434.8	389.2	353.4	353.5	364.6	241.6	165.6	134.9	141.6	272.1	614.3	2966	9999.9	9999.9	317.1	20.31	8.847	6.948	4.745	3.792	3.226	2.852	2.694	2.391	2.339	2.280	2.599	2.664	3.238	3.177	3.007	3.017	3.830	3.369	3.554	3.385	3.501	3.727	3.467	3.710	3.433	3.734	3.494	3.732	3.847	3.994	3.899	4.011	4.152	4.163	4.070	4.131	3.953	4.222	4.363	4.118	4.045	4.127
385.0	565.0	770.9	882.7	888.8	836.0	774.6	731.9	722.9	724.5	777.8	784.2	789.0	781.8	740.5	680.7	613.1	573.0	523.2	490.4	447.2	406.9	371.1	342.4	359.7	318.3	201.5	150.7	127.3	132.7	193.1	712.2	3660	9999.9	9999.9	254.7	13.45	8.489	5.784	4.610	3.685	2.991	2.779	2.505	2.308	2.510	2.478	2.613	3.064	3.028	3.055	2.991	3.695	3.676	3.598	3.466	3.256	3.818	3.506	3.613	3.643	3.685	3.443	3.643	3.806	3.973	3.980	4.016	4.012	3.940	4.088	4.004	3.833	4.117	3.998	4.045	4.076	3.849
390.0	548.3	724.2	846.5	860.1	815.2	773.3	729.9	725.2	717.8	751.1	748.8	756.0	742.2	706.6	651.4	601.1	563.0	525.7	495.1	460.4	423.6	389.0	354.5	333.7	336.7	285.9	194.6	148.0	123.9	115.7	214.6	864.0	3555	9999.9	9999.9	1108	21.16	8.240	6.009	4.431	3.486	3.224	2.708	2.539	2.435	2.586	2.551	2.950	3.015	2.971	2.912	3.595	3.552	3.530	3.492	3.363	3.602	3.434	3.529	3.638	3.640	3.573	3.545	3.706	3.668	3.792	3.592	3.765	3.859	3.952	3.973	3.901	3.980	3.940	3.819	3.831	3.914
395.0	530.2	711.6	801.4	831.4	808.1	782.3	723.1	716.4	694.1	739.1	714.5	720.0	710.4	672.3	625.6	584.3	548.0	521.1	495.8	462.3	434.1	407.8	374.3	339.0	316.0	322.5	274.7	188.2	144.3	118.8	118.9	244.0	828.9	2402	9291	9999.9	1941	25.19	8.433	6.036	4.403	3.890	2.985	2.866	2.808	2.816	2.689	3.097	2.972	2.887	2.975	3.599	3.573	3.581	3.211	3.538	3.638	3.589	3.524	3.544	3.689	3.584	3.407	3.429	3.394	3.584	3.546	3.704	3.767	3.655	3.729	3.729	3.738	3.990	3.573	3.724	3.983
400.0	496.1	650.4	789.6	798.8	804.1	763.2	733.3	713.0	694.6	713.6	700.1	694.3	684.4	651.0	606.6	570.1	536.2	514.4	489.8	469.3	439.0	413.0	384.8	348.8	316.7	306.5	316.3	240.2	169.6	134.4	110.2	117.0	229.2	568.8	2508	9999.9	9999.9	1515	19.86	7.707	5.114	4.549	3.546	3.196	2.826	2.800	2.780	3.205	2.837	2.893	2.830	3.354	3.545	3.522	3.377	3.602	3.731	3.453	3.666	3.509	3.716	3.393	3.492	3.442	3.675	3.538	3.318	3.592	3.362	3.346	3.711	3.872	3.477	3.819	3.463	3.710	3.720
405.0	479.9	669.8	761.0	775.6	785.3	770.0	737.6	709.5	687.6	689.1	684.6	679.4	657.6	629.4	589.6	552.4	521.8	503.4	485.1	464.6	435.8	414.1	390.1	359.8	328.3	300.9	305.8	289.1	203.8	152.3	120.6	97.37	102.4	164.7	591.8	2964	9999.9	9999.9	256.3	13.18	6.488	5.356	4.050	3.516	3.026	2.850	2.856	3.322	2.772	2.859	2.800	3.367	3.542	3.543	3.445	3.427	3.629	3.823	3.358	3.577	3.795	3.321	3.320	3.555	3.400	3.460	3.312	3.486	3.344	3.286	3.429	3.644	3.706	3.723	3.510	3.680	3.707
410.0	469.7	616.8	732.5	762.5	769.8	745.4	729.8	710.1	690.7	683.9	671.3	659.5	638.8	606.7	568.1	530.5	505.4	486.6	468.6	451.5	429.2	412.3	389.0	368.0	337.3	306.5	288.5	290.0	260.6	188.2	139.1	106.1	86.38	83.16	166.7	688.9	3005	9396	9999.9	3199	19.70	7.299	5.204	4.102	3.552	3.062	2.764	3.254	2.980	2.826	2.801	3.518	3.376	3.388	3.434	3.389	3.654	3.751	3.558	3.615	3.593	3.486	3.405	3.504	3.373	3.347	3.406	3.384	3.304	3.130	3.264	3.530	3.639	3.541	3.498	3.405	3.536
415.0	438.5	582.4	691.0	741.7	749.2	734.2	729.3	712.4	681.6	673.4	650.3	636.8	609.3	581.1	540.4	505.8	481.0	463.8	448.3	430.4	419.5	402.4	387.1	363.9	340.5	316.6	288.0	272.7	272.0	242.4	165.7	119.0	91.89	73.22	78.21	182.6	692.6	2183	6457	9999.9	1859	24.92	6.801	5.312	3.941	3.495	3.066	3.359	2.955	3.011	3.069	3.405	3.339	3.501	3.442	3.421	3.701	3.732	3.587	3.730	3.605	3.424	3.527	3.418	3.437	3.334	3.332	3.158	3.177	3.267	3.161	3.415	3.347	3.412	3.324	3.268	3.226
