Sample:	'1
File name:	G2025051423µÂÈð·áÊÂ¹Ê³Ø 25±¶.FD3
Run date:	'16:39:04, 05/21/2025
Operator:	Administrator
Comment:	'

Instrument
Model:	F-2700 FL Spectrophotometer
Serial number:	23B8-004
ROM Version:	4J14000 07

Instrument parameters
Measurement type:	3-D scan
Data mode:	Fluorescence
EX  Start WL:	220.0 nm
EX  End WL:	600.0 nm
EX Sampling interval:	5.0 nm
EM  Start WL:	230.0 nm
EM  End WL:	650.0 nm
EM Sampling interval:	5.0 nm
Scan speed:	12000 nm/min
EX Slit:	5.0 nm
EM Slit:	5.0 nm
PMT Voltage:	700 V
Response:	Auto 
Corrected spectra:	Off
Contour interval:	50.000

Peak integration
Integration method:	Rectangular
Sensitivity:	1
Threshold:	1.000

Peaks
No.	ApexEX/EM(nm)	Height(Data)
1	225.0/490.0	173.7
2	230.0/500.0	159.6
3	235.0/515.0	133.5
4	240.0/265.0	382.9
5	240.0/525.0	126.1
6	245.0/270.0	425.3
7	245.0/540.0	118.6
8	250.0/275.0	631.6
9	250.0/550.0	117.7
10	255.0/565.0	135.1
11	260.0/290.0	1043
12	260.0/575.0	138.9
13	265.0/295.0	1119
14	265.0/585.0	123.6
15	270.0/300.0	1155
16	270.0/600.0	97.89
17	275.0/610.0	63.32
18	280.0/625.0	48.29
19	285.0/320.0	563.3
20	285.0/635.0	34.12
21	290.0/325.0	483.3
22	295.0/330.0	328.1
23	300.0/335.0	314.8
24	305.0/345.0	275.1
25	310.0/350.0	197.4
26	315.0/355.0	193.7
27	320.0/365.0	170.7
28	325.0/370.0	146.8
29	330.0/375.0	145.4
30	335.0/380.0	150.0
31	345.0/395.0	110.0
32	350.0/400.0	118.8
33	355.0/405.0	106.0
34	360.0/410.0	92.05
35	365.0/420.0	90.99
36	370.0/425.0	81.99
37	375.0/430.0	63.68
38	380.0/435.0	55.59
39	385.0/445.0	50.63
40	390.0/290.0	7.157
41	390.0/450.0	38.45
42	395.0/455.0	32.96
43	400.0/465.0	29.43
44	405.0/470.0	22.88
45	410.0/475.0	19.06
46	415.0/485.0	17.56
47	420.0/490.0	13.78
48	425.0/500.0	12.92
49	430.0/505.0	11.57
50	435.0/510.0	9.228
51	440.0/520.0	9.018
52	445.0/290.0	9.936
53	445.0/525.0	7.693
54	455.0/540.0	5.370
55	460.0/550.0	4.386
56	465.0/555.0	3.508
57	470.0/560.0	3.031
58	485.0/265.0	2.217
59	495.0/270.0	2.401
60	505.0/275.0	3.759
61	510.0/280.0	4.596
62	520.0/285.0	5.235
63	525.0/290.0	5.372
64	540.0/295.0	5.906
65	545.0/300.0	6.315
66	550.0/305.0	5.434
67	560.0/310.0	3.766
68	570.0/315.0	3.454
69	580.0/320.0	3.411
70	585.0/325.0	3.521

Data points
	220.0	225.0	230.0	235.0	240.0	245.0	250.0	255.0	260.0	265.0	270.0	275.0	280.0	285.0	290.0	295.0	300.0	305.0	310.0	315.0	320.0	325.0	330.0	335.0	340.0	345.0	350.0	355.0	360.0	365.0	370.0	375.0	380.0	385.0	390.0	395.0	400.0	405.0	410.0	415.0	420.0	425.0	430.0	435.0	440.0	445.0	450.0	455.0	460.0	465.0	470.0	475.0	480.0	485.0	490.0	495.0	500.0	505.0	510.0	515.0	520.0	525.0	530.0	535.0	540.0	545.0	550.0	555.0	560.0	565.0	570.0	575.0	580.0	585.0	590.0	595.0	600.0
230.0	79.46	763.3	2147	791.5	47.05	6.800	5.883	5.019	3.949	3.199	3.144	2.810	2.349	2.019	1.705	1.342	1.148	1.167	1.046	1.076	1.010	0.763	0.745	0.663	0.791	0.630	0.646	0.634	0.604	0.593	0.579	0.484	0.482	0.472	0.482	0.449	0.464	0.456	0.412	0.428	0.517	0.797	0.898	0.589	0.378	0.353	0.864	3.884	6.327	5.126	1.989	0.604	0.305	0.314	0.309	0.293	0.291	0.290	0.297	0.291	0.290	0.314	0.311	0.307	0.304	0.278	0.301	0.293	0.298	0.255	0.312	0.296	0.286	0.313	0.336	0.327	0.306
235.0	203.4	236.5	1110	2191	617.8	58.18	7.206	5.187	5.947	4.238	3.526	2.735	2.596	1.744	1.677	1.318	1.127	1.019	1.102	1.091	0.984	0.860	0.833	0.725	0.816	0.647	0.638	0.711	0.761	0.666	0.577	0.503	0.549	0.437	0.449	0.433	0.490	0.400	0.428	0.516	0.497	0.521	0.686	0.915	0.875	0.529	0.448	1.163	2.428	4.446	6.429	7.765	3.942	0.964	0.302	0.248	0.295	0.295	0.324	0.334	0.281	0.299	0.296	0.301	0.311	0.296	0.278	0.296	0.307	0.287	0.335	0.279	0.349	0.344	0.348	0.314	0.340
240.0	264.8	211.2	335.0	1611	2879	463.3	27.10	5.441	5.381	4.084	3.546	2.802	2.444	2.136	1.798	1.306	1.180	1.172	0.957	1.070	0.959	0.747	0.866	0.793	0.725	0.682	0.616	0.675	0.715	0.668	0.618	0.556	0.508	0.466	0.496	0.471	0.434	0.497	0.443	0.444	0.387	0.447	0.512	0.651	0.904	0.910	0.677	0.606	0.839	1.443	3.339	9.284	12.46	7.948	2.487	0.571	0.413	0.322	0.297	0.352	0.305	0.255	0.354	0.306	0.303	0.325	0.278	0.295	0.298	0.282	0.318	0.264	0.303	0.312	0.371	0.283	0.345
245.0	178.8	301.5	170.3	521.8	2807	2591	325.2	10.71	5.720	4.287	4.096	3.428	2.607	2.571	2.030	1.399	1.244	1.271	1.084	1.073	1.041	0.811	0.868	0.668	0.833	0.704	0.654	0.680	0.632	0.624	0.651	0.555	0.502	0.497	0.491	0.493	0.483	0.402	0.459	0.452	0.420	0.416	0.426	0.493	0.630	0.804	1.249	0.926	0.589	0.577	0.995	3.098	8.042	12.96	11.04	6.752	1.816	0.375	0.361	0.329	0.320	0.353	0.344	0.339	0.349	0.351	0.322	0.299	0.283	0.270	0.326	0.283	0.300	0.281	0.306	0.277	0.287
250.0	76.56	191.3	293.2	233.0	873.4	2333	3903	942.9	66.58	5.950	5.137	3.635	2.928	2.526	2.282	1.542	1.437	1.378	1.263	1.111	1.038	0.832	0.918	0.774	0.866	0.733	0.708	0.691	0.676	0.605	0.703	0.578	0.523	0.564	0.455	0.425	0.451	0.463	0.507	0.468	0.416	0.389	0.499	0.392	0.447	0.509	0.746	1.001	1.096	0.997	0.767	1.096	2.129	4.175	6.512	10.78	12.45	10.53	6.035	2.058	0.438	0.342	0.365	0.323	0.343	0.352	0.277	0.296	0.291	0.290	0.321	0.281	0.300	0.300	0.303	0.325	0.330
255.0	43.07	73.21	202.9	356.7	304.4	587.6	3122	3958	1534	52.06	6.306	5.256	4.464	2.996	2.407	1.517	1.792	1.331	1.360	1.145	1.081	0.831	0.887	0.876	1.102	0.746	0.839	0.605	0.775	0.531	0.773	0.546	0.533	0.578	0.442	0.403	0.420	0.447	0.435	0.443	0.472	0.492	0.533	0.395	0.453	0.395	0.481	0.545	0.631	0.997	1.426	1.606	1.051	1.309	1.742	2.800	4.774	10.21	18.43	19.19	9.614	2.551	0.413	0.337	0.354	0.322	0.336	0.329	0.296	0.345	0.332	0.303	0.401	0.306	0.291	0.307	0.378
260.0	43.47	43.47	81.49	309.9	334.7	193.3	937.4	3268	5434	263.8	24.54	7.362	4.451	3.190	2.760	1.601	1.793	1.247	1.488	1.137	1.492	0.987	0.894	0.935	1.089	0.792	0.693	0.636	0.760	0.662	0.621	0.563	0.605	0.637	0.514	0.428	0.386	0.458	0.465	0.467	0.451	0.492	0.481	0.420	0.423	0.439	0.382	0.355	0.375	0.498	0.961	2.077	1.856	1.147	0.760	0.983	1.401	3.016	8.145	18.69	24.86	21.51	7.324	1.062	0.445	0.338	0.320	0.346	0.308	0.359	0.282	0.322	0.352	0.328	0.338	0.278	0.360
265.0	65.31	49.51	45.60	146.8	382.9	258.0	252.4	1110	5601	4532	207.2	12.27	6.053	3.896	3.450	1.907	1.917	1.391	1.564	1.202	1.671	0.771	1.022	0.902	1.056	0.917	0.784	0.695	0.715	0.690	0.707	0.555	0.698	0.582	0.595	0.464	0.402	0.465	0.495	0.416	0.466	0.463	0.456	0.485	0.500	0.500	0.477	0.327	0.431	0.343	0.501	1.055	1.746	2.217	1.522	0.851	0.668	1.052	2.153	5.685	13.52	27.61	29.15	15.15	7.672	0.730	0.313	0.326	0.337	0.330	0.313	0.318	0.334	0.353	0.331	0.336	0.320
270.0	652.4	610.0	356.2	153.7	221.7	425.3	311.0	340.3	1846	4610	5995	784.6	42.44	5.546	4.338	2.548	2.151	1.722	1.834	1.512	1.430	1.006	1.028	1.000	1.114	0.834	0.804	0.803	0.771	0.738	0.730	0.686	0.992	1.142	1.361	1.191	0.934	0.835	0.844	0.839	0.821	1.046	1.116	1.315	1.576	1.635	1.557	1.567	1.208	0.792	0.616	0.680	0.862	1.426	1.911	2.401	1.902	1.222	1.013	1.864	3.802	8.297	14.72	19.98	36.99	28.68	12.27	3.860	0.715	0.413	0.395	0.345	0.366	0.349	0.349	0.349	0.345
275.0	2180	1822	1189	416.9	173.8	268.0	631.6	412.0	662.1	1391	4812	7875	1032	25.49	6.553	3.453	2.648	2.251	2.092	1.953	1.655	1.117	1.031	0.930	1.174	0.862	0.962	0.938	0.911	0.751	0.844	0.923	1.765	2.453	3.620	3.293	2.530	1.990	1.758	1.967	2.138	2.675	2.777	3.709	4.289	5.006	4.754	4.835	3.622	2.113	1.267	1.046	0.827	0.947	1.020	1.634	2.801	3.759	2.778	1.846	2.142	2.956	4.648	5.899	12.44	21.33	31.24	32.50	20.20	4.269	0.534	0.412	0.393	0.537	0.451	0.416	0.437
280.0	3320	3178	1944	647.9	212.0	214.0	536.9	829.5	588.5	673.0	1681	6678	7791	142.3	15.02	4.293	3.825	2.703	2.469	2.135	1.830	1.365	1.098	1.068	1.328	0.995	0.961	0.992	1.005	0.694	0.895	1.025	2.328	3.904	5.300	5.107	3.670	2.889	2.256	2.844	2.783	3.628	4.429	5.097	6.675	7.611	7.377	7.216	5.319	3.308	1.852	1.287	0.884	0.898	0.922	1.184	1.823	3.423	4.596	3.900	2.813	2.575	2.891	3.199	4.433	6.895	12.25	29.35	45.68	30.30	15.18	2.060	0.475	0.556	0.471	0.526	0.528
285.0	4256	4187	2547	873.9	281.9	229.5	392.8	888.2	936.6	646.4	775.1	2277	8990	4523	111.0	6.682	4.368	3.567	2.782	2.525	1.936	1.448	1.493	1.092	1.371	1.027	1.176	1.052	0.929	0.825	0.931	1.064	2.680	4.798	6.953	5.879	4.548	3.451	3.301	3.287	3.855	4.753	5.777	7.121	9.044	9.690	9.309	9.409	7.050	4.487	2.467	1.622	1.166	0.908	1.104	1.194	1.564	2.301	3.354	5.001	5.235	4.030	3.102	2.920	2.910	3.694	4.415	8.458	19.18	35.47	51.64	26.20	7.728	1.046	0.726	0.615	0.589
290.0	4499	4355	2710	953.3	316.6	253.9	357.3	608.5	1043	1006	652.3	736.0	2739	5043	6667	401.5	18.48	4.392	3.729	2.817	2.432	1.628	1.619	1.464	1.709	1.062	1.183	0.938	1.009	0.831	0.890	1.176	2.764	5.332	7.157	6.375	4.807	3.859	3.420	3.464	4.022	4.987	6.024	7.582	9.051	9.936	9.774	9.630	7.680	4.400	2.668	1.974	1.276	1.174	1.190	1.341	1.601	1.834	2.404	3.019	4.323	5.372	5.283	4.504	3.193	3.074	2.767	3.134	5.047	9.467	20.23	25.12	28.76	32.00	14.23	5.568	1.201
295.0	4081	3935	2457	885.1	319.8	264.8	332.4	472.1	703.1	1119	960.9	426.6	709.7	1268	4996	5176	549.7	11.87	5.727	3.727	3.215	1.873	1.631	1.638	1.845	1.288	1.322	1.147	1.154	0.930	0.969	1.239	2.771	5.124	6.820	6.145	4.930	3.445	3.179	3.555	3.768	4.730	5.807	6.982	8.384	9.520	9.030	9.283	7.034	4.142	2.493	2.032	1.324	1.206	1.138	1.308	1.505	1.621	1.926	2.357	2.876	3.490	4.235	5.512	5.906	4.208	2.706	1.856	1.897	2.794	5.078	6.235	7.717	15.98	25.15	34.42	25.42
300.0	3548	3408	2093	786.8	295.4	254.4	313.1	408.8	549.6	791.7	1155	523.4	284.4	358.8	1408	4405	4722	80.63	8.028	4.628	4.157	2.274	1.958	1.755	1.872	1.374	1.368	1.287	0.984	0.921	0.962	1.290	2.622	4.436	6.147	5.357	4.292	3.075	3.072	3.158	3.312	4.157	5.071	6.223	7.326	8.328	7.608	7.819	6.243	3.774	2.379	1.890	1.360	1.285	1.134	1.257	1.535	1.600	1.794	2.154	2.343	2.774	3.065	3.750	5.058	6.315	4.556	2.139	1.384	1.347	1.800	2.079	2.288	4.353	8.121	18.99	37.85
305.0	2922	2815	1747	672.0	285.5	236.9	285.0	368.8	474.1	571.7	882.9	843.8	224.7	169.0	373.7	1386	5436	3514	60.42	6.435	5.573	2.613	2.241	2.042	2.398	1.500	1.474	1.182	1.206	0.957	1.003	1.233	2.305	4.088	4.856	4.798	3.748	3.040	2.807	3.010	2.951	3.735	4.484	5.360	5.845	6.855	6.683	6.409	5.147	3.109	2.081	1.601	1.246	1.286	1.093	1.160	1.420	1.508	1.698	1.867	2.162	2.428	2.521	2.690	3.053	4.682	5.434	4.379	2.259	1.311	1.175	1.176	1.189	1.553	2.414	5.181	13.03
310.0	2107	2019	1294	518.2	239.3	211.9	252.5	314.8	389.1	448.1	525.0	689.8	574.4	213.2	150.1	350.2	1655	4243	4499	295.2	17.76	3.275	3.129	2.262	2.811	1.679	1.565	1.282	1.270	1.014	1.117	1.181	1.960	3.025	3.832	3.676	3.049	2.503	2.226	2.420	2.402	2.950	3.268	3.997	4.458	5.136	5.029	4.758	3.761	2.509	1.673	1.521	1.191	1.115	1.016	1.105	1.332	1.336	1.447	1.593	1.826	1.960	2.201	2.336	2.325	2.734	3.124	3.467	3.766	3.316	2.187	1.275	0.963	1.077	1.101	1.739	3.491
315.0	1418	1364	907.1	389.0	200.9	187.7	213.5	264.7	314.7	359.9	375.8	378.6	518.7	523.8	137.7	119.0	394.7	1038	3811	4554	456.1	7.769	4.126	2.880	3.393	1.861	1.784	1.306	1.353	1.063	1.266	1.101	1.713	2.318	3.011	2.954	2.416	2.039	1.898	1.922	1.857	2.215	2.555	2.777	3.128	3.465	3.398	3.401	2.914	1.960	1.346	1.271	1.179	0.980	0.948	1.034	1.229	1.231	1.357	1.415	1.655	1.729	1.875	1.873	1.980	2.048	2.108	1.992	2.054	2.656	3.454	3.155	1.604	1.069	0.888	0.951	1.356
320.0	1101	1019	663.5	310.4	179.1	169.6	194.7	230.7	276.2	313.6	316.1	286.4	314.6	563.3	312.1	80.07	118.4	254.2	1077	4978	4216	59.83	6.461	3.164	4.164	1.969	1.849	1.833	1.560	1.159	1.346	1.010	1.408	2.003	2.298	2.381	2.206	1.737	1.797	1.572	1.682	1.739	2.149	2.255	2.525	2.760	2.601	2.641	2.212	1.474	1.118	1.137	1.037	0.964	0.884	0.968	1.234	1.179	1.220	1.270	1.361	1.493	1.698	1.686	1.753	1.826	1.646	1.486	1.624	1.644	2.264	3.146	3.411	2.418	1.137	0.773	0.886
325.0	835.9	784.9	522.7	274.0	163.3	160.2	180.8	208.0	246.8	287.1	289.1	252.2	231.0	354.8	483.3	117.2	61.49	82.28	263.4	1639	7643	2460	48.58	4.601	5.154	2.625	2.043	1.902	1.512	1.126	1.514	1.072	1.277	1.761	2.027	2.051	1.882	1.587	1.418	1.495	1.471	1.548	1.782	1.737	2.168	2.253	2.038	2.038	1.777	1.261	1.026	0.988	0.850	0.897	0.913	0.950	1.059	1.098	1.169	1.182	1.234	1.361	1.652	1.490	1.589	1.637	1.436	1.400	1.365	1.395	1.376	1.860	2.727	3.521	2.334	1.319	0.855
330.0	652.1	591.0	409.7	228.4	156.9	148.0	166.4	192.2	220.1	254.6	259.2	239.4	205.7	212.7	316.7	328.1	133.9	48.08	79.16	387.8	2460	3023	4127	233.0	16.41	3.776	2.637	2.114	1.950	1.312	1.427	1.070	1.354	1.515	1.763	1.646	1.599	1.388	1.375	1.314	1.150	1.248	1.491	1.472	1.619	1.804	1.661	1.674	1.452	1.068	0.907	0.975	0.885	0.862	0.903	0.867	1.014	1.127	1.094	1.064	1.226	1.297	1.376	1.431	1.409	1.480	1.416	1.313	1.341	1.312	1.235	1.345	1.537	1.882	2.232	2.389	2.300
335.0	480.7	457.7	327.9	201.3	145.1	141.7	160.1	175.6	199.6	227.9	235.5	226.9	196.4	170.2	168.1	231.3	314.8	85.15	40.54	104.0	563.0	738.7	3479	3602	408.4	10.59	3.701	2.779	2.565	1.453	1.722	1.063	1.317	1.271	1.494	1.440	1.429	1.296	1.224	1.192	1.045	1.076	1.258	1.278	1.323	1.527	1.480	1.288	1.108	0.968	0.864	0.864	0.944	0.694	0.814	0.866	0.963	0.959	0.986	1.113	1.284	1.233	1.324	1.345	1.380	1.363	1.425	1.176	1.215	1.196	1.250	1.181	1.234	1.110	1.257	1.359	2.124
340.0	415.9	373.4	285.1	180.6	141.4	141.3	149.9	168.4	191.5	208.5	219.7	215.6	186.7	162.2	133.9	130.9	274.4	227.4	51.73	41.83	140.7	176.2	972.8	3705	7538	54.39	6.140	3.240	2.814	1.732	1.732	1.260	1.497	1.188	1.402	1.386	1.362	1.230	1.157	1.150	1.034	0.955	0.949	1.119	1.224	1.314	1.187	1.102	1.030	0.870	0.776	0.811	0.860	0.873	0.788	0.869	0.931	0.836	0.939	1.080	1.105	1.237	1.293	1.269	1.266	1.256	1.264	1.149	1.191	1.220	1.139	1.003	1.083	1.106	0.901	1.044	1.224
345.0	373.3	335.6	262.0	171.1	135.0	137.4	142.4	159.2	174.6	194.6	203.5	204.6	180.1	156.3	123.2	95.52	148.8	275.1	87.26	32.78	46.76	51.20	231.4	1185	8448	2849	43.71	4.310	3.426	1.905	1.923	1.457	1.578	1.125	1.279	1.447	1.272	1.237	1.025	1.234	0.819	0.964	0.951	1.012	1.135	1.160	1.060	1.103	1.004	0.831	0.742	0.815	0.824	0.798	0.807	0.755	0.852	0.800	0.911	0.912	1.067	0.979	1.166	1.240	1.250	1.319	1.121	1.197	1.153	1.313	1.070	1.122	0.987	0.992	0.870	0.901	0.867
350.0	317.1	292.9	229.4	164.1	137.1	127.9	132.6	147.6	160.8	177.2	186.7	186.4	169.5	146.4	116.8	84.39	83.63	144.4	197.4	106.4	34.01	24.65	64.24	277.6	2513	3822	3573	213.7	13.53	2.577	2.563	1.729	1.729	1.324	1.350	1.218	1.347	1.147	1.054	1.144	0.824	0.929	0.892	1.011	1.033	1.069	0.980	0.950	0.833	0.834	0.744	0.803	0.778	0.802	0.777	0.789	0.789	0.852	0.892	0.951	1.022	1.008	1.028	1.110	1.165	1.120	1.065	1.132	1.085	1.040	1.055	1.043	0.966	0.890	0.790	0.817	0.852
355.0	286.0	258.1	190.0	158.3	125.6	121.0	124.9	138.8	143.9	160.6	168.5	163.7	154.3	137.9	109.6	81.51	65.83	71.41	109.7	193.7	71.45	23.30	27.98	74.15	571.2	920.8	2921	3271	363.7	8.910	3.172	2.020	1.978	1.497	1.355	1.224	1.167	0.964	0.907	1.028	0.778	0.949	0.948	0.828	0.926	1.081	0.920	0.838	0.802	0.720	0.788	0.777	0.779	0.752	0.726	0.695	0.723	0.987	0.875	0.891	1.005	1.000	1.027	1.006	0.981	1.000	1.114	1.077	1.005	1.053	1.133	0.984	0.956	0.876	0.865	0.829	0.800
360.0	259.5	225.8	189.2	152.5	125.1	118.5	119.1	126.8	136.0	145.0	156.3	155.6	144.0	130.7	105.2	76.79	63.31	55.26	60.92	142.6	170.4	50.21	23.72	30.70	140.4	216.9	793.2	3176	3236	51.26	5.835	2.379	2.339	1.430	1.361	1.310	1.147	0.962	0.976	0.990	0.868	0.834	0.936	0.880	0.876	0.880	0.919	0.904	0.849	0.704	0.653	0.710	0.755	0.716	0.690	0.652	0.810	0.864	0.813	0.915	0.818	1.027	0.902	1.061	1.006	1.061	1.017	1.000	0.951	1.026	0.995	0.966	0.998	0.878	0.861	0.774	0.808
365.0	251.9	224.1	181.5	154.1	131.6	117.8	117.3	121.1	132.9	137.2	146.5	151.3	134.9	122.2	100.5	75.83	63.63	53.99	49.29	76.91	170.7	124.8	32.90	22.43	45.85	60.53	188.3	982.6	4443	2490	45.68	3.583	2.768	1.784	1.417	1.353	1.190	0.972	0.995	0.929	0.866	0.768	0.918	0.841	0.881	0.870	0.931	0.806	0.808	0.732	0.684	0.765	0.863	0.702	0.671	0.655	0.736	0.850	0.780	0.883	0.876	0.835	0.798	0.915	0.951	0.983	0.969	0.946	1.026	1.071	1.092	0.905	0.961	0.827	0.792	0.710	0.821
370.0	225.5	209.0	173.8	153.3	131.2	120.8	113.7	111.0	119.1	125.4	134.3	137.3	127.8	113.6	96.02	75.96	63.32	53.98	47.95	51.33	87.80	146.8	99.11	34.98	27.57	27.89	54.33	231.7	1331	2459	3557	199.5	14.92	2.187	1.872	1.530	1.277	1.090	1.117	0.942	0.825	0.797	0.864	0.803	0.854	0.858	0.793	0.723	0.832	0.681	0.653	0.814	0.803	0.652	0.703	0.712	0.789	0.794	0.823	0.776	0.777	0.876	0.763	0.903	0.925	0.915	0.887	0.903	0.971	0.921	0.979	0.846	0.955	0.834	0.710	0.761	0.740
375.0	205.7	189.4	159.4	142.2	128.5	117.6	113.0	105.2	107.3	119.6	122.8	128.6	119.6	104.4	91.28	73.32	62.40	56.02	50.78	47.72	52.49	78.10	145.4	99.46	33.22	23.28	28.10	64.45	306.9	582.3	2533	2949	342.4	11.65	2.364	1.740	1.445	1.304	1.207	1.056	0.976	0.781	0.891	0.819	0.926	0.764	0.666	0.790	0.808	0.674	0.733	0.773	0.782	0.698	0.713	0.766	0.740	0.799	0.720	0.793	0.649	0.867	0.800	0.859	0.804	0.834	0.809	0.821	0.845	0.903	0.832	0.784	0.886	0.744	0.858	0.810	0.738
380.0	212.4	181.9	150.9	138.5	128.4	118.2	108.2	101.0	97.73	109.0	115.6	118.3	111.8	99.40	87.31	71.49	63.75	56.40	51.55	47.79	45.69	52.22	97.77	150.0	58.16	26.97	23.91	28.41	81.50	139.9	667.4	2540	3950	247.5	5.255	2.145	1.492	1.424	1.211	1.202	1.089	0.957	0.856	0.830	0.931	0.767	0.800	0.746	0.718	0.590	0.630	0.754	0.792	0.733	0.668	0.708	0.773	0.725	0.732	0.794	0.734	0.794	0.820	0.876	0.847	0.788	0.889	0.894	0.804	0.816	0.710	0.849	0.743	0.784	0.784	0.779	0.805
385.0	194.9	181.4	165.3	140.4	134.8	120.4	102.4	97.95	98.05	104.3	113.0	109.2	104.6	95.57	84.09	70.15	63.81	55.27	53.70	48.59	45.41	45.60	60.92	124.8	119.9	44.10	25.14	23.50	32.22	42.08	160.2	734.5	3494	2155	38.60	3.132	1.934	1.613	1.235	1.215	0.992	0.839	0.916	0.727	0.779	0.851	0.740	0.828	0.751	0.648	0.627	0.715	0.704	0.706	0.649	0.619	0.779	0.648	0.681	0.685	0.723	0.697	0.722	0.726	0.768	0.775	0.841	0.812	0.857	0.712	0.716	0.802	0.781	0.758	0.819	0.837	0.786
390.0	168.5	165.9	156.7	138.2	129.8	119.2	98.66	94.26	95.18	98.08	102.9	104.9	97.74	90.89	79.27	68.10	61.78	57.10	54.19	50.64	48.54	46.65	50.09	70.37	116.1	103.3	43.36	26.99	24.93	23.49	47.67	173.4	947.3	1800	2115	612.8	11.95	1.997	1.505	1.277	1.016	0.843	0.902	0.757	0.778	0.870	0.708	0.767	0.713	0.620	0.613	0.775	0.825	0.738	0.701	0.577	0.739	0.657	0.672	0.638	0.748	0.706	0.736	0.676	0.762	0.749	0.789	0.752	0.850	0.786	0.855	0.816	0.812	0.802	0.694	0.842	0.696
395.0	158.0	165.6	150.4	132.2	118.7	117.9	95.93	90.83	87.44	92.60	95.56	98.67	91.03	82.42	75.05	65.41	59.75	56.24	53.78	51.54	51.08	49.18	49.18	52.38	69.10	110.0	98.22	41.66	26.88	22.46	24.57	48.71	218.9	417.9	1309	2556	280.4	14.80	1.852	1.681	1.131	0.970	1.077	0.753	0.920	0.832	0.790	0.702	0.729	0.588	0.681	0.735	0.810	0.742	0.632	0.708	0.693	0.600	0.652	0.721	0.706	0.733	0.689	0.682	0.694	0.761	0.856	0.723	0.837	0.752	0.789	0.798	0.755	0.788	0.701	0.832	0.693
400.0	161.4	158.6	131.8	132.3	119.8	112.7	98.04	85.61	86.27	84.93	90.62	94.09	88.28	79.20	73.44	63.37	58.48	55.04	52.92	52.05	50.79	49.17	49.19	49.16	52.25	73.53	118.8	59.92	32.98	24.34	20.87	22.16	57.19	99.57	335.6	1607	2253	247.2	8.063	1.951	1.203	1.109	1.073	0.823	0.920	0.765	0.754	0.701	0.694	0.663	0.610	0.772	0.753	0.691	0.687	0.681	0.772	0.634	0.615	0.638	0.749	0.750	0.665	0.668	0.634	0.693	0.675	0.692	0.727	0.751	0.776	0.757	0.753	0.766	0.704	0.791	0.693
405.0	165.9	149.2	137.4	131.5	118.1	115.5	97.60	90.03	85.99	86.86	85.11	88.76	83.45	76.02	68.67	60.72	56.72	53.42	51.58	50.26	51.08	49.81	50.32	49.05	49.60	53.65	91.38	106.0	51.29	27.45	21.34	18.01	22.58	28.96	81.22	423.6	1852	2062	190.5	3.683	1.321	1.186	1.102	0.793	0.895	0.765	0.731	0.648	0.787	0.726	0.611	0.689	0.759	0.661	0.621	0.715	0.730	0.670	0.754	0.665	0.670	0.746	0.701	0.640	0.811	0.695	0.682	0.655	0.653	0.611	0.710	0.736	0.707	0.753	0.675	0.652	0.733
410.0	147.3	137.2	138.6	126.8	116.7	109.8	101.3	94.03	89.57	85.86	84.30	81.26	77.83	71.28	63.38	56.92	53.19	51.60	50.12	49.03	49.04	49.67	50.21	49.87	49.79	49.13	58.48	88.05	92.05	44.97	24.88	19.01	16.63	14.78	24.83	100.0	488.2	1410	1625	684.4	12.02	1.446	1.299	0.955	0.923	0.825	0.673	0.680	0.764	0.646	0.615	0.797	0.741	0.700	0.644	0.713	0.758	0.693	0.765	0.586	0.722	0.710	0.673	0.686	0.792	0.728	0.681	0.678	0.722	0.651	0.694	0.696	0.654	0.659	0.637	0.730	0.747
