Sample:	'1
File name:	t2025062309 ¹¢¼Ò´åÄÏ.FD3
Run date:	'15:08:34, 06/24/2025
Operator:	Administrator
Comment:	'

Instrument
Model:	F-2700 FL Spectrophotometer
Serial number:	23B8-004
ROM Version:	4J14000 07

Instrument parameters
Measurement type:	3-D scan
Data mode:	Fluorescence
EX  Start WL:	220.0 nm
EX  End WL:	600.0 nm
EX Sampling interval:	5.0 nm
EM  Start WL:	230.0 nm
EM  End WL:	650.0 nm
EM Sampling interval:	5.0 nm
Scan speed:	12000 nm/min
EX Slit:	5.0 nm
EM Slit:	5.0 nm
PMT Voltage:	700 V
Response:	Auto 
Corrected spectra:	Off
Contour interval:	50.000

Peak integration
Integration method:	Rectangular
Sensitivity:	1
Threshold:	1.000

Peaks
No.	ApexEX/EM(nm)	Height(Data)
1	225.0/585.0	44.30
2	230.0/500.0	305.4
3	230.0/615.0	73.60
4	230.0/645.0	91.10
5	235.0/260.0	287.0
6	235.0/340.0	3755
7	235.0/510.0	264.1
8	240.0/265.0	381.1
9	240.0/525.0	241.9
10	245.0/270.0	436.5
11	245.0/535.0	204.6
12	250.0/275.0	570.0
13	250.0/550.0	168.1
14	255.0/285.0	556.3
15	255.0/565.0	135.9
16	260.0/290.0	502.2
17	260.0/575.0	113.8
18	265.0/585.0	100.1
19	275.0/320.0	3315
20	275.0/615.0	201.8
21	280.0/625.0	180.9
22	325.0/370.0	393.3
23	330.0/375.0	370.2
24	335.0/380.0	346.2
25	345.0/395.0	282.6
26	350.0/400.0	284.2
27	355.0/410.0	261.3
28	360.0/415.0	243.9
29	365.0/420.0	235.7
30	425.0/500.0	38.27
31	475.0/340.0	12.25
32	495.0/270.0	2.241
33	505.0/275.0	3.614
34	510.0/280.0	3.264
35	515.0/285.0	3.532
36	530.0/290.0	3.240
37	565.0/320.0	15.60
38	570.0/315.0	15.26
39	585.0/325.0	14.83

Data points
	220.0	225.0	230.0	235.0	240.0	245.0	250.0	255.0	260.0	265.0	270.0	275.0	280.0	285.0	290.0	295.0	300.0	305.0	310.0	315.0	320.0	325.0	330.0	335.0	340.0	345.0	350.0	355.0	360.0	365.0	370.0	375.0	380.0	385.0	390.0	395.0	400.0	405.0	410.0	415.0	420.0	425.0	430.0	435.0	440.0	445.0	450.0	455.0	460.0	465.0	470.0	475.0	480.0	485.0	490.0	495.0	500.0	505.0	510.0	515.0	520.0	525.0	530.0	535.0	540.0	545.0	550.0	555.0	560.0	565.0	570.0	575.0	580.0	585.0	590.0	595.0	600.0
230.0	57.07	803.3	1280	310.9	14.30	6.662	5.411	4.856	3.873	3.831	3.402	3.315	2.702	2.263	2.039	1.755	1.495	1.322	1.113	0.984	0.914	0.808	0.732	0.742	0.668	0.629	0.644	0.566	0.639	0.550	0.510	0.479	0.468	0.463	0.442	0.410	0.412	0.427	0.412	0.361	0.400	0.400	0.338	0.350	0.338	0.343	1.104	3.358	4.512	2.661	0.923	0.351	0.271	0.264	0.255	0.245	0.287	0.268	0.272	0.278	0.283	0.261	0.266	0.274	0.271	0.304	0.274	0.305	0.299	0.294	0.284	0.299	0.282	0.285	0.290	0.347	0.278
235.0	73.87	251.1	1053	1469	384.7	18.89	6.031	4.453	3.857	4.148	3.516	3.551	2.852	2.353	2.419	1.670	1.648	1.099	0.993	0.955	0.836	0.899	0.930	0.802	0.617	0.654	0.590	0.561	0.568	0.588	0.591	0.440	0.547	0.432	0.453	0.456	0.454	0.450	0.434	0.406	0.366	0.379	0.436	0.491	0.426	0.343	0.507	1.128	2.266	3.885	5.244	4.643	1.893	0.682	0.268	0.277	0.295	0.263	0.288	0.258	0.257	0.256	0.253	0.331	0.247	0.282	0.270	0.252	0.347	0.277	0.258	0.249	0.249	0.304	0.265	0.283	0.272
240.0	125.6	114.3	379.9	1639	1593	275.6	10.92	4.998	4.419	3.977	3.731	3.567	2.644	2.429	2.432	2.035	1.646	1.324	1.029	0.998	0.865	0.789	0.892	0.639	0.743	0.631	0.654	0.584	0.602	0.539	0.511	0.452	0.546	0.475	0.453	0.404	0.453	0.404	0.383	0.382	0.469	0.413	0.415	0.394	0.496	0.536	0.456	0.516	0.746	1.417	3.606	7.974	8.466	4.865	1.498	0.356	0.315	0.311	0.266	0.238	0.229	0.257	0.279	0.281	0.290	0.287	0.231	0.247	0.275	0.257	0.254	0.268	0.281	0.320	0.270	0.344	0.304
245.0	118.6	155.8	133.5	659.0	2162	1534	191.4	7.008	5.602	4.798	4.348	3.936	3.229	2.397	2.332	1.955	1.918	1.387	1.150	1.147	0.868	0.875	0.814	0.686	0.704	0.596	0.681	0.576	0.675	0.508	0.546	0.472	0.537	0.421	0.492	0.538	0.382	0.481	0.408	0.461	0.438	0.362	0.373	0.311	0.440	0.537	0.842	0.587	0.463	0.549	1.111	3.195	6.989	11.07	8.899	4.163	1.065	0.301	0.271	0.281	0.253	0.262	0.258	0.294	0.324	0.287	0.282	0.254	0.299	0.243	0.273	0.292	0.344	0.278	0.255	0.313	0.265
250.0	54.52	145.8	193.2	219.0	797.3	2004	2120	225.0	27.20	5.377	5.093	4.239	3.727	2.810	2.289	2.112	1.922	1.432	1.316	1.061	0.933	0.906	0.896	0.761	0.678	0.761	0.674	0.580	0.679	0.610	0.558	0.519	0.538	0.414	0.496	0.507	0.387	0.439	0.405	0.408	0.411	0.376	0.352	0.340	0.393	0.439	0.589	0.706	0.850	0.694	0.592	1.011	1.980	4.077	6.905	9.961	11.64	9.264	4.664	1.315	0.317	0.275	0.291	0.289	0.333	0.286	0.372	0.249	0.260	0.279	0.307	0.317	0.293	0.320	0.268	0.300	0.299
255.0	37.47	57.88	176.5	271.3	249.8	575.8	2193	2707	286.5	22.08	6.849	5.093	4.107	3.564	2.929	2.534	1.778	1.373	1.245	1.256	1.006	1.116	0.886	0.916	0.640	0.782	0.688	0.624	0.741	0.578	0.634	0.508	0.539	0.432	0.534	0.513	0.375	0.423	0.362	0.414	0.487	0.413	0.333	0.296	0.424	0.326	0.451	0.407	0.502	0.938	1.144	1.071	0.935	1.216	1.884	2.751	5.648	12.15	19.22	16.29	6.260	1.067	0.302	0.319	0.331	0.314	0.321	0.289	0.292	0.240	0.298	0.329	0.339	0.278	0.237	0.294	0.344
260.0	36.31	34.90	81.99	287.0	275.2	187.5	770.1	3160	2299	222.4	13.95	6.004	4.905	3.990	3.098	2.611	2.155	1.710	1.469	1.141	1.003	1.127	0.901	0.805	0.638	0.937	0.695	0.612	0.690	0.643	0.613	0.525	0.452	0.469	0.494	0.492	0.388	0.424	0.407	0.419	0.444	0.459	0.406	0.388	0.362	0.359	0.322	0.393	0.368	0.501	0.855	1.744	1.696	1.016	0.827	0.949	1.722	3.789	9.796	19.51	22.76	15.39	4.158	0.602	0.295	0.333	0.354	0.270	0.265	0.291	0.290	0.269	0.276	0.288	0.261	0.357	0.301
265.0	31.28	28.30	38.77	162.2	381.1	216.4	242.6	1256	4050	1991	162.5	8.998	5.298	4.006	3.314	2.753	2.248	1.729	1.368	1.360	1.106	1.165	0.991	0.911	0.735	0.802	0.792	0.707	0.707	0.651	0.585	0.515	0.443	0.479	0.539	0.493	0.484	0.441	0.463	0.386	0.376	0.362	0.482	0.423	0.375	0.434	0.364	0.380	0.343	0.319	0.403	1.071	1.926	1.955	1.385	0.774	0.802	1.239	2.765	6.633	15.48	26.44	24.84	12.04	2.152	0.457	0.289	0.330	0.312	0.271	0.301	0.273	0.335	0.303	0.288	0.358	0.327
270.0	40.17	31.57	30.52	72.41	243.8	436.5	301.1	357.6	1483	3664	3604	658.0	27.11	5.942	4.482	3.153	2.473	2.057	1.579	1.432	1.188	1.091	1.025	0.953	0.737	0.796	0.759	0.665	0.649	0.640	0.634	0.677	0.565	0.565	0.535	0.498	0.503	0.453	0.455	0.418	0.423	0.404	0.431	0.381	0.443	0.408	0.357	0.334	0.343	0.348	0.333	0.595	0.853	1.397	2.091	2.241	1.897	1.201	1.140	1.949	4.042	8.536	14.74	21.55	24.46	19.03	9.712	2.302	0.453	0.330	0.349	0.318	0.382	0.311	0.331	0.364	0.329
275.0	61.52	45.82	40.94	53.41	129.6	307.0	570.0	309.3	385.4	992.1	3630	5853	842.3	20.99	5.994	4.436	3.379	2.513	1.780	1.513	1.242	1.156	1.063	1.001	0.827	0.863	0.724	0.738	0.794	0.700	0.657	0.567	0.637	0.530	0.637	0.532	0.482	0.486	0.404	0.428	0.526	0.402	0.417	0.392	0.439	0.385	0.427	0.411	0.329	0.369	0.342	0.457	0.609	0.893	1.097	1.559	2.572	3.614	2.141	1.112	1.337	2.307	3.715	5.469	8.865	19.38	33.94	29.28	14.19	2.186	0.392	0.351	0.354	0.285	0.343	0.323	0.330
280.0	72.17	68.26	57.33	60.75	108.6	201.9	449.2	551.0	212.8	272.7	1140	5329	5313	138.4	10.37	5.176	3.782	2.817	1.960	1.706	1.368	1.239	1.028	1.064	0.967	0.900	0.883	0.794	0.743	0.780	0.675	0.724	0.677	0.603	0.595	0.530	0.572	0.521	0.445	0.489	0.427	0.401	0.446	0.404	0.433	0.471	0.478	0.445	0.443	0.412	0.397	0.450	0.630	0.766	0.900	1.059	1.482	2.769	3.264	2.782	1.500	1.069	1.249	1.690	2.410	5.386	13.62	28.07	39.53	26.42	9.220	1.009	0.320	0.394	0.345	0.352	0.357
285.0	103.4	104.5	81.55	72.39	97.68	154.0	242.5	556.3	330.2	141.8	320.4	1798	6262	4075	97.49	7.764	4.587	3.394	2.240	1.997	1.506	1.378	1.060	1.060	1.034	0.778	0.901	0.888	0.870	0.670	0.661	0.615	0.700	0.568	0.753	0.715	0.581	0.530	0.516	0.440	0.551	0.500	0.464	0.432	0.534	0.557	0.486	0.494	0.469	0.491	0.394	0.507	0.581	0.690	0.725	0.957	0.955	1.478	2.044	3.532	3.263	1.889	0.970	0.921	1.085	1.695	3.698	8.031	19.08	35.39	34.39	20.82	5.270	0.612	0.354	0.352	0.346
290.0	147.1	155.6	131.4	101.4	106.9	133.5	155.6	266.9	502.2	436.1	210.7	517.7	1979	4547	4538	412.1	20.07	5.450	3.253	2.465	1.814	1.558	1.299	1.230	1.150	0.924	0.829	0.963	1.022	0.735	0.782	0.653	0.705	0.670	0.749	0.700	0.665	0.686	0.532	0.514	0.551	0.505	0.514	0.479	0.562	0.626	0.617	0.596	0.568	0.597	0.519	0.552	0.551	0.661	0.738	0.815	0.853	0.953	1.086	1.689	2.187	2.906	3.240	2.297	1.367	1.097	1.480	2.478	5.092	9.969	16.06	24.91	27.92	27.01	14.70	5.020	0.802
295.0	187.4	225.6	207.1	162.4	134.6	141.2	147.7	177.8	281.2	652.2	602.7	303.5	597.6	1215	3457	5377	566.8	24.00	5.441	3.184	2.283	2.093	1.489	1.480	1.219	1.008	0.971	0.918	0.899	0.755	0.872	0.705	0.855	0.844	0.753	0.743	0.757	0.694	0.544	0.549	0.562	0.576	0.578	0.588	0.627	0.738	0.776	0.819	0.836	0.774	0.726	0.782	0.687	0.719	0.820	0.858	0.876	0.897	0.989	1.107	1.325	1.582	2.195	3.899	4.414	2.838	1.640	1.802	2.233	3.219	4.663	6.512	8.292	16.02	32.33	35.30	22.49
300.0	286.8	393.3	386.3	290.3	234.1	227.0	272.3	316.2	336.2	735.5	1213	893.9	706.3	699.1	1259	4488	4852	88.56	17.36	5.115	2.877	2.396	1.922	1.592	1.518	1.150	1.179	0.971	0.893	1.009	0.895	0.761	0.792	0.821	0.719	0.754	0.787	0.685	0.738	0.618	0.603	0.649	0.711	0.683	0.659	0.934	1.191	1.326	1.267	1.130	0.956	1.212	1.167	1.143	1.231	1.171	1.369	1.475	1.650	1.749	2.085	2.149	2.633	3.659	5.142	6.579	5.454	3.956	3.380	3.495	3.402	3.624	4.303	5.784	11.40	24.01	40.70
305.0	474.1	683.2	715.7	545.7	462.8	469.3	487.1	812.4	1098	1518	1956	2409	1426	1200	1167	2055	5635	3900	74.13	9.938	4.317	3.212	2.317	1.994	1.646	1.449	1.252	1.163	0.950	0.984	1.037	1.007	0.897	0.744	0.939	0.887	0.927	0.875	0.895	0.910	0.797	0.808	0.898	0.925	1.182	1.507	1.832	2.173	2.219	1.760	1.679	1.830	1.810	1.783	1.915	2.094	2.438	3.014	3.503	3.993	4.548	5.219	6.153	6.767	7.825	9.836	11.36	11.21	9.680	8.274	7.156	6.802	6.465	6.832	7.646	10.13	18.63
310.0	729.8	1069	1117	872.3	726.6	733.9	939.9	1256	1613	2109	2559	3118	2872	2121	1746	1553	2613	4097	3518	297.8	17.57	4.171	3.092	2.337	2.134	1.740	1.609	1.450	1.273	1.170	0.986	1.061	0.887	0.878	1.047	1.011	1.019	1.061	0.998	1.071	0.964	1.107	1.283	1.226	1.612	2.072	2.493	3.274	3.356	2.648	2.584	2.978	2.839	2.754	2.834	3.223	3.792	4.395	5.059	5.934	6.534	7.397	8.767	9.811	10.71	12.05	13.08	14.32	14.97	14.14	12.01	10.58	9.862	9.829	9.196	8.420	9.804
315.0	916.5	1433	1590	1205	973.1	946.7	1196	1475	1785	2323	2796	3254	3289	2889	2153	1599	1742	1573	2423	4234	444.0	14.80	4.593	3.207	2.487	2.122	1.611	1.604	1.367	1.197	1.086	1.106	1.016	1.101	1.158	1.006	0.931	1.158	1.003	1.160	1.191	1.119	1.316	1.601	2.059	2.881	3.250	4.254	4.344	3.923	3.584	4.054	3.884	3.589	3.650	4.069	4.731	5.477	6.061	6.976	7.239	8.307	9.889	10.65	11.77	13.09	13.80	14.58	15.25	15.02	15.26	14.46	12.75	11.74	10.19	9.003	8.997
320.0	1120	1675	1852	1420	1093	1058	1313	1560	1864	2376	2862	3315	3310	3084	2539	1709	1591	1014	774.6	3078	3671	66.15	8.980	4.128	2.792	2.393	1.896	1.570	1.394	1.209	1.305	1.083	0.981	1.095	1.049	1.091	0.999	1.194	1.132	1.130	1.196	1.417	1.485	1.827	2.226	2.965	3.835	5.052	5.197	4.189	4.156	4.551	4.196	4.111	4.019	4.379	5.337	6.163	6.879	7.209	7.581	8.100	9.877	11.03	12.04	13.02	14.10	14.75	15.41	15.60	15.11	15.37	15.36	14.42	11.74	9.794	8.524
325.0	1198	1955	2113	1682	1265	1098	1299	1560	1768	2222	2720	3123	3125	2841	2610	1786	1486	863.4	355.6	931.5	3476	2949	55.94	6.419	3.288	2.651	2.173	1.766	1.626	1.356	1.386	1.184	1.107	1.098	1.016	0.961	1.120	1.057	1.116	1.128	1.035	1.312	1.538	1.870	2.445	3.232	4.140	5.608	5.992	5.219	5.093	5.581	4.720	4.474	4.383	4.642	5.428	6.003	6.808	7.159	7.333	7.869	9.068	10.44	11.28	12.13	13.49	14.10	14.40	14.58	14.02	13.76	14.01	14.83	12.71	10.28	8.413
330.0	1355	2336	2868	2575	1904	1326	1277	1464	1611	1985	2438	2823	2868	2596	2330	1883	1507	837.2	333.5	348.8	1058	2636	2804	247.6	16.65	3.647	2.581	2.138	1.701	1.470	1.314	1.287	1.129	1.062	1.098	0.986	1.052	1.078	1.086	1.211	1.337	1.344	1.487	2.136	2.698	3.766	4.956	6.802	7.393	7.160	7.372	8.291	7.366	6.438	5.364	4.682	5.221	5.791	6.351	6.540	6.894	7.290	7.997	9.191	10.24	10.84	11.99	12.99	13.05	13.04	13.15	12.79	12.36	12.74	11.63	11.54	9.708
335.0	1514	2662	3500	3555	2795	1699	1297	1370	1484	1805	2193	2550	2639	2430	2125	1723	1608	956.1	416.9	293.6	388.9	723.8	1838	3543	396.1	15.70	3.813	2.816	2.108	1.587	1.366	1.394	1.227	1.230	1.080	0.977	1.058	1.159	1.084	1.124	1.244	1.447	1.589	2.101	2.876	4.225	5.311	7.667	9.041	9.184	9.383	11.32	10.93	9.484	7.092	5.387	5.505	5.504	5.922	6.028	6.322	6.725	7.569	8.242	9.172	9.721	10.58	11.60	12.17	11.96	12.32	12.33	11.34	11.30	10.52	10.16	9.460
340.0	1480	2627	3645	3755	2990	1794	1260	1289	1357	1601	1956	2261	2366	2199	1928	1528	1430	1040	476.5	294.4	258.0	295.6	564.8	2551	3153	309.3	7.188	3.130	2.438	1.890	1.630	1.330	1.348	1.251	1.188	1.054	1.211	1.217	1.009	1.101	1.259	1.287	1.715	1.906	2.843	4.025	5.456	7.692	9.248	9.521	10.24	12.25	11.40	10.32	7.460	5.638	5.728	5.333	5.718	5.714	5.774	6.168	6.796	7.527	8.083	8.853	9.679	9.986	10.61	10.97	11.23	11.22	10.85	10.52	9.376	9.012	8.009
345.0	1415	2510	3558	3697	2990	1754	1190	1177	1221	1431	1715	1973	2077	1967	1721	1372	1199	976.7	584.7	316.8	239.3	211.3	240.8	768.3	2903	2601	49.94	4.874	2.609	1.954	1.780	1.543	1.318	1.031	1.243	0.931	1.148	1.115	0.901	1.101	1.251	1.194	1.494	1.864	2.665	3.601	5.270	7.129	8.989	9.168	10.47	12.13	11.34	10.32	7.480	5.078	5.368	4.975	5.243	5.319	4.933	5.796	6.032	6.815	7.238	7.656	8.660	8.696	9.569	9.661	9.664	9.717	9.718	9.208	8.360	8.144	7.431
350.0	1303	2350	3363	3691	3063	1791	1130	1089	1100	1263	1492	1691	1767	1707	1516	1237	1044	809.8	639.1	447.1	275.6	222.2	194.5	255.2	841.3	2156	2313	222.4	14.41	2.699	1.979	1.738	1.415	1.229	1.153	1.030	1.195	1.012	0.998	0.984	1.095	1.160	1.293	1.801	2.531	3.572	4.705	6.567	8.347	9.075	9.936	11.98	11.48	10.39	7.813	5.550	4.885	4.551	4.931	4.762	4.823	4.931	5.451	5.956	6.442	6.894	7.308	7.698	8.306	8.486	8.539	8.473	8.391	8.238	7.486	7.057	6.797
355.0	1136	2075	2997	3383	2899	1735	1096	1017	1025	1146	1294	1437	1496	1450	1319	1089	926.2	707.2	541.0	524.8	381.4	246.2	202.1	159.5	242.3	529.2	1444	2918	357.1	13.72	2.958	1.987	1.454	1.284	1.048	1.058	1.112	0.993	0.983	0.919	0.997	1.125	1.277	1.627	2.218	3.242	4.112	6.036	7.497	8.086	9.189	11.01	10.86	9.584	7.369	5.303	4.662	4.695	4.396	4.463	4.748	4.598	4.710	5.468	5.713	6.003	6.493	6.700	7.163	7.212	7.449	7.249	7.210	7.722	6.490	6.334	6.250
360.0	1041	1879	2669	3034	2638	1651	1049	974.5	968.5	1065	1177	1272	1315	1275	1153	977.4	831.6	648.6	492.0	461.2	456.6	293.9	210.3	149.1	122.8	161.3	393.5	2095	2681	283.8	6.101	2.682	1.845	1.325	1.236	1.054	1.028	0.929	0.991	0.830	1.008	1.013	1.246	1.554	1.907	2.900	3.611	5.292	6.677	7.390	8.069	10.12	9.542	9.171	7.067	5.065	4.524	4.403	4.380	4.364	4.285	4.550	4.554	4.783	5.148	5.011	5.809	5.648	6.230	6.410	6.551	6.456	6.304	6.475	5.694	5.823	5.609
365.0	907.3	1662	2356	2684	2396	1526	1023	933.1	926.2	1002	1089	1152	1177	1137	1045	883.8	765.3	616.7	475.6	406.1	434.9	378.0	235.4	157.2	107.8	87.69	124.6	613.8	2500	2244	45.81	3.666	2.402	1.590	1.241	1.152	1.026	1.078	1.030	0.855	1.019	1.037	1.135	1.361	1.755	2.441	3.516	4.964	5.844	6.336	7.260	9.306	8.747	8.610	6.947	4.860	4.309	4.153	4.310	4.090	4.368	4.390	4.690	4.746	4.801	4.869	5.312	5.056	5.585	5.843	5.703	6.127	5.749	6.181	5.206	5.597	5.143
370.0	787.4	1431	2052	2344	2142	1425	983.1	893.2	884.5	935.9	991.3	1031	1040	1000	917.9	803.8	706.1	585.1	471.6	399.1	375.9	393.3	330.0	195.5	127.8	93.76	80.20	173.7	720.3	1938	2076	198.7	12.54	2.272	1.544	1.242	1.073	1.090	0.996	0.867	1.024	0.964	1.064	1.327	1.587	2.241	3.076	4.024	5.125	5.511	6.214	7.970	7.771	7.401	6.076	4.504	4.054	3.908	3.882	3.739	3.929	3.980	4.249	4.186	4.497	4.665	4.660	4.582	4.910	5.066	5.158	5.254	5.135	5.207	4.924	4.920	4.704
375.0	681.3	1194	1750	1999	1858	1323	937.9	858.8	853.6	886.6	926.5	945.6	927.7	894.0	817.3	724.8	644.0	551.4	465.9	401.6	358.4	341.4	370.2	287.6	165.4	120.6	93.68	92.65	198.9	474.1	1353	2479	308.4	11.43	2.121	1.499	1.240	1.153	1.006	0.900	0.916	0.914	1.109	1.199	1.538	2.052	2.522	3.486	4.481	4.663	5.396	7.168	6.912	6.783	5.531	4.398	4.131	3.836	3.817	3.608	3.681	3.799	4.028	4.107	4.340	4.233	4.143	4.311	4.611	4.467	4.468	4.714	4.813	4.605	4.470	4.372	4.286
380.0	611.0	1031	1524	1786	1665	1220	927.0	833.4	822.5	855.3	877.4	893.2	862.0	819.6	753.6	671.7	606.5	533.1	460.0	402.4	361.5	330.5	335.3	346.2	226.0	149.9	114.1	91.64	93.35	142.0	371.0	1839	2196	229.7	4.804	1.891	1.456	1.128	1.061	0.948	0.944	0.878	1.022	1.306	1.415	1.924	2.202	3.031	3.798	3.979	4.723	6.172	5.992	6.387	5.192	4.287	4.073	3.894	3.392	3.671	3.712	3.836	3.697	4.174	4.042	4.038	4.039	4.035	4.336	4.291	4.136	4.299	4.472	4.320	3.999	3.981	4.242
385.0	574.0	975.6	1340	1615	1532	1150	879.2	819.2	816.6	819.8	834.4	846.7	820.3	760.0	702.6	635.4	576.7	516.9	449.9	407.0	363.4	328.2	312.5	329.1	296.1	185.2	137.1	106.4	86.90	77.41	114.9	543.2	2064	1775	36.87	2.976	1.892	1.236	1.148	0.887	0.858	0.957	1.028	1.097	1.489	1.875	2.136	3.199	3.310	3.616	4.103	5.409	5.360	5.450	4.781	4.077	3.936	3.680	3.293	3.661	3.547	3.541	3.608	3.897	3.822	3.979	3.615	3.819	3.985	3.983	3.859	3.773	4.231	4.193	3.919	3.952	3.845
390.0	531.3	862.7	1176	1389	1367	1060	846.7	783.4	771.9	778.2	790.8	782.0	760.6	714.2	654.8	592.4	542.3	494.7	443.7	405.8	365.4	334.7	309.9	294.8	297.5	256.5	172.9	126.5	100.0	79.38	70.26	151.6	600.8	1553	1529	155.5	9.993	1.905	1.342	1.080	0.974	1.071	1.065	1.105	1.371	1.643	1.941	2.602	2.985	3.240	3.552	4.708	4.761	4.793	4.377	3.652	3.790	3.466	3.320	3.437	3.547	3.651	3.605	3.532	3.591	3.749	3.583	3.715	3.746	3.565	3.641	3.573	3.789	3.624	3.606	3.569	3.555
395.0	462.4	765.2	1057	1212	1221	982.3	811.6	761.2	745.1	746.1	748.3	740.6	716.8	667.5	609.9	554.5	519.9	476.5	439.3	403.3	373.7	343.0	321.9	291.1	269.1	282.6	243.2	158.2	122.8	94.93	73.91	74.74	162.8	380.5	1058	1839	246.0	7.539	1.883	1.280	1.087	1.124	1.085	1.154	1.237	1.618	1.780	2.369	2.738	3.031	3.252	4.112	4.261	4.453	3.957	3.300	3.662	3.340	3.452	3.291	3.499	3.321	3.572	3.173	3.450	3.593	3.425	3.373	3.647	3.464	3.454	3.372	3.352	3.407	3.245	3.472	3.507
400.0	438.9	698.9	969.6	1131	1115	934.6	793.2	740.2	729.1	723.5	719.7	712.5	677.6	638.0	585.9	533.5	500.1	468.8	429.4	402.1	371.3	352.7	327.5	296.2	269.3	267.9	284.2	206.0	144.8	113.1	86.12	69.32	73.37	111.4	297.4	1417	1573	37.70	3.711	1.595	1.291	1.291	0.955	1.077	1.131	1.385	1.642	2.230	2.642	2.884	2.994	3.706	3.950	4.183	3.673	3.210	3.342	3.268	3.362	3.246	3.296	3.524	3.264	3.290	3.319	3.378	3.278	3.197	3.359	3.338	3.396	3.226	3.396	3.273	3.088	3.294	3.366
405.0	420.5	655.3	902.7	1038	1044	892.6	782.7	735.7	713.2	714.7	709.9	688.1	668.0	619.9	564.3	515.4	486.5	457.3	424.9	398.4	374.6	354.3	334.0	309.9	277.6	261.1	275.1	260.9	178.6	132.5	103.7	79.26	63.29	58.99	90.17	425.2	1537	1208	31.37	2.290	1.434	1.124	1.032	1.005	1.263	1.346	1.703	2.151	2.466	2.573	2.797	3.517	3.521	3.973	3.735	3.294	3.297	3.124	3.256	3.295	3.231	3.255	3.298	3.306	3.462	3.156	3.117	3.070	3.406	2.984	3.305	3.327	3.125	3.057	3.074	3.287	3.145
410.0	401.9	613.2	826.1	938.5	949.1	837.5	756.9	724.4	698.1	698.9	686.2	661.8	637.1	592.0	536.1	497.5	464.1	436.6	412.3	390.9	370.7	351.5	338.2	315.8	289.1	263.1	252.0	261.3	232.2	166.2	123.6	94.16	73.09	55.90	50.71	117.0	454.0	1121	1151	141.7	7.485	1.545	1.299	1.112	1.250	1.344	1.654	1.939	2.330	2.359	2.573	3.279	3.304	3.449	3.241	3.243	3.294	3.234	3.086	3.129	3.060	3.167	3.125	3.248	3.309	3.195	2.993	3.026	3.163	2.929	3.274	3.050	2.955	3.068	2.880	3.009	3.154
415.0	380.9	587.2	786.0	865.1	876.6	777.8	727.3	711.7	675.1	668.9	664.1	635.8	597.9	561.6	506.9	474.3	442.6	417.2	393.7	376.0	362.9	343.7	333.1	310.1	287.8	265.5	248.7	234.7	243.9	216.6	144.8	107.7	81.64	62.82	48.85	52.31	119.3	274.0	805.4	1327	212.2	5.814	1.618	1.332	1.285	1.410	1.557	1.926	2.083	2.187	2.495	3.034	3.150	3.332	3.257	3.080	3.216	3.127	3.003	3.026	2.928	3.038	3.012	2.957	3.273	3.130	2.790	3.111	2.837	2.939	2.917	2.973	2.929	3.118	2.682	3.125	3.105
