Sample:	'1
File name:	Default_20230215_142422.FD3
Run date:	'14:18:01, 02/15/2023
Operator:	dsjg
Comment:	'

Instrument
Model:	F-2700 FL Spectrophotometer
Serial number:	2198-001
ROM Version:	4J14000 07

Instrument parameters
Measurement type:	3-D scan
Data mode:	Fluorescence
EX  Start WL:	220.0 nm
EX  End WL:	600.0 nm
EX Sampling interval:	5.0 nm
EM  Start WL:	230.0 nm
EM  End WL:	650.0 nm
EM Sampling interval:	5.0 nm
Scan speed:	12000 nm/min
EX Slit:	5.0 nm
EM Slit:	5.0 nm
PMT Voltage:	700 V
Response:	Auto 
Corrected spectra:	Off
Contour interval:	50.000

Peak integration
Integration method:	Rectangular
Sensitivity:	1
Threshold:	1.000

Peaks
No.	ApexEX/EM(nm)	Height(Data)
1	225.0/495.0	94.50
2	230.0/350.0	312.5
3	230.0/370.0	304.7
4	230.0/505.0	93.54
5	230.0/585.0	8.243
6	235.0/260.0	158.5
7	235.0/375.0	318.9
8	235.0/515.0	93.49
9	240.0/265.0	177.4
10	240.0/530.0	74.98
11	245.0/270.0	159.6
12	245.0/540.0	64.41
13	250.0/275.0	189.6
14	250.0/420.0	262.7
15	250.0/550.0	52.33
16	255.0/280.0	196.4
17	255.0/560.0	46.62
18	260.0/290.0	197.6
19	260.0/570.0	33.13
20	265.0/295.0	231.5
21	265.0/585.0	30.25
22	270.0/300.0	298.0
23	270.0/375.0	306.4
24	270.0/600.0	28.01
25	275.0/305.0	327.9
26	275.0/605.0	23.22
27	280.0/310.0	287.0
28	280.0/620.0	18.48
29	285.0/315.0	283.5
30	285.0/635.0	14.31
31	290.0/325.0	287.8
32	290.0/645.0	12.40
33	295.0/330.0	237.9
34	300.0/335.0	231.7
35	305.0/345.0	217.8
36	310.0/350.0	187.6
37	315.0/355.0	181.5
38	320.0/360.0	183.4
39	325.0/370.0	183.3
40	330.0/375.0	191.8
41	335.0/380.0	197.3
42	345.0/395.0	148.9
43	350.0/400.0	148.1
44	355.0/405.0	133.5
45	365.0/420.0	112.5
46	370.0/425.0	103.4
47	380.0/440.0	78.59
48	395.0/460.0	47.31
49	400.0/465.0	41.61
50	415.0/485.0	24.44
51	425.0/500.0	16.64
52	430.0/505.0	14.82
53	435.0/510.0	11.94
54	440.0/515.0	10.45
55	445.0/525.0	9.196
56	455.0/540.0	6.193
57	460.0/545.0	5.157
58	470.0/560.0	3.327
59	540.0/295.0	1.656
60	545.0/300.0	1.852
61	555.0/305.0	1.762
62	560.0/310.0	1.753
63	570.0/315.0	1.703
64	575.0/320.0	1.721
65	580.0/325.0	1.778

Data points
	220.0	225.0	230.0	235.0	240.0	245.0	250.0	255.0	260.0	265.0	270.0	275.0	280.0	285.0	290.0	295.0	300.0	305.0	310.0	315.0	320.0	325.0	330.0	335.0	340.0	345.0	350.0	355.0	360.0	365.0	370.0	375.0	380.0	385.0	390.0	395.0	400.0	405.0	410.0	415.0	420.0	425.0	430.0	435.0	440.0	445.0	450.0	455.0	460.0	465.0	470.0	475.0	480.0	485.0	490.0	495.0	500.0	505.0	510.0	515.0	520.0	525.0	530.0	535.0	540.0	545.0	550.0	555.0	560.0	565.0	570.0	575.0	580.0	585.0	590.0	595.0	600.0
230.0	48.06	566.1	769.8	129.3	2.686	1.331	0.828	0.673	0.698	0.745	0.459	0.493	0.512	0.397	0.350	0.305	0.239	0.231	0.241	0.234	0.218	0.186	0.208	0.166	0.159	0.176	0.163	0.165	0.118	0.148	0.135	0.116	0.121	0.121	0.146	0.242	0.250	0.187	0.171	0.195	0.194	0.233	0.222	0.165	0.114	0.099	0.363	1.611	3.167	2.675	0.941	0.193	0.071	0.072	0.053	0.052	0.053	0.049	0.033	0.039	0.031	0.023	0.031	0.022	0.021	0.020	0.022	0.016	0.022	0.020	0.008	0.015	0.009	0.009	0.005	0.009	0.005
235.0	37.10	184.1	742.9	633.0	178.7	2.969	1.194	1.179	0.885	0.494	0.498	0.432	0.496	0.448	0.547	0.269	0.313	0.269	0.304	0.222	0.168	0.238	0.204	0.135	0.217	0.122	0.149	0.220	0.126	0.129	0.132	0.142	0.111	0.126	0.104	0.175	0.222	0.236	0.167	0.174	0.155	0.176	0.207	0.234	0.219	0.189	0.145	0.468	1.119	2.147	3.062	3.623	1.836	0.286	0.067	0.052	0.062	0.059	0.039	0.041	0.028	0.028	0.024	0.035	0.034	0.028	0.011	0.032	0.009	0.011	0.020	0.031	0.004	0.006	0.017	0.011	0.006
240.0	66.22	60.23	282.7	938.6	851.7	114.1	2.066	1.463	1.037	0.681	0.835	0.618	0.473	0.451	0.340	0.350	0.280	0.220	0.420	0.314	0.231	0.258	0.163	0.208	0.201	0.220	0.145	0.171	0.149	0.163	0.151	0.127	0.075	0.155	0.109	0.118	0.138	0.187	0.173	0.154	0.192	0.199	0.169	0.202	0.283	0.357	0.321	0.191	0.367	0.682	1.546	3.935	5.220	3.652	1.153	0.199	0.054	0.077	0.053	0.039	0.027	0.040	0.016	0.022	0.015	0.021	0.006	0.041	0.024	0.009	0.022	0.013	0.006	0.008	0.002	0.019	0.006
245.0	73.90	83.87	80.26	443.9	 1233	437.3	64.17	2.262	1.553	0.654	1.011	0.620	0.584	0.606	0.456	0.402	0.327	0.304	0.394	0.295	0.262	0.260	0.157	0.250	0.184	0.242	0.163	0.200	0.168	0.225	0.103	0.120	0.109	0.100	0.085	0.132	0.146	0.132	0.208	0.186	0.221	0.225	0.153	0.179	0.201	0.281	0.524	0.300	0.215	0.250	0.451	1.342	3.367	5.638	5.917	2.992	0.712	0.093	0.054	0.074	0.067	0.030	0.030	0.013	0.054	0.022	0.044	0.022	0.019	0.005	0.008	0.019	0.006	0.018	0.010	0.003	-0.007
250.0	29.39	91.40	103.0	129.3	500.7	 1012	835.6	150.8	8.408	1.294	1.170	0.885	0.837	0.646	0.487	0.388	0.336	0.318	0.276	0.226	0.215	0.260	0.265	0.235	0.198	0.329	0.177	0.164	0.149	0.155	0.117	0.131	0.085	0.108	0.077	0.100	0.105	0.101	0.156	0.194	0.219	0.212	0.154	0.193	0.157	0.170	0.263	0.357	0.449	0.424	0.360	0.440	0.884	1.850	3.346	5.034	5.893	4.781	2.511	0.659	0.087	0.043	0.039	0.044	0.052	0.020	0.038	0.017	0.027	0.017	0.027	0.028	0.009	0.003	0.026	0.001	-0.001
255.0	9.736	31.07	116.7	142.3	135.8	315.3	 1019	 1376	213.7	6.789	1.767	1.251	0.866	1.092	0.518	0.560	0.423	0.378	0.340	0.302	0.280	0.254	0.218	0.234	0.220	0.264	0.183	0.202	0.141	0.189	0.148	0.149	0.093	0.121	0.120	0.111	0.116	0.119	0.121	0.161	0.156	0.215	0.186	0.162	0.162	0.155	0.175	0.172	0.248	0.406	0.747	0.722	0.476	0.527	0.851	1.300	2.362	4.802	7.954	7.478	3.401	0.602	0.044	0.042	0.057	0.009	0.043	0.024	0.035	0.021	0.026	0.052	0.011	0.014	0.025	0.014	0.005
260.0	7.131	9.690	58.59	158.5	120.0	84.93	380.8	 1398	 1343	161.9	4.700	1.599	1.124	0.982	0.778	0.480	0.385	0.437	0.339	0.309	0.344	0.256	0.236	0.198	0.209	0.209	0.217	0.263	0.195	0.186	0.207	0.177	0.169	0.118	0.142	0.116	0.126	0.126	0.081	0.122	0.120	0.190	0.235	0.141	0.136	0.140	0.168	0.132	0.138	0.221	0.404	0.793	0.894	0.532	0.309	0.362	0.613	1.480	3.887	7.757	9.408	6.884	2.352	0.310	0.062	0.019	0.026	0.055	0.022	0.020	0.036	0.043	-0.001	0.014	0.010	0.008	0.012
265.0	3.331	3.466	18.79	95.80	177.4	76.76	99.73	578.1	 1679	 1253	119.9	2.356	1.645	1.165	0.805	0.605	0.518	0.488	0.388	0.289	0.444	0.336	0.220	0.289	0.260	0.221	0.254	0.240	0.191	0.229	0.197	0.188	0.125	0.103	0.132	0.123	0.111	0.127	0.094	0.111	0.115	0.194	0.215	0.158	0.206	0.158	0.151	0.139	0.109	0.155	0.194	0.437	0.793	1.022	0.750	0.326	0.241	0.424	0.987	2.519	5.512	10.07	10.08	5.740	1.213	0.036	0.033	0.045	0.034	0.036	0.045	0.054	0.002	0.003	0.018	0.020	0.009
270.0	6.039	5.611	7.645	28.94	104.4	159.6	101.8	149.6	603.5	 1395	 1478	503.3	22.36	1.635	1.114	0.977	0.636	0.595	0.530	0.388	0.426	0.319	0.219	0.287	0.215	0.236	0.203	0.197	0.198	0.153	0.181	0.181	0.146	0.118	0.132	0.156	0.112	0.105	0.113	0.115	0.094	0.131	0.146	0.167	0.189	0.183	0.150	0.171	0.157	0.137	0.129	0.195	0.298	0.514	0.801	0.844	0.760	0.505	0.373	0.681	1.411	3.210	5.432	8.141	9.042	7.501	4.034	1.098	0.078	0.039	0.037	0.031	0.025	0.014	0.009	0.022	0.013
275.0	14.87	12.30	11.90	12.59	30.64	97.85	189.6	122.3	151.7	384.5	 1168	 1965	701.9	16.06	1.693	1.421	0.868	0.649	0.581	0.559	0.412	0.332	0.303	0.316	0.281	0.323	0.143	0.154	0.243	0.176	0.208	0.188	0.142	0.129	0.127	0.137	0.155	0.094	0.141	0.116	0.130	0.115	0.089	0.173	0.180	0.249	0.206	0.213	0.167	0.140	0.138	0.132	0.155	0.191	0.276	0.401	0.862	1.282	0.912	0.516	0.421	0.825	1.312	1.952	3.214	6.315	10.88	11.18	5.368	0.818	0.062	0.030	0.031	0.032	0.029	0.028	0.013
280.0	24.97	22.25	17.98	12.54	13.40	40.36	146.2	196.4	96.24	108.9	386.0	 1503	 1927	126.3	6.155	1.819	1.004	0.879	0.719	0.612	0.472	0.378	0.397	0.296	0.271	0.303	0.265	0.268	0.249	0.195	0.184	0.163	0.187	0.149	0.138	0.152	0.152	0.110	0.168	0.131	0.116	0.104	0.101	0.153	0.206	0.249	0.225	0.240	0.295	0.171	0.127	0.132	0.108	0.157	0.149	0.240	0.372	0.784	1.154	1.243	0.655	0.395	0.394	0.567	0.902	1.835	4.537	9.727	13.17	9.615	3.156	0.220	0.021	0.033	0.019	0.020	0.027
285.0	34.31	34.32	27.13	16.19	14.64	20.51	66.48	195.1	186.0	70.75	121.0	545.4	 1676	 1641	93.56	3.233	1.612	1.010	0.764	0.531	0.439	0.508	0.473	0.320	0.390	0.288	0.305	0.260	0.225	0.204	0.266	0.156	0.158	0.140	0.188	0.199	0.164	0.180	0.163	0.136	0.192	0.130	0.119	0.159	0.170	0.294	0.257	0.307	0.294	0.187	0.156	0.173	0.158	0.187	0.150	0.164	0.222	0.320	0.668	1.133	1.375	0.998	0.397	0.335	0.375	0.626	1.281	3.036	7.024	11.57	13.03	6.767	1.241	0.051	0.037	0.030	0.033
290.0	46.21	47.74	36.38	25.51	19.71	20.54	34.02	96.38	197.6	195.4	106.7	170.4	557.0	 1271	 1211	379.7	18.78	1.496	1.112	0.827	0.650	0.489	0.473	0.415	0.345	0.396	0.296	0.297	0.235	0.247	0.282	0.150	0.154	0.153	0.201	0.213	0.222	0.195	0.189	0.183	0.160	0.157	0.142	0.211	0.184	0.250	0.269	0.331	0.310	0.261	0.206	0.225	0.195	0.209	0.192	0.179	0.203	0.203	0.327	0.461	0.797	1.163	1.347	1.104	0.593	0.413	0.576	0.942	1.907	3.597	6.381	8.898	9.911	8.199	4.201	0.928	0.068
295.0	50.98	59.85	44.06	33.34	27.21	26.67	31.35	51.95	100.9	231.5	220.7	124.5	175.9	348.6	819.7	 1821	556.7	16.03	1.385	1.226	0.981	0.654	0.588	0.556	0.419	0.408	0.378	0.362	0.300	0.229	0.186	0.182	0.168	0.186	0.245	0.209	0.244	0.285	0.282	0.206	0.159	0.177	0.160	0.216	0.201	0.250	0.248	0.333	0.322	0.309	0.250	0.249	0.236	0.177	0.205	0.210	0.199	0.263	0.279	0.289	0.412	0.543	0.811	1.399	1.656	1.109	0.616	0.542	0.765	1.053	1.631	2.243	3.519	6.998	12.65	12.78	5.534
300.0	65.68	70.03	55.34	37.08	35.96	34.71	36.84	48.41	70.59	160.7	298.0	194.1	111.0	120.6	268.5	 1177	 1957	405.3	5.853	1.622	1.098	0.954	0.715	0.634	0.518	0.398	0.395	0.381	0.337	0.282	0.232	0.243	0.190	0.192	0.201	0.238	0.258	0.245	0.232	0.228	0.163	0.156	0.167	0.222	0.231	0.215	0.277	0.268	0.342	0.315	0.285	0.283	0.274	0.253	0.205	0.230	0.259	0.244	0.296	0.241	0.316	0.380	0.521	0.738	1.485	1.852	1.371	0.796	0.512	0.569	0.663	0.781	0.966	2.040	5.287	11.07	14.99
305.0	59.44	74.57	60.59	43.57	39.13	39.68	45.74	52.43	71.85	117.5	237.1	327.9	150.8	83.78	98.41	396.7	 1469	 1842	63.01	2.933	1.574	1.070	0.717	0.601	0.545	0.434	0.391	0.458	0.388	0.336	0.279	0.232	0.182	0.178	0.240	0.211	0.287	0.282	0.224	0.240	0.189	0.192	0.146	0.232	0.251	0.239	0.309	0.273	0.313	0.337	0.356	0.320	0.322	0.318	0.269	0.222	0.286	0.297	0.299	0.283	0.381	0.388	0.485	0.518	0.896	1.292	1.722	1.762	0.961	0.541	0.444	0.510	0.477	0.666	1.412	3.638	7.975
310.0	64.11	75.92	65.05	50.72	43.82	46.70	54.85	63.99	79.15	107.8	158.3	262.0	287.0	147.0	72.39	122.6	451.1	 1243	 1552	267.8	15.41	1.588	1.039	0.759	0.637	0.518	0.416	0.480	0.398	0.347	0.309	0.309	0.211	0.206	0.230	0.211	0.273	0.265	0.229	0.188	0.175	0.225	0.224	0.229	0.233	0.234	0.318	0.312	0.313	0.307	0.257	0.326	0.315	0.329	0.325	0.261	0.327	0.346	0.299	0.390	0.441	0.458	0.516	0.567	0.676	0.880	1.051	1.442	1.753	1.475	0.893	0.528	0.463	0.413	0.540	1.001	2.059
315.0	72.91	82.57	72.54	59.48	52.34	53.67	63.10	76.66	91.06	114.6	139.8	177.8	237.1	283.5	113.4	70.54	134.1	319.7	793.9	 1831	425.1	14.52	1.680	1.014	0.815	0.703	0.559	0.533	0.439	0.324	0.397	0.328	0.223	0.269	0.238	0.231	0.217	0.249	0.211	0.232	0.167	0.179	0.241	0.269	0.231	0.221	0.282	0.318	0.352	0.286	0.326	0.351	0.321	0.334	0.358	0.273	0.394	0.436	0.329	0.375	0.473	0.514	0.550	0.613	0.710	0.803	0.798	0.928	1.030	1.363	1.703	1.447	0.813	0.443	0.423	0.512	0.674
320.0	93.93	111.5	94.81	69.50	56.66	63.24	70.95	86.45	101.5	124.6	148.1	166.2	192.2	277.5	235.3	87.45	74.56	102.9	233.9	 1072	 1879	313.4	5.756	1.362	1.062	0.848	0.695	0.597	0.429	0.360	0.385	0.331	0.254	0.221	0.211	0.236	0.281	0.279	0.233	0.231	0.212	0.220	0.200	0.292	0.244	0.347	0.374	0.490	0.426	0.381	0.339	0.382	0.312	0.393	0.395	0.367	0.421	0.469	0.430	0.489	0.521	0.648	0.620	0.656	0.766	0.779	0.815	0.833	0.904	0.999	1.341	1.721	1.628	0.877	0.425	0.497	0.415
325.0	125.8	171.4	151.7	91.46	70.38	70.42	81.26	93.81	112.3	139.8	165.1	178.0	182.6	216.0	287.8	166.0	73.59	62.93	78.81	325.8	 1381	 1741	51.30	2.586	1.376	1.084	0.799	0.686	0.552	0.475	0.443	0.427	0.369	0.284	0.279	0.297	0.280	0.270	0.249	0.217	0.199	0.255	0.215	0.319	0.278	0.398	0.535	0.659	0.648	0.512	0.474	0.414	0.352	0.410	0.481	0.398	0.497	0.520	0.491	0.613	0.498	0.745	0.695	0.659	0.942	0.819	0.899	0.961	0.875	0.959	0.956	1.278	1.778	1.717	1.076	0.636	0.436
330.0	146.6	209.9	209.1	121.3	85.54	79.72	89.78	108.5	127.1	155.5	180.3	196.7	193.3	186.8	211.2	237.9	141.6	66.83	52.75	96.76	395.8	 1170	 1502	563.7	13.98	1.423	1.009	0.815	0.535	0.612	0.511	0.450	0.347	0.264	0.284	0.292	0.297	0.301	0.285	0.255	0.216	0.231	0.303	0.303	0.377	0.527	0.595	0.764	0.779	0.685	0.565	0.609	0.439	0.411	0.476	0.460	0.598	0.512	0.567	0.629	0.658	0.743	0.733	0.793	0.929	0.887	0.944	1.044	0.991	0.974	0.966	0.962	1.092	1.329	1.390	1.388	1.010
335.0	177.3	254.9	252.5	157.0	112.4	101.9	107.3	127.9	145.0	171.0	199.1	214.4	219.6	197.9	180.3	183.9	231.7	133.7	57.87	53.70	112.3	289.0	757.2	 1899	347.6	13.16	1.469	1.008	0.767	0.662	0.531	0.484	0.330	0.282	0.290	0.339	0.269	0.296	0.252	0.271	0.257	0.244	0.335	0.348	0.473	0.589	0.653	0.876	0.941	0.938	0.717	0.657	0.568	0.575	0.521	0.492	0.553	0.651	0.661	0.672	0.768	0.825	0.827	0.987	0.907	1.014	1.142	1.015	1.118	1.188	1.132	1.020	1.077	0.957	1.003	1.186	1.589
340.0	188.2	298.3	283.8	194.2	137.9	125.0	132.1	141.6	161.9	185.3	215.7	230.3	232.9	215.9	186.1	156.5	196.8	213.5	77.61	51.03	55.02	87.45	211.8	 1126	 1858	272.0	4.766	1.338	0.993	0.786	0.618	0.541	0.396	0.285	0.387	0.334	0.254	0.326	0.259	0.314	0.282	0.312	0.340	0.428	0.463	0.695	0.736	0.976	1.111	1.012	0.770	0.734	0.665	0.606	0.669	0.571	0.703	0.678	0.767	0.812	0.752	0.927	0.901	1.028	1.001	1.121	1.187	1.215	1.172	1.193	1.221	1.113	1.051	0.931	0.902	0.862	1.057
345.0	193.9	299.9	312.0	213.3	163.9	144.3	152.0	158.9	172.7	195.7	223.4	236.3	247.0	227.8	195.4	156.1	151.4	217.8	160.2	64.81	49.32	49.02	69.80	334.0	 1464	 1615	43.25	2.307	1.202	1.033	0.777	0.554	0.435	0.398	0.335	0.334	0.328	0.289	0.304	0.273	0.256	0.275	0.398	0.418	0.556	0.697	0.776	1.023	1.143	1.015	0.868	0.836	0.839	0.734	0.627	0.663	0.813	0.770	0.870	0.874	0.834	0.911	0.964	1.022	1.137	1.139	1.185	1.193	1.227	1.294	1.304	1.227	1.154	1.060	0.960	0.882	0.822
350.0	191.8	293.0	312.5	243.3	198.2	179.2	179.3	186.6	197.1	219.0	236.3	251.5	254.9	241.3	209.1	167.9	140.2	152.8	187.6	138.5	67.03	48.66	46.85	98.61	416.2	 1181	 1412	189.3	11.40	1.307	1.003	0.670	0.498	0.461	0.375	0.423	0.350	0.327	0.291	0.281	0.283	0.334	0.372	0.394	0.494	0.632	0.738	1.039	1.086	1.067	0.904	0.960	0.955	0.889	0.809	0.778	0.880	0.929	0.971	1.008	1.007	1.036	1.110	1.167	1.166	1.161	1.145	1.297	1.251	1.331	1.283	1.262	1.249	1.110	0.933	0.979	0.895
355.0	186.9	277.8	305.4	255.2	227.1	216.5	214.0	217.9	222.9	234.9	255.8	264.1	264.4	250.2	218.4	178.7	147.4	134.1	138.1	181.5	132.8	61.51	51.38	54.55	116.0	289.7	766.4	 1697	312.5	10.42	1.506	0.862	0.564	0.524	0.414	0.341	0.385	0.370	0.329	0.279	0.277	0.323	0.320	0.401	0.395	0.697	0.782	0.968	1.119	1.016	0.965	1.017	1.043	1.037	0.891	0.954	1.002	1.025	1.009	1.039	1.215	1.141	1.259	1.259	1.197	1.207	1.219	1.294	1.335	1.318	1.336	1.296	1.140	1.197	1.145	1.048	0.983
360.0	180.4	267.5	296.2	258.4	247.9	228.2	229.7	234.4	239.6	247.5	256.5	265.5	267.0	254.0	226.5	184.6	154.0	135.7	122.4	149.4	183.4	99.22	59.66	50.96	54.90	85.12	211.4	 1089	 1709	246.5	3.780	1.230	0.928	0.637	0.499	0.411	0.387	0.332	0.391	0.325	0.294	0.379	0.325	0.515	0.376	0.581	0.729	0.972	0.997	0.955	0.878	1.152	1.055	1.165	1.074	0.951	1.082	1.177	1.172	1.192	1.277	1.185	1.242	1.246	1.305	1.293	1.372	1.296	1.390	1.362	1.255	1.220	1.190	1.237	1.110	1.036	0.998
365.0	167.1	260.8	302.9	274.5	265.4	244.5	246.3	252.4	250.1	257.2	264.0	266.4	268.3	256.8	226.8	188.3	161.7	141.2	128.2	126.3	172.3	158.9	80.79	58.19	48.09	45.47	66.57	323.3	 1457	 1467	38.17	2.338	0.974	0.689	0.580	0.509	0.369	0.368	0.332	0.381	0.382	0.413	0.416	0.425	0.462	0.554	0.769	0.944	1.012	1.003	0.970	1.133	1.133	1.226	1.068	0.999	1.111	1.187	1.179	1.253	1.282	1.323	1.232	1.328	1.353	1.387	1.387	1.385	1.364	1.341	1.291	1.326	1.238	1.254	1.161	1.083	0.960
370.0	164.8	259.8	304.7	302.5	294.2	271.1	270.6	272.1	282.3	289.8	293.0	286.5	273.1	254.8	232.2	197.7	173.5	158.3	145.5	136.9	150.7	183.3	165.9	103.2	69.81	54.07	50.96	96.79	425.9	 1205	 1350	171.2	9.478	1.111	0.785	0.577	0.463	0.382	0.346	0.393	0.369	0.341	0.401	0.420	0.474	0.665	0.725	0.882	0.973	1.048	1.017	1.155	1.264	1.307	1.263	1.151	1.283	1.271	1.317	1.401	1.406	1.481	1.374	1.483	1.498	1.443	1.361	1.505	1.400	1.369	1.313	1.392	1.342	1.235	1.120	1.198	1.136
375.0	164.7	248.3	299.9	318.9	312.3	280.6	278.5	282.7	291.0	297.6	306.4	296.5	273.4	247.0	226.9	198.4	180.5	167.3	157.2	149.1	147.2	153.6	191.8	170.0	97.33	70.58	59.01	55.51	119.1	301.0	818.9	 1582	263.3	7.740	1.076	0.681	0.640	0.495	0.381	0.395	0.446	0.398	0.340	0.414	0.529	0.559	0.724	0.954	0.912	0.954	1.093	1.247	1.292	1.318	1.281	1.214	1.332	1.297	1.400	1.411	1.386	1.472	1.514	1.496	1.600	1.616	1.341	1.519	1.475	1.480	1.230	1.353	1.274	1.276	1.189	1.121	1.030
380.0	151.4	232.5	288.7	316.1	301.7	279.6	277.0	274.1	284.0	290.1	296.7	291.3	269.9	247.1	221.6	198.6	182.1	171.9	159.7	153.0	146.4	144.2	163.5	197.3	130.4	79.41	65.10	51.57	55.12	88.98	234.7	 1108	 1454	37.66	2.515	0.907	0.666	0.579	0.462	0.362	0.411	0.376	0.370	0.424	0.476	0.535	0.711	0.924	0.870	0.970	1.043	1.260	1.284	1.338	1.353	1.211	1.336	1.301	1.329	1.352	1.406	1.375	1.439	1.559	1.560	1.570	1.270	1.446	1.353	1.356	1.409	1.333	1.286	1.289	1.194	1.163	1.121
385.0	158.3	229.0	279.0	299.4	301.7	286.2	275.9	270.8	281.2	281.9	290.5	282.4	264.3	241.8	218.0	196.4	182.5	173.1	160.8	155.2	149.5	142.1	144.6	175.0	168.0	95.48	71.17	54.98	45.03	44.94	77.47	345.3	 1347	 1101	30.31	1.420	0.797	0.627	0.512	0.455	0.390	0.386	0.375	0.412	0.469	0.584	0.665	0.875	0.909	0.903	0.938	1.167	1.300	1.323	1.417	1.175	1.279	1.311	1.418	1.386	1.398	1.188	1.519	1.377	1.520	1.475	1.311	1.328	1.427	1.407	1.340	1.372	1.300	1.251	1.179	1.069	1.168
390.0	151.3	219.8	270.1	295.9	298.2	284.5	275.3	273.4	274.2	276.9	285.2	274.2	256.2	235.3	215.3	193.9	183.2	175.3	165.8	163.4	155.6	149.7	147.0	149.7	164.1	144.3	92.25	62.47	48.05	40.74	45.81	97.00	399.9	986.2	 1004	131.3	6.845	0.796	0.649	0.553	0.418	0.436	0.418	0.441	0.457	0.633	0.650	0.781	0.873	0.908	0.978	1.153	1.279	1.395	1.227	1.182	1.326	1.243	1.321	1.321	1.281	1.379	1.374	1.280	1.391	1.455	1.309	1.320	1.326	1.302	1.282	1.354	1.292	1.158	1.163	1.101	1.133
395.0	148.5	202.8	255.4	279.7	291.5	275.5	269.0	261.9	268.0	265.7	276.2	257.6	247.1	220.3	207.2	189.4	180.2	173.6	167.5	163.2	157.2	152.3	147.5	139.9	133.6	148.9	135.8	78.71	53.33	44.25	41.90	43.77	102.1	239.9	666.6	 1219	209.3	4.981	0.880	0.707	0.539	0.527	0.468	0.406	0.498	0.594	0.586	0.694	0.812	0.933	0.914	1.142	1.334	1.313	1.227	1.169	1.214	1.214	1.170	1.324	1.253	1.378	1.346	1.361	1.352	1.285	1.319	1.314	1.232	1.230	1.277	1.225	1.174	1.113	1.123	1.154	1.087
400.0	142.0	197.8	242.4	274.7	281.5	274.3	257.4	254.3	255.0	254.6	261.4	248.9	240.9	214.0	201.3	185.3	176.9	169.2	166.7	161.4	155.1	149.6	144.5	137.9	124.8	126.2	148.1	106.5	62.13	48.32	43.28	35.28	38.31	63.97	184.3	890.9	 1111	32.40	1.971	0.891	0.625	0.481	0.481	0.453	0.506	0.605	0.672	0.705	0.853	0.800	0.838	1.089	1.242	1.277	1.213	1.194	1.200	1.355	1.098	1.271	1.252	1.332	1.307	1.369	1.227	1.288	1.272	1.250	1.164	1.193	1.213	1.203	1.185	1.109	1.102	1.107	1.179
405.0	137.5	191.0	236.6	265.5	271.4	269.5	255.9	249.2	247.7	246.0	249.6	241.5	228.8	213.7	195.9	179.0	171.3	166.6	162.1	157.4	151.5	147.9	141.0	133.3	123.1	112.3	129.5	133.5	78.33	52.89	46.41	35.87	27.42	26.06	49.88	274.6	 1056	824.9	25.53	1.365	0.718	0.629	0.455	0.538	0.504	0.613	0.553	0.745	0.804	0.800	0.898	1.085	1.157	1.231	1.305	1.161	1.235	1.209	1.215	1.254	1.248	1.183	1.218	1.190	1.292	1.161	1.128	1.139	1.083	1.163	1.180	1.248	1.192	1.115	1.155	1.085	1.086
410.0	134.5	186.2	222.8	254.4	267.3	267.9	260.9	255.1	243.3	238.3	237.1	229.7	218.2	200.3	186.4	172.9	164.3	160.6	157.1	151.9	147.9	142.8	138.6	131.7	120.1	108.7	108.0	121.0	111.3	70.58	52.41	39.67	28.64	21.36	22.04	70.03	320.6	769.7	604.5	117.9	5.584	0.797	0.581	0.577	0.452	0.562	0.587	0.730	0.749	0.764	0.852	1.054	1.144	1.192	1.293	1.181	1.229	1.213	1.284	1.212	1.167	1.103	1.199	1.142	1.202	1.169	1.089	1.093	1.134	1.187	1.097	1.177	1.181	1.081	1.097	0.996	1.036
