Sample:	'1
File name:	Default_20230113_092837.FD3
Run date:	'09:22:16, 01/13/2023
Operator:	user
Comment:	'

Instrument
Model:	F-2700 FL Spectrophotometer
Serial number:	2190-003
ROM Version:	4J14000 07

Instrument parameters
Measurement type:	3-D scan
Data mode:	Fluorescence
EX  Start WL:	220.0 nm
EX  End WL:	600.0 nm
EX Sampling interval:	5.0 nm
EM  Start WL:	230.0 nm
EM  End WL:	650.0 nm
EM Sampling interval:	5.0 nm
Scan speed:	12000 nm/min
EX Slit:	5.0 nm
EM Slit:	5.0 nm
PMT Voltage:	700 V
Response:	Auto 
Corrected spectra:	Off
Contour interval:	50.000

Peak integration
Integration method:	Rectangular
Sensitivity:	1
Threshold:	1.000

Peaks
No.	ApexEX/EM(nm)	Height(Data)
1	225.0/295.0	-107.4
2	230.0/300.0	-130.3
3	240.0/520.0	-75.44
4	245.0/265.0	118.1
5	245.0/360.0	 5864
6	245.0/530.0	-79.13
7	250.0/545.0	-50.94
8	255.0/280.0	411.2
9	255.0/555.0	-19.86
10	260.0/285.0	688.5
11	265.0/290.0	 1108
12	265.0/580.0	54.91
13	270.0/295.0	 1663
14	270.0/485.0	-29.09
15	270.0/590.0	70.86
16	275.0/300.0	 1580
17	275.0/600.0	62.00
18	280.0/615.0	19.26
19	285.0/440.0	16.81
20	285.0/625.0	-8.742
21	290.0/320.0	504.0
22	290.0/635.0	-9.830
23	300.0/335.0	340.7
24	305.0/340.0	393.1
25	310.0/280.0	-18.36
26	310.0/345.0	346.1
27	315.0/570.0	-15.71
28	320.0/360.0	237.2
29	320.0/540.0	-10.63
30	325.0/295.0	-13.25
31	325.0/365.0	221.2
32	330.0/370.0	168.1
33	335.0/375.0	165.6
34	335.0/500.0	-0.179
35	335.0/525.0	-5.580
36	340.0/385.0	158.2
37	345.0/390.0	129.3
38	350.0/395.0	125.6
39	355.0/405.0	116.3
40	355.0/625.0	-9.964
41	360.0/410.0	97.97
42	365.0/320.0	-9.226
43	365.0/415.0	91.09
44	370.0/425.0	82.35
45	375.0/430.0	66.05
46	375.0/525.0	-4.527
47	380.0/435.0	59.18
48	380.0/605.0	-7.705
49	385.0/445.0	53.16
50	390.0/450.0	40.19
51	395.0/455.0	34.41
52	395.0/515.0	-2.357
53	395.0/615.0	-6.398
54	400.0/465.0	30.76
55	405.0/285.0	-6.179
56	405.0/470.0	21.77
57	410.0/330.0	-6.016
58	410.0/375.0	-5.498
59	410.0/475.0	17.14
60	415.0/485.0	15.48
61	420.0/490.0	11.76
62	425.0/495.0	10.66
63	430.0/505.0	8.382
64	435.0/510.0	5.690
65	440.0/515.0	4.087
66	445.0/525.0	3.646
67	450.0/530.0	2.626
68	455.0/540.0	1.628
69	460.0/545.0	1.511
70	465.0/555.0	-0.280
71	470.0/560.0	-0.169
72	485.0/365.0	7.472
73	490.0/360.0	7.347
74	490.0/590.0	-3.726
75	510.0/280.0	-3.690
76	520.0/285.0	-2.841
77	535.0/615.0	-4.339
78	540.0/295.0	-0.924
79	545.0/300.0	-1.312
80	545.0/605.0	-4.578
81	550.0/305.0	-2.018
82	560.0/310.0	-2.984
83	575.0/320.0	-3.921
84	580.0/325.0	-4.328
85	585.0/330.0	-4.341

Data points
	220.0	225.0	230.0	235.0	240.0	245.0	250.0	255.0	260.0	265.0	270.0	275.0	280.0	285.0	290.0	295.0	300.0	305.0	310.0	315.0	320.0	325.0	330.0	335.0	340.0	345.0	350.0	355.0	360.0	365.0	370.0	375.0	380.0	385.0	390.0	395.0	400.0	405.0	410.0	415.0	420.0	425.0	430.0	435.0	440.0	445.0	450.0	455.0	460.0	465.0	470.0	475.0	480.0	485.0	490.0	495.0	500.0	505.0	510.0	515.0	520.0	525.0	530.0	535.0	540.0	545.0	550.0	555.0	560.0	565.0	570.0	575.0	580.0	585.0	590.0	595.0	600.0
230.0	-443.9	-58.66	 1926	 1272	-107.1	-153.7	-128.3	-112.5	-101.3	-88.17	-79.30	-73.14	-59.14	-50.42	-40.58	-33.32	-30.05	-25.93	-22.10	-18.63	-17.82	-16.31	-15.28	-13.85	-12.49	-11.24	-11.52	-10.94	-10.76	-11.08	-10.09	-9.330	-9.042	-8.533	-7.982	-7.142	-7.088	-7.103	-6.732	-6.344	-6.619	-6.233	-6.451	-6.431	-6.137	-5.718	-4.881	-3.283	-0.883	-0.668	-3.034	-4.984	-4.682	-5.210	-4.941	-5.399	-5.516	-5.674	-5.470	-5.565	-5.316	-5.209	-5.697	-5.539	-5.404	-5.338	-5.577	-5.709	-5.780	-5.868	-5.827	-5.743	-5.847	-6.054	-5.951	-6.171	-6.248
235.0	-421.6	-279.9	531.2	 2252	 1451	-62.31	-138.0	-115.4	-103.2	-84.31	-75.59	-73.54	-62.46	-48.02	-40.07	-34.08	-32.27	-24.78	-21.45	-18.72	-17.30	-16.68	-15.38	-13.33	-13.27	-12.10	-11.83	-12.03	-11.34	-11.40	-9.609	-9.227	-9.158	-8.314	-8.022	-7.342	-7.386	-6.630	-7.087	-6.553	-6.754	-5.949	-5.603	-6.147	-5.604	-6.091	-5.120	-5.031	-3.599	-1.465	-0.210	-1.756	-3.101	-4.512	-5.441	-5.251	-4.669	-4.856	-5.563	-5.273	-5.346	-5.277	-5.422	-5.713	-5.251	-5.801	-5.193	-5.851	-5.564	-6.144	-6.173	-6.159	-5.990	-5.794	-5.319	-6.166	-6.830
240.0	-416.6	-306.2	-70.30	 1056	 3497	829.3	-88.58	-111.9	-103.8	-86.13	-85.37	-71.04	-59.91	-49.90	-39.57	-35.57	-28.61	-25.56	-22.59	-18.26	-17.32	-16.55	-14.90	-14.85	-13.64	-12.15	-11.99	-10.48	-11.45	-11.00	-10.56	-9.945	-8.962	-8.415	-7.210	-7.376	-7.543	-7.103	-6.465	-6.919	-6.766	-6.220	-6.249	-6.296	-5.800	-5.366	-5.082	-5.050	-4.239	-3.670	-2.592	-1.370	0.300	-2.070	-3.804	-4.886	-4.835	-5.336	-5.456	-5.516	-5.668	-5.202	-5.176	-5.663	-5.453	-6.069	-5.809	-5.822	-5.825	-6.200	-6.273	-6.303	-6.206	-5.626	-5.700	-6.552	-6.482
245.0	-422.4	-283.5	-186.9	90.98	 2408	 2313	544.5	-92.80	-97.48	-79.21	-76.97	-74.65	-57.62	-48.58	-40.73	-32.48	-28.24	-25.64	-20.21	-18.28	-17.49	-16.41	-15.46	-15.57	-14.00	-11.69	-11.75	-11.44	-11.72	-10.71	-10.88	-9.981	-9.773	-9.257	-8.425	-7.686	-7.508	-7.563	-6.277	-6.532	-6.784	-6.358	-6.198	-6.423	-5.912	-5.368	-4.970	-5.047	-4.454	-3.860	-3.904	-3.659	-1.569	-0.434	-0.424	-3.417	-4.956	-5.063	-5.221	-5.292	-5.240	-5.469	-5.324	-5.596	-5.467	-5.912	-5.676	-5.949	-5.648	-5.737	-5.484	-6.183	-6.349	-5.785	-5.678	-6.284	-5.966
250.0	-451.7	-340.1	-157.1	-60.87	490.2	 1159	 1881	893.1	49.05	-90.64	-73.70	-69.45	-57.55	-49.60	-42.02	-32.70	-28.73	-24.75	-21.60	-17.81	-17.61	-15.80	-14.91	-14.64	-13.08	-12.23	-11.50	-11.49	-11.78	-10.30	-9.962	-10.33	-9.045	-9.279	-7.838	-7.496	-7.140	-7.158	-6.639	-6.696	-6.653	-6.746	-6.294	-6.340	-5.991	-6.026	-5.274	-5.212	-4.248	-3.813	-4.098	-4.276	-4.126	-3.410	-2.078	-1.933	-0.539	-1.422	-3.737	-4.933	-5.553	-5.491	-5.447	-5.695	-5.689	-5.347	-6.010	-5.808	-5.785	-5.608	-5.649	-5.421	-5.804	-5.775	-5.990	-5.933	-6.063
255.0	-470.3	-361.4	-208.2	-29.65	90.67	151.4	665.2	 2400	 1349	42.58	-82.20	-73.31	-56.18	-50.87	-44.91	-33.43	-28.44	-24.18	-21.71	-19.42	-17.95	-16.54	-15.52	-13.40	-13.06	-12.45	-11.41	-10.84	-10.77	-10.71	-9.714	-9.720	-9.128	-9.380	-8.619	-6.667	-7.303	-7.078	-6.254	-7.111	-7.051	-6.632	-6.289	-6.300	-6.256	-6.136	-5.323	-4.937	-4.449	-3.765	-3.765	-4.756	-4.897	-5.001	-3.789	-4.366	-2.938	-1.374	1.533	0.786	-2.548	-5.324	-5.629	-5.757	-5.774	-5.285	-5.769	-5.734	-5.495	-5.442	-5.937	-5.755	-5.937	-6.398	-5.912	-6.077	-6.284
260.0	-437.2	-336.2	-245.1	-71.62	134.0	1.357	66.94	 1093	 2979	 1055	-21.49	-71.79	-56.53	-48.50	-44.30	-29.79	-28.82	-24.60	-21.26	-19.20	-17.75	-14.97	-14.62	-13.01	-13.16	-13.30	-11.28	-12.01	-10.45	-10.84	-10.13	-9.016	-8.058	-7.950	-8.924	-7.369	-7.099	-6.397	-6.691	-6.713	-5.976	-5.996	-6.109	-6.184	-5.551	-5.934	-5.169	-4.981	-5.008	-3.751	-3.856	-4.706	-4.422	-5.059	-4.243	-4.844	-4.630	-4.269	-2.430	1.067	3.149	-1.148	-4.662	-5.644	-6.091	-5.928	-5.683	-5.428	-5.341	-5.543	-5.665	-5.894	-5.864	-5.862	-6.208	-6.057	-6.245
265.0	-427.5	-352.5	-277.6	-161.6	61.07	118.1	-45.96	203.2	 1594	 3152	831.6	-42.57	-55.29	-47.57	-42.01	-32.86	-26.37	-25.33	-21.98	-19.08	-16.81	-13.98	-14.39	-13.71	-13.59	-13.07	-11.19	-12.10	-10.95	-9.929	-10.16	-9.642	-8.611	-7.972	-8.097	-7.770	-7.317	-7.230	-6.713	-6.460	-6.811	-5.892	-6.491	-6.345	-5.624	-5.540	-5.207	-4.969	-4.809	-4.468	-4.414	-4.575	-4.397	-4.184	-4.138	-4.984	-5.053	-5.386	-4.501	-3.205	0.349	3.170	3.721	-1.858	-4.931	-5.545	-5.569	-5.476	-5.035	-6.096	-5.781	-5.696	-5.541	-6.035	-6.163	-5.981	-6.063
270.0	-432.7	-351.1	-278.2	-205.5	-87.89	92.38	145.5	19.52	328.5	 1526	 3069	 1919	132.1	-45.51	-38.84	-33.39	-29.21	-23.78	-21.98	-18.95	-16.34	-15.15	-14.25	-14.00	-12.21	-12.13	-11.01	-10.80	-11.55	-10.52	-10.46	-9.519	-8.968	-8.750	-8.056	-7.322	-7.490	-7.876	-6.777	-6.273	-6.528	-6.529	-6.951	-5.509	-5.769	-5.421	-5.029	-5.283	-4.849	-4.305	-4.137	-5.148	-4.705	-4.464	-4.024	-4.496	-4.437	-5.014	-5.199	-4.781	-4.182	-2.748	-0.067	1.773	2.398	0.068	-3.055	-5.063	-5.626	-5.550	-5.894	-5.849	-6.152	-5.708	-6.040	-6.031	-6.097
275.0	-421.5	-287.6	-275.2	-221.0	-146.7	-81.48	169.6	293.6	103.8	377.5	 1115	 3528	 2751	137.8	-37.13	-32.05	-29.11	-22.66	-19.40	-19.85	-16.56	-15.10	-14.48	-13.54	-12.69	-11.82	-11.01	-10.80	-11.13	-10.01	-10.27	-9.144	-9.206	-7.828	-7.873	-7.717	-7.456	-6.841	-7.118	-6.404	-6.869	-6.664	-6.553	-6.097	-5.845	-5.868	-5.215	-4.766	-4.686	-3.952	-4.064	-5.181	-4.418	-5.130	-4.978	-4.471	-4.381	-4.142	-4.481	-5.126	-5.043	-4.400	-4.103	-3.698	-2.527	2.080	6.315	3.702	-2.543	-5.291	-5.927	-5.574	-5.966	-5.853	-6.086	-6.144	-6.278
280.0	-328.3	-284.8	-290.1	-201.0	-147.5	-106.6	27.63	411.2	358.8	276.7	488.4	 1682	 4229	731.3	32.19	-33.13	-28.42	-24.66	-18.36	-20.35	-18.53	-15.12	-13.77	-12.23	-11.61	-11.51	-11.44	-11.78	-11.35	-11.33	-9.951	-9.311	-9.035	-7.798	-7.994	-7.346	-7.048	-6.695	-7.280	-6.935	-6.118	-6.589	-6.266	-6.491	-5.359	-6.115	-5.108	-5.222	-5.359	-4.025	-3.952	-5.333	-4.600	-5.252	-4.892	-4.388	-5.057	-4.521	-3.690	-4.283	-4.299	-4.881	-4.475	-4.910	-4.195	-2.801	1.031	6.262	7.059	1.694	-4.199	-5.641	-5.741	-5.546	-5.772	-6.263	-6.544
285.0	-288.8	-268.4	-238.1	-180.3	-134.9	-86.90	-13.02	270.9	688.5	582.0	618.3	873.1	 2284	 4008	546.4	-13.61	-25.08	-24.71	-20.11	-18.26	-17.92	-16.80	-14.44	-13.45	-11.98	-12.78	-11.17	-12.15	-11.01	-11.40	-11.29	-9.215	-9.287	-6.979	-7.792	-7.409	-7.147	-6.179	-7.486	-6.933	-6.709	-7.053	-5.706	-6.166	-5.299	-5.717	-4.965	-4.810	-4.769	-3.800	-4.149	-5.338	-4.315	-5.374	-5.006	-5.468	-5.025	-4.722	-3.747	-3.208	-2.841	-3.782	-4.123	-4.118	-4.300	-4.345	-2.814	-0.202	3.262	8.915	5.914	-1.904	-5.393	-5.029	-5.779	-6.205	-6.430
290.0	-276.1	-198.3	-163.8	-157.9	-125.8	-73.59	19.76	236.7	625.8	 1108	 1054	938.1	956.2	 1847	 3230	 1714	101.5	-23.41	-20.52	-18.11	-16.97	-15.62	-14.22	-13.82	-12.30	-11.78	-11.38	-11.10	-11.34	-10.85	-10.65	-9.168	-8.328	-7.829	-8.102	-6.773	-6.956	-7.025	-7.202	-6.652	-6.629	-6.389	-5.588	-5.871	-5.353	-5.549	-4.634	-4.481	-4.192	-3.933	-4.159	-4.729	-4.943	-5.062	-4.329	-5.359	-5.220	-4.673	-4.341	-3.993	-3.189	-2.577	-2.555	-2.807	-3.479	-3.857	-3.589	-3.314	-2.801	-0.297	2.438	3.846	4.290	2.624	-3.495	-5.850	-6.212
295.0	-215.1	-107.4	-150.0	-158.8	-134.1	-55.97	50.39	229.1	554.8	 1033	 1663	 1184	720.5	531.9	 1002	 3055	 2402	122.6	-19.96	-16.70	-15.98	-13.25	-15.76	-11.95	-12.04	-10.60	-10.29	-10.11	-11.05	-10.43	-9.778	-8.864	-7.690	-7.894	-7.562	-7.104	-7.261	-6.835	-7.465	-6.025	-6.843	-5.826	-6.043	-5.427	-5.317	-4.767	-4.612	-4.608	-4.267	-3.538	-3.944	-4.785	-4.463	-4.838	-3.888	-5.318	-4.694	-4.565	-4.311	-4.444	-4.122	-3.044	-2.547	-1.607	-0.924	-2.779	-3.165	-3.389	-3.657	-4.050	-3.776	-2.973	-1.546	4.700	7.743	3.734	-2.895
300.0	-136.7	-137.6	-130.3	-142.3	-116.2	-37.69	48.91	221.7	536.7	943.4	 1523	 1580	731.7	242.1	251.9	 1161	 3540	 1819	39.64	-16.52	-16.81	-15.04	-14.02	-13.07	-12.69	-10.88	-10.66	-11.24	-11.80	-9.702	-10.33	-8.648	-8.474	-7.073	-7.757	-7.153	-6.934	-6.572	-6.182	-6.328	-6.108	-6.456	-5.439	-5.056	-5.271	-5.135	-4.894	-4.590	-4.754	-3.606	-3.918	-4.403	-4.968	-4.724	-3.949	-4.986	-5.074	-4.460	-4.654	-4.038	-3.909	-3.821	-2.338	-2.210	-1.695	-1.312	-2.670	-3.887	-4.125	-5.091	-4.882	-5.208	-4.605	-2.814	1.215	7.684	8.116
305.0	-132.6	-184.9	-141.3	-118.8	-121.1	-45.99	54.91	219.6	473.6	828.2	 1212	 1551	922.7	193.1	86.91	276.0	 1628	 3693	310.4	3.295	-15.39	-14.53	-12.52	-12.08	-10.85	-11.34	-11.82	-11.49	-10.80	-10.19	-10.15	-9.087	-8.337	-8.207	-7.307	-6.733	-6.927	-6.399	-6.774	-6.287	-6.652	-6.916	-5.603	-5.420	-5.877	-5.517	-4.794	-4.899	-4.537	-3.624	-3.635	-4.739	-4.921	-4.895	-4.682	-4.900	-5.412	-4.853	-4.644	-4.326	-3.924	-3.336	-3.013	-2.818	-2.963	-2.597	-2.018	-3.406	-4.098	-4.815	-5.738	-5.215	-5.626	-5.027	-4.499	-1.567	4.142
310.0	-228.0	-193.1	-157.0	-140.7	-110.4	-38.15	27.08	184.6	386.7	689.6	917.3	 1048	970.8	424.8	79.57	71.35	391.7	 1560	 2354	 1231	81.88	-11.61	-12.82	-12.94	-11.80	-11.08	-11.87	-11.05	-10.99	-10.47	-9.774	-9.759	-7.971	-7.972	-7.835	-6.867	-7.116	-6.302	-6.798	-6.504	-6.565	-6.157	-6.123	-5.721	-5.734	-5.338	-4.551	-4.750	-4.708	-3.860	-4.035	-4.868	-4.587	-5.084	-4.750	-4.799	-5.054	-4.393	-4.657	-4.516	-4.237	-3.612	-3.286	-3.463	-3.848	-3.752	-3.113	-3.275	-2.984	-4.155	-5.255	-5.444	-5.799	-5.686	-5.027	-5.428	-3.757
315.0	-238.4	-214.0	-147.2	-87.46	-73.23	-8.926	54.58	161.9	332.5	522.4	682.9	712.0	573.7	571.3	308.6	49.65	101.3	351.7	754.0	 2633	 1980	116.4	-11.56	-11.94	-11.74	-11.22	-10.39	-10.31	-11.02	-9.755	-10.18	-10.56	-8.607	-8.342	-8.200	-7.257	-6.992	-6.762	-6.957	-6.157	-6.197	-6.550	-5.764	-6.208	-5.064	-5.506	-4.928	-4.395	-4.953	-4.229	-3.943	-4.803	-4.417	-4.962	-4.687	-4.746	-4.451	-4.359	-4.723	-4.936	-4.351	-3.860	-3.763	-3.900	-4.135	-4.615	-3.709	-3.974	-4.205	-4.280	-4.137	-4.762	-5.453	-5.891	-6.023	-5.474	-5.552
320.0	-192.0	-108.2	7.484	8.481	32.53	108.6	154.0	216.5	344.7	471.0	567.2	564.3	396.0	364.0	504.0	155.0	46.15	90.25	180.1	 1050	 3737	 1601	38.06	-10.75	-11.79	-10.56	-9.821	-10.39	-11.47	-9.226	-10.31	-9.986	-8.662	-8.526	-8.068	-7.799	-7.037	-7.835	-6.556	-5.939	-6.209	-6.616	-5.947	-6.598	-5.499	-5.626	-4.229	-4.490	-4.350	-3.809	-3.495	-4.894	-4.285	-4.688	-4.358	-4.439	-4.721	-4.147	-4.192	-5.020	-4.378	-4.134	-4.360	-4.467	-3.985	-4.458	-4.270	-4.845	-4.675	-4.860	-4.551	-3.921	-4.458	-5.785	-5.815	-5.778	-6.423
325.0	-170.0	46.35	322.3	244.8	269.1	320.4	397.8	390.3	429.3	476.7	521.1	491.9	357.1	236.6	425.1	377.6	85.73	40.78	58.06	257.0	 1759	 3997	965.1	9.151	-10.58	-10.53	-10.04	-10.27	-10.73	-10.01	-10.30	-10.31	-8.247	-8.320	-7.814	-7.911	-7.023	-7.379	-6.379	-6.783	-6.303	-6.243	-5.558	-6.143	-5.465	-5.549	-4.059	-4.526	-3.575	-3.305	-3.158	-4.353	-3.806	-4.450	-3.901	-3.251	-4.120	-3.939	-3.581	-4.080	-3.936	-3.635	-4.470	-4.757	-3.654	-4.460	-4.482	-4.440	-5.047	-5.020	-5.392	-4.467	-4.328	-4.573	-5.460	-5.559	-6.519
330.0	-95.18	307.6	706.1	822.2	999.7	 1070	 1012	936.9	770.1	680.6	548.3	441.9	316.2	211.0	235.6	365.3	308.3	96.10	45.55	77.46	421.3	 1743	 2435	924.7	63.36	-9.917	-9.825	-9.877	-10.55	-9.696	-9.899	-9.349	-8.568	-8.228	-8.159	-7.820	-6.954	-7.563	-6.016	-7.048	-6.243	-6.083	-5.959	-5.697	-5.127	-4.676	-4.477	-3.652	-2.970	-2.865	-2.201	-3.280	-2.971	-2.631	-2.536	-2.393	-2.369	-2.941	-2.901	-3.025	-3.448	-3.387	-4.153	-4.124	-4.133	-4.350	-4.600	-4.949	-5.078	-5.247	-5.625	-4.989	-4.803	-4.341	-4.439	-4.575	-5.800
335.0	147.7	728.4	 1374	 1694	 2045	 2172	 2022	 1752	 1384	 1027	663.1	436.7	307.1	224.4	204.1	223.4	340.7	313.5	90.42	49.76	114.8	401.2	758.1	 2488	 1484	88.98	-9.502	-8.042	-9.556	-10.43	-9.596	-9.590	-8.758	-8.530	-7.947	-7.626	-6.924	-6.775	-6.859	-6.280	-6.472	-6.409	-5.628	-5.648	-4.759	-4.428	-3.818	-2.295	-1.321	-1.503	-1.206	-1.358	-1.240	-0.169	0.238	-0.441	-1.147	-1.418	-1.473	-2.568	-2.476	-2.900	-3.540	-3.837	-4.341	-4.124	-4.833	-4.619	-5.106	-5.395	-5.406	-4.649	-5.153	-5.282	-5.313	-4.394	-5.117
340.0	324.5	 1121	 1974	 2354	 2915	 3220	 3045	 2518	 1916	 1327	790.5	421.2	296.4	238.1	212.8	190.3	229.5	393.1	214.0	63.88	53.23	103.2	175.0	987.2	 2948	 1249	47.11	-8.627	-9.462	-10.14	-8.969	-8.707	-8.125	-7.434	-7.906	-7.087	-6.986	-7.138	-7.258	-6.522	-6.148	-6.581	-5.496	-4.708	-4.474	-4.073	-2.223	-1.175	-0.572	-0.713	0.254	0.714	0.699	1.563	2.178	2.032	0.893	0.016	-0.275	-0.873	-1.664	-2.808	-2.977	-3.601	-4.523	-4.010	-5.128	-4.540	-5.051	-5.047	-5.351	-5.074	-5.371	-4.995	-5.525	-5.104	-5.802
345.0	361.6	 1334	 2371	 3022	 3647	 4054	 3827	 3115	 2347	 1582	904.4	436.0	284.3	233.8	219.3	191.0	177.8	291.6	346.1	121.9	41.59	39.00	44.47	232.9	 1437	 3089	894.9	7.811	-8.260	-9.305	-9.342	-8.904	-7.750	-8.025	-7.905	-6.310	-6.992	-7.511	-6.650	-6.313	-5.761	-5.440	-5.018	-5.205	-4.168	-2.461	-1.575	-0.793	-0.287	0.477	0.854	1.559	3.089	3.341	3.129	3.659	3.356	2.246	0.182	0.433	-0.876	-1.562	-2.373	-3.165	-3.723	-4.333	-4.590	-4.779	-4.493	-5.346	-4.515	-5.177	-4.807	-4.966	-5.567	-5.477	-5.466
350.0	534.0	 1757	 2769	 3565	 4539	 4951	 4614	 3800	 2795	 1915	 1031	438.7	285.2	243.7	228.9	198.4	177.2	193.8	273.5	264.2	100.3	29.54	17.18	56.97	340.6	 1361	 2313	 1232	54.79	-8.413	-9.520	-8.721	-7.903	-8.220	-7.814	-6.747	-6.965	-6.991	-6.653	-6.379	-5.573	-5.297	-5.440	-4.629	-3.823	-2.837	-1.117	-0.174	0.267	1.352	2.328	3.041	4.710	4.651	5.346	5.314	5.038	4.179	1.661	1.341	0.247	-0.689	-1.380	-2.527	-3.930	-4.419	-4.535	-5.100	-4.958	-4.992	-4.788	-5.086	-5.146	-5.629	-5.394	-5.456	-5.214
355.0	694.0	 1910	 3096	 4079	 5034	 5570	 5264	 4222	 3097	 2111	 1107	438.6	266.2	240.5	233.1	199.7	181.1	175.5	168.9	224.4	234.0	65.40	15.89	18.87	79.15	308.1	743.0	 2508	 1258	71.99	-8.964	-8.636	-8.022	-7.924	-7.324	-6.835	-6.601	-7.122	-6.933	-6.174	-5.747	-5.229	-5.635	-4.515	-3.524	-2.760	-1.302	0.341	1.436	2.029	2.956	5.353	5.512	6.535	7.065	6.431	6.302	4.764	3.156	1.474	0.554	-0.283	-1.586	-2.367	-3.839	-4.244	-4.951	-4.999	-5.150	-4.732	-4.976	-5.010	-4.967	-5.235	-5.595	-5.798	-5.702
360.0	788.6	 1971	 3178	 4259	 5209	 5864	 5617	 4456	 3258	 2200	 1112	441.5	265.3	232.4	223.6	199.8	187.6	175.3	145.7	144.5	237.2	157.9	28.55	12.09	23.69	71.42	171.2	 1040	 2772	 1041	32.55	-8.341	-8.698	-8.222	-7.234	-7.127	-6.685	-6.872	-6.626	-6.035	-6.189	-5.212	-5.477	-4.077	-3.669	-2.064	-1.257	0.361	1.259	2.238	3.235	5.659	5.855	6.556	7.347	7.022	6.758	4.629	3.476	2.347	0.877	0.050	-1.677	-2.568	-3.471	-3.838	-4.755	-4.847	-5.213	-4.939	-5.294	-4.360	-4.949	-5.016	-5.785	-5.455	-5.747
365.0	697.9	 2055	 3333	 4175	 5424	 5836	 5551	 4417	 3202	 2187	 1126	400.3	236.5	227.2	223.2	199.1	188.3	168.8	140.3	109.5	148.0	221.2	82.48	17.17	12.96	20.55	40.50	245.7	 1450	 2868	765.7	2.723	-7.859	-7.734	-7.040	-6.571	-6.469	-6.376	-6.675	-6.321	-5.621	-5.548	-5.788	-3.784	-4.100	-1.811	-1.021	0.982	1.490	2.598	3.228	5.108	6.164	7.472	6.891	7.343	6.147	5.644	3.727	2.115	0.421	-0.640	-1.132	-2.505	-2.970	-3.931	-5.011	-4.844	-5.603	-5.591	-4.957	-4.998	-4.991	-5.649	-4.931	-5.197	-5.507
370.0	685.4	 1848	 3096	 4007	 5148	 5546	 5243	 4208	 3072	 2086	 1047	373.1	218.1	200.2	206.1	196.2	174.7	164.3	133.5	100.7	86.72	137.6	168.1	73.42	16.71	12.14	13.69	57.26	348.3	 1364	 2385	650.2	41.20	-6.168	-6.495	-6.281	-6.804	-6.147	-6.149	-6.372	-6.013	-5.700	-4.907	-4.245	-3.586	-2.251	-1.493	-0.052	1.277	1.726	2.847	4.500	5.385	6.689	6.402	7.240	5.930	4.991	3.162	1.370	-0.200	-0.425	-1.188	-2.542	-3.658	-4.720	-4.932	-4.883	-5.611	-5.242	-4.740	-5.146	-5.194	-5.299	-5.310	-5.488	-5.378
375.0	587.0	 1679	 2793	 3683	 4684	 5169	 4786	 3814	 2827	 1892	954.7	328.1	198.1	188.3	186.0	176.9	179.2	154.7	126.9	94.41	68.09	66.51	115.3	165.6	56.90	12.82	11.80	15.75	79.27	305.3	839.5	 2436	 1039	50.68	-6.508	-6.333	-6.739	-5.988	-5.498	-6.625	-6.400	-6.076	-4.825	-4.414	-3.519	-2.280	-1.631	-0.309	0.415	1.489	2.136	3.528	4.340	5.746	5.135	5.776	5.632	3.665	2.359	1.296	-0.092	-1.169	-1.828	-2.894	-4.322	-4.385	-4.818	-5.431	-4.779	-5.187	-5.150	-5.032	-5.237	-5.621	-5.473	-5.591	-5.088
380.0	561.4	 1611	 2461	 3369	 4268	 4717	 4367	 3500	 2597	 1686	841.3	300.3	165.5	168.7	162.7	163.7	157.6	149.2	123.9	91.60	64.29	49.79	62.21	147.8	124.5	27.74	11.38	8.288	20.46	67.67	192.4	 1120	 2797	826.7	16.51	-5.885	-6.315	-6.705	-6.063	-6.145	-5.745	-5.733	-5.062	-4.864	-3.470	-3.102	-1.224	-1.111	-0.016	0.888	1.321	2.422	3.330	4.771	4.117	4.782	4.746	2.718	2.220	0.828	-0.943	-1.338	-2.124	-3.383	-3.577	-4.048	-5.251	-5.581	-5.216	-4.997	-4.949	-5.357	-5.384	-5.464	-5.423	-5.892	-5.608
385.0	424.6	 1371	 2198	 2921	 3892	 4224	 3914	 3228	 2272	 1522	748.9	264.4	147.1	149.5	146.5	151.2	144.6	133.1	117.4	86.55	59.56	47.25	41.96	81.15	158.2	75.47	17.41	7.333	7.319	16.69	42.38	269.8	 1617	 2595	547.6	-0.281	-5.963	-5.371	-6.593	-5.210	-6.128	-6.147	-5.776	-4.639	-3.893	-3.942	-1.957	-1.678	-0.453	0.704	0.749	2.345	2.320	3.289	3.586	3.305	3.090	2.232	1.510	-0.184	-1.044	-1.489	-2.446	-3.341	-3.907	-4.654	-5.483	-5.059	-5.121	-5.060	-5.700	-5.268	-5.449	-4.890	-5.668	-6.082	-5.790
