Sample:	'1
File name:	Default_20230208_114513.FD3
Run date:	'11:38:52, 02/08/2023
Operator:	dsjg
Comment:	'

Instrument
Model:	F-2700 FL Spectrophotometer
Serial number:	2198-001
ROM Version:	4J14000 07

Instrument parameters
Measurement type:	3-D scan
Data mode:	Fluorescence
EX  Start WL:	220.0 nm
EX  End WL:	600.0 nm
EX Sampling interval:	5.0 nm
EM  Start WL:	230.0 nm
EM  End WL:	650.0 nm
EM Sampling interval:	5.0 nm
Scan speed:	12000 nm/min
EX Slit:	5.0 nm
EM Slit:	5.0 nm
PMT Voltage:	700 V
Response:	Auto 
Corrected spectra:	Off
Contour interval:	50.000

Peak integration
Integration method:	Rectangular
Sensitivity:	1
Threshold:	1.000

Peaks
No.	ApexEX/EM(nm)	Height(Data)
1	230.0/305.0	125.3
2	230.0/350.0	281.8
3	230.0/585.0	14.14
4	240.0/265.0	180.8
5	240.0/525.0	105.2
6	245.0/270.0	160.9
7	245.0/535.0	90.97
8	250.0/425.0	348.4
9	250.0/550.0	69.90
10	255.0/280.0	215.0
11	255.0/435.0	345.1
12	255.0/560.0	57.99
13	260.0/285.0	209.6
14	260.0/570.0	45.08
15	265.0/415.0	341.5
16	265.0/430.0	341.5
17	265.0/585.0	38.54
18	270.0/300.0	344.6
19	270.0/595.0	33.34
20	275.0/305.0	399.6
21	275.0/605.0	28.81
22	280.0/310.0	370.5
23	280.0/350.0	405.6
24	280.0/620.0	25.64
25	285.0/315.0	372.9
26	285.0/630.0	18.93
27	290.0/325.0	352.9
28	300.0/335.0	264.9
29	305.0/345.0	250.7
30	310.0/350.0	230.0
31	315.0/355.0	227.6
32	320.0/360.0	235.7
33	325.0/370.0	227.7
34	330.0/375.0	229.1
35	335.0/380.0	236.7
36	340.0/390.0	217.0
37	350.0/400.0	205.5
38	365.0/420.0	177.4
39	430.0/505.0	22.97
40	435.0/510.0	18.43
41	440.0/515.0	15.56
42	445.0/525.0	12.89
43	460.0/545.0	7.394
44	545.0/300.0	1.981
45	555.0/305.0	2.118
46	560.0/310.0	2.066
47	570.0/315.0	2.158
48	575.0/320.0	2.070
49	585.0/325.0	1.922

Data points
	220.0	225.0	230.0	235.0	240.0	245.0	250.0	255.0	260.0	265.0	270.0	275.0	280.0	285.0	290.0	295.0	300.0	305.0	310.0	315.0	320.0	325.0	330.0	335.0	340.0	345.0	350.0	355.0	360.0	365.0	370.0	375.0	380.0	385.0	390.0	395.0	400.0	405.0	410.0	415.0	420.0	425.0	430.0	435.0	440.0	445.0	450.0	455.0	460.0	465.0	470.0	475.0	480.0	485.0	490.0	495.0	500.0	505.0	510.0	515.0	520.0	525.0	530.0	535.0	540.0	545.0	550.0	555.0	560.0	565.0	570.0	575.0	580.0	585.0	590.0	595.0	600.0
230.0	10.20	394.0	819.4	215.9	5.792	2.128	1.667	1.218	1.047	0.979	0.867	0.896	0.747	0.533	0.571	0.504	0.506	0.385	0.432	0.388	0.346	0.314	0.312	0.315	0.274	0.286	0.245	0.231	0.233	0.231	0.180	0.195	0.178	0.170	0.159	0.234	0.264	0.244	0.234	0.215	0.208	0.172	0.161	0.176	0.137	0.133	0.205	0.859	2.683	3.223	1.469	0.284	0.101	0.086	0.095	0.073	0.063	0.062	0.058	0.054	0.045	0.051	0.039	0.034	0.033	0.036	0.044	0.025	0.017	0.017	0.017	0.014	0.016	0.017	0.008	0.007	0.008
235.0	9.349	124.4	740.7	 1314	320.9	11.28	2.359	1.917	1.044	1.349	1.045	0.796	0.954	0.609	0.636	0.646	0.448	0.372	0.423	0.379	0.343	0.384	0.318	0.359	0.331	0.329	0.271	0.258	0.221	0.247	0.127	0.180	0.183	0.152	0.154	0.211	0.219	0.263	0.235	0.206	0.171	0.179	0.122	0.177	0.171	0.224	0.144	0.290	0.940	2.424	4.257	5.977	3.205	0.703	0.113	0.086	0.042	0.056	0.054	0.059	0.022	0.045	0.049	0.056	0.023	0.024	0.030	0.034	0.021	0.026	0.038	0.016	0.010	0.020	0.016	0.008	0.007
240.0	19.28	40.36	274.4	 1385	 1637	244.2	6.034	2.410	1.436	1.594	0.993	1.013	0.814	0.693	0.840	0.592	0.662	0.535	0.468	0.319	0.387	0.390	0.332	0.308	0.279	0.299	0.286	0.198	0.223	0.195	0.178	0.173	0.165	0.146	0.146	0.203	0.164	0.259	0.268	0.226	0.219	0.161	0.157	0.136	0.222	0.243	0.162	0.177	0.299	0.694	1.985	6.339	9.535	7.156	2.530	0.338	0.083	0.102	0.067	0.041	0.060	0.040	0.055	0.063	0.041	0.014	0.025	0.029	0.036	0.028	0.031	0.013	0.013	0.025	0.016	0.012	0.020
245.0	25.41	46.92	77.52	578.9	 2076	 1598	162.8	4.005	2.494	1.813	1.222	1.372	0.885	0.917	0.679	0.577	0.578	0.718	0.400	0.468	0.521	0.426	0.388	0.386	0.308	0.247	0.251	0.230	0.211	0.194	0.136	0.205	0.199	0.191	0.170	0.170	0.186	0.181	0.311	0.207	0.240	0.162	0.175	0.167	0.187	0.205	0.235	0.243	0.205	0.261	0.533	2.046	5.928	10.61	11.22	6.169	1.489	0.176	0.065	0.048	0.067	0.043	0.051	0.066	0.031	0.014	0.022	0.035	0.038	0.025	0.028	0.010	0.019	0.006	0.015	0.002	0.016
250.0	11.89	45.19	84.84	162.5	776.6	 1939	 1982	603.4	21.81	3.158	2.093	1.640	1.133	1.164	0.824	0.765	0.626	0.666	0.535	0.495	0.427	0.376	0.335	0.379	0.315	0.291	0.345	0.261	0.252	0.222	0.209	0.262	0.183	0.193	0.159	0.149	0.154	0.133	0.228	0.191	0.258	0.197	0.186	0.165	0.164	0.195	0.193	0.300	0.352	0.396	0.345	0.597	1.540	3.448	6.347	9.436	11.77	10.12	5.360	1.538	0.185	0.058	0.056	0.042	0.038	0.041	0.041	0.026	0.046	0.026	0.036	0.012	0.026	0.018	0.020	0.018	0.006
255.0	4.687	17.61	84.42	149.6	204.3	538.1	 1884	 2886	243.4	20.08	3.755	1.890	1.802	1.221	0.982	1.085	0.678	0.633	0.628	0.548	0.495	0.347	0.431	0.359	0.312	0.424	0.257	0.348	0.297	0.310	0.237	0.232	0.222	0.165	0.141	0.159	0.130	0.184	0.202	0.145	0.218	0.257	0.241	0.193	0.172	0.193	0.195	0.193	0.213	0.367	0.552	0.663	0.650	0.886	1.540	2.315	4.465	9.950	16.78	16.17	8.094	1.774	0.115	0.049	0.053	0.051	0.054	0.050	0.040	0.014	0.041	0.023	0.043	0.044	0.024	0.009	0.005
260.0	4.309	7.426	38.08	145.4	140.6	139.2	639.9	 2607	 2850	199.6	10.09	3.432	2.042	1.611	1.244	1.176	1.027	0.640	0.647	0.541	0.489	0.365	0.446	0.402	0.374	0.348	0.330	0.388	0.282	0.307	0.270	0.223	0.237	0.167	0.114	0.127	0.127	0.158	0.153	0.130	0.206	0.235	0.288	0.236	0.239	0.186	0.181	0.145	0.157	0.191	0.414	0.689	0.925	0.667	0.566	0.614	1.106	2.772	7.450	15.45	20.66	15.95	5.658	0.555	0.066	0.043	0.071	0.046	0.042	0.040	0.036	0.032	0.029	0.045	0.025	0.012	0.023
265.0	6.049	5.663	13.09	75.69	180.8	102.7	160.9	990.7	 3265	 1698	155.2	5.529	2.670	1.872	1.598	1.173	1.090	0.709	0.737	0.566	0.523	0.452	0.471	0.354	0.502	0.349	0.341	0.395	0.258	0.342	0.264	0.261	0.268	0.177	0.160	0.109	0.141	0.119	0.170	0.140	0.160	0.209	0.208	0.220	0.208	0.203	0.187	0.153	0.155	0.123	0.200	0.302	0.729	1.057	0.759	0.406	0.357	0.774	1.856	4.736	11.46	20.84	22.14	13.06	3.068	0.195	0.057	0.059	0.047	0.040	0.019	0.029	0.031	0.042	0.022	0.037	0.025
270.0	10.87	13.39	16.45	28.38	93.94	160.9	125.6	246.4	 1109	 2535	 2599	670.9	37.40	3.034	2.125	1.683	1.235	1.100	0.856	0.622	0.702	0.496	0.548	0.460	0.476	0.383	0.343	0.420	0.312	0.334	0.277	0.296	0.271	0.237	0.177	0.154	0.202	0.145	0.145	0.130	0.139	0.140	0.168	0.224	0.208	0.250	0.198	0.200	0.157	0.174	0.154	0.180	0.298	0.522	0.709	0.922	0.901	0.568	0.613	1.153	2.810	6.298	11.10	16.77	19.22	16.37	9.518	2.905	0.248	0.050	0.038	0.038	0.048	0.047	0.047	0.034	0.038
275.0	23.11	36.88	39.81	21.99	31.09	84.90	184.7	160.6	271.0	673.7	 2150	 4030	993.3	40.42	3.279	2.157	1.803	1.299	1.012	0.789	0.767	0.610	0.510	0.573	0.484	0.383	0.379	0.438	0.323	0.393	0.292	0.311	0.278	0.258	0.228	0.218	0.172	0.144	0.127	0.120	0.145	0.121	0.144	0.125	0.233	0.305	0.267	0.307	0.262	0.285	0.214	0.171	0.177	0.236	0.273	0.488	0.826	1.104	1.040	0.636	0.752	1.568	2.652	4.022	6.338	12.78	22.66	24.46	13.08	2.441	0.079	0.057	0.038	0.049	0.024	0.054	0.040
280.0	32.88	55.96	62.51	32.05	20.04	34.08	135.9	215.0	138.0	180.6	685.5	 2906	 4046	736.8	14.54	2.981	2.025	1.528	1.196	0.907	0.883	0.759	0.708	0.618	0.574	0.490	0.418	0.439	0.392	0.381	0.297	0.356	0.254	0.234	0.255	0.180	0.184	0.174	0.121	0.169	0.156	0.149	0.132	0.153	0.234	0.286	0.330	0.375	0.367	0.329	0.244	0.206	0.182	0.194	0.171	0.252	0.380	0.708	1.203	1.224	0.800	0.565	0.761	1.083	1.592	3.566	8.603	18.26	27.07	21.83	8.152	0.789	0.080	0.059	0.047	0.104	0.052
285.0	38.87	76.50	79.24	41.56	20.72	22.88	64.44	189.0	209.6	100.6	197.4	987.5	 3322	 3752	101.7	5.798	2.883	1.754	1.426	1.123	1.004	0.878	0.805	0.676	0.557	0.432	0.476	0.566	0.395	0.357	0.264	0.278	0.294	0.221	0.219	0.170	0.163	0.157	0.147	0.152	0.127	0.135	0.130	0.143	0.160	0.260	0.344	0.471	0.434	0.433	0.268	0.259	0.171	0.207	0.197	0.206	0.200	0.367	0.677	1.091	1.586	0.984	0.506	0.447	0.557	1.048	2.175	5.240	12.58	23.00	27.27	16.84	3.816	0.197	0.106	0.071	0.069
290.0	42.58	94.07	94.85	53.34	28.77	24.71	40.75	96.84	204.1	221.7	145.8	287.7	 1049	 2613	 3152	 1318	25.85	2.932	2.032	1.434	1.220	1.014	0.824	0.771	0.655	0.513	0.450	0.554	0.415	0.395	0.332	0.381	0.330	0.256	0.242	0.258	0.172	0.166	0.174	0.159	0.118	0.140	0.151	0.124	0.155	0.268	0.344	0.524	0.544	0.464	0.353	0.316	0.229	0.217	0.233	0.219	0.215	0.264	0.354	0.545	0.911	1.188	1.379	1.185	0.725	0.610	0.816	1.472	3.217	6.608	11.72	17.58	20.61	18.28	10.30	2.644	0.167
295.0	47.40	99.75	109.4	66.04	38.08	33.47	43.03	65.42	121.6	246.3	298.4	190.0	316.2	688.5	 1715	 3849	599.6	28.36	3.076	2.251	1.627	1.226	1.018	0.779	0.826	0.637	0.495	0.584	0.556	0.475	0.377	0.330	0.360	0.322	0.226	0.334	0.199	0.217	0.237	0.180	0.130	0.161	0.162	0.147	0.225	0.231	0.335	0.460	0.492	0.514	0.366	0.362	0.285	0.267	0.293	0.236	0.286	0.323	0.338	0.403	0.533	0.642	0.948	1.520	1.812	1.446	0.928	0.797	1.163	1.926	2.948	4.340	6.332	11.83	23.47	26.49	13.56
300.0	55.31	105.9	116.9	75.07	44.65	40.54	53.93	67.55	99.99	188.9	344.6	289.9	185.6	232.6	527.3	 2247	 3924	491.4	12.14	3.052	1.993	1.550	1.321	0.931	0.782	0.672	0.671	0.580	0.567	0.536	0.438	0.406	0.282	0.321	0.283	0.298	0.246	0.219	0.248	0.221	0.174	0.172	0.169	0.172	0.198	0.229	0.333	0.384	0.480	0.565	0.457	0.415	0.324	0.363	0.283	0.255	0.312	0.356	0.397	0.450	0.467	0.528	0.723	1.057	1.552	1.981	1.767	1.143	0.889	0.925	1.086	1.361	1.699	3.269	8.702	19.10	29.00
305.0	53.28	105.4	125.3	82.36	53.13	52.15	62.37	79.23	107.1	155.8	288.4	399.6	235.6	153.1	182.1	711.5	 2765	 3813	64.63	5.935	2.497	1.862	1.590	1.272	1.060	0.777	0.745	0.676	0.691	0.653	0.545	0.437	0.330	0.329	0.300	0.284	0.267	0.198	0.232	0.239	0.165	0.179	0.158	0.212	0.155	0.236	0.308	0.371	0.526	0.492	0.481	0.447	0.405	0.357	0.345	0.311	0.416	0.377	0.442	0.530	0.535	0.592	0.629	0.950	1.000	1.532	2.116	2.118	1.332	0.930	0.778	0.810	0.779	1.101	2.185	5.470	13.26
310.0	52.85	105.5	120.7	87.94	64.29	63.38	74.17	95.05	125.8	167.6	231.8	335.0	370.5	226.4	127.1	209.9	805.6	 2370	 3149	 1289	19.64	2.626	2.088	1.528	1.273	1.044	0.843	0.772	0.684	0.621	0.522	0.412	0.394	0.338	0.334	0.320	0.271	0.244	0.238	0.250	0.175	0.169	0.175	0.209	0.184	0.259	0.301	0.376	0.488	0.461	0.472	0.463	0.408	0.395	0.437	0.402	0.434	0.431	0.484	0.581	0.598	0.719	0.713	0.897	0.902	1.133	1.331	1.754	2.066	1.793	1.408	0.960	0.707	0.613	0.845	1.476	3.269
315.0	58.21	102.1	128.3	103.5	75.16	77.49	92.11	115.9	146.7	183.7	235.1	282.2	336.4	372.9	191.2	113.8	219.1	578.2	 1449	 3775	 1728	22.74	2.738	1.803	1.535	1.142	0.996	0.831	0.677	0.633	0.600	0.416	0.422	0.413	0.409	0.304	0.281	0.276	0.248	0.194	0.172	0.172	0.196	0.181	0.187	0.240	0.331	0.420	0.495	0.479	0.476	0.492	0.561	0.432	0.446	0.470	0.478	0.487	0.575	0.612	0.612	0.876	0.849	0.950	1.021	1.169	1.312	1.452	1.526	1.636	2.158	1.936	1.230	0.658	0.621	0.711	0.954
320.0	58.28	113.1	143.6	112.6	88.81	83.59	102.7	129.1	162.8	205.3	256.7	286.2	304.7	361.9	311.0	125.6	101.0	162.4	399.0	 1980	 4021	380.4	11.77	2.517	1.837	1.482	1.017	1.018	0.930	0.696	0.563	0.547	0.519	0.418	0.376	0.289	0.292	0.289	0.281	0.209	0.238	0.189	0.219	0.171	0.190	0.279	0.313	0.456	0.500	0.569	0.440	0.523	0.487	0.491	0.544	0.551	0.527	0.523	0.627	0.621	0.764	0.820	0.977	1.101	1.181	1.139	1.243	1.428	1.402	1.477	1.723	2.070	2.017	1.194	0.746	0.601	0.568
325.0	63.12	139.0	161.3	131.1	99.53	96.28	113.8	139.9	182.6	224.6	278.6	302.0	308.0	309.6	352.9	209.0	89.87	77.26	116.7	560.1	 2594	 3195	299.3	5.426	2.285	1.683	1.271	1.230	0.904	0.836	0.641	0.620	0.479	0.473	0.349	0.358	0.323	0.357	0.275	0.244	0.255	0.225	0.215	0.235	0.217	0.278	0.374	0.475	0.623	0.583	0.522	0.602	0.533	0.555	0.520	0.560	0.634	0.637	0.695	0.676	0.925	0.945	1.051	1.144	1.253	1.353	1.402	1.475	1.480	1.541	1.512	1.669	1.868	1.922	1.322	0.749	0.596
330.0	71.89	159.2	200.0	167.6	124.7	118.3	128.7	158.2	204.2	254.4	307.6	337.3	330.6	302.6	292.0	280.9	174.9	76.13	65.95	153.1	703.0	 2109	 2901	 1154	17.85	2.483	1.814	1.581	1.074	0.909	0.853	0.695	0.535	0.493	0.410	0.401	0.331	0.380	0.294	0.251	0.219	0.239	0.214	0.238	0.245	0.320	0.402	0.604	0.743	0.712	0.638	0.744	0.622	0.641	0.587	0.601	0.747	0.706	0.749	0.812	0.955	1.106	1.168	1.338	1.263	1.448	1.544	1.556	1.698	1.578	1.548	1.632	1.586	1.542	1.652	1.557	1.165
335.0	79.14	176.4	234.8	209.0	159.2	136.7	151.7	179.1	227.0	280.5	335.2	366.3	364.2	327.0	277.0	237.9	264.9	159.5	72.18	76.33	187.2	507.3	 1330	 3684	 1647	22.01	2.537	2.123	1.566	1.062	1.006	0.725	0.591	0.594	0.508	0.458	0.420	0.325	0.290	0.300	0.264	0.220	0.222	0.216	0.284	0.313	0.441	0.615	0.834	0.790	0.807	0.795	0.737	0.715	0.683	0.650	0.887	0.757	0.829	1.024	1.068	1.221	1.260	1.523	1.523	1.556	1.763	1.692	1.817	1.772	1.792	1.613	1.615	1.360	1.302	1.244	1.596
340.0	351.7	185.1	257.6	230.9	186.6	169.2	171.0	197.1	246.3	296.2	354.2	383.1	386.7	350.5	292.9	228.4	237.2	245.4	114.8	70.96	82.42	143.9	354.1	 1949	 3949	334.3	11.85	2.559	1.674	1.235	1.109	0.743	0.713	0.619	0.505	0.432	0.428	0.311	0.323	0.306	0.262	0.233	0.230	0.251	0.294	0.398	0.460	0.624	0.828	0.873	0.837	0.997	0.815	0.724	0.778	0.727	0.780	0.878	0.950	0.984	1.086	1.163	1.516	1.575	1.605	1.708	1.765	1.840	1.780	1.805	1.817	1.743	1.800	1.489	1.266	1.171	1.292
345.0	144.7	194.7	278.0	257.4	201.1	186.7	184.2	215.1	258.6	309.4	365.2	397.0	402.1	364.9	308.2	233.4	203.0	250.7	194.4	90.59	68.93	71.86	108.9	541.2	 2676	 2751	264.9	5.409	2.417	1.492	1.179	1.049	0.755	0.775	0.486	0.547	0.445	0.391	0.360	0.276	0.292	0.260	0.226	0.225	0.311	0.446	0.504	0.688	0.823	0.929	0.927	0.950	0.930	0.892	0.924	0.812	0.839	0.892	0.937	1.050	1.104	1.235	1.435	1.666	1.644	1.786	1.751	1.925	1.911	1.905	1.853	1.840	1.747	1.550	1.368	1.222	1.139
350.0	196.3	192.1	281.8	278.3	225.1	200.0	203.2	230.4	268.7	318.5	367.9	398.8	405.6	375.1	323.0	250.3	204.6	201.1	230.0	178.3	95.24	72.36	66.71	152.4	717.5	 2001	 2664	 1026	16.71	2.212	1.637	1.234	0.932	0.801	0.580	0.518	0.474	0.400	0.338	0.344	0.288	0.252	0.226	0.268	0.278	0.386	0.462	0.676	0.907	0.907	0.972	1.118	1.036	0.949	0.895	0.907	0.996	0.990	0.997	1.119	1.179	1.389	1.535	1.590	1.645	1.735	1.776	1.842	1.945	1.913	1.921	1.912	1.855	1.661	1.431	1.281	1.233
355.0	124.1	179.1	277.6	290.7	252.7	225.5	232.1	244.6	283.0	323.3	372.8	399.2	403.9	380.5	331.5	268.7	221.1	198.5	195.2	227.6	177.6	98.15	76.43	78.80	192.5	478.4	 1256	 3399	 1450	21.95	2.279	1.569	1.066	0.835	0.678	0.542	0.521	0.435	0.413	0.340	0.304	0.276	0.267	0.280	0.305	0.388	0.516	0.767	0.922	1.067	0.932	1.216	1.209	1.103	0.992	0.951	1.111	1.125	1.123	1.257	1.295	1.440	1.532	1.564	1.735	1.847	1.745	1.846	1.826	2.132	2.114	1.975	1.847	1.683	1.548	1.352	1.276
360.0	92.74	180.3	265.1	290.9	266.6	245.5	243.4	261.7	294.7	328.8	371.1	395.6	402.4	383.5	336.5	281.2	237.6	209.4	192.7	205.3	235.7	146.7	92.74	76.65	84.21	135.0	329.2	 1843	 3550	317.6	11.70	1.977	1.471	1.052	0.881	0.556	0.574	0.481	0.447	0.378	0.332	0.304	0.292	0.242	0.291	0.361	0.508	0.718	0.887	0.990	0.978	1.197	1.191	1.125	1.075	1.070	1.117	1.182	1.250	1.270	1.324	1.405	1.605	1.679	1.770	1.783	1.855	1.867	1.827	2.011	1.978	1.909	1.978	1.677	1.622	1.497	1.417
365.0	83.24	175.0	265.8	299.5	278.3	253.2	258.9	268.5	293.2	334.0	373.4	394.2	398.1	381.5	340.0	287.5	253.6	222.8	204.3	194.4	229.7	212.3	123.5	88.34	72.01	68.24	99.79	504.3	 2484	 2590	248.1	4.502	1.915	1.405	0.947	0.665	0.600	0.565	0.450	0.388	0.352	0.287	0.332	0.261	0.304	0.423	0.424	0.635	0.890	0.891	0.981	1.184	1.252	1.132	1.115	1.229	1.173	1.169	1.212	1.281	1.421	1.456	1.528	1.733	1.807	1.831	1.870	1.873	1.894	1.888	1.996	2.015	2.003	1.731	1.639	1.578	1.449
370.0	82.38	172.8	265.9	303.9	293.9	274.4	272.0	281.0	304.3	336.4	365.6	384.8	391.2	373.0	341.9	295.0	264.1	243.3	225.1	208.5	206.4	227.7	200.3	125.8	88.69	68.98	61.84	139.9	668.2	 1930	 2562	899.1	14.49	1.872	1.226	0.887	0.726	0.555	0.461	0.415	0.391	0.367	0.305	0.301	0.330	0.399	0.518	0.673	0.854	0.918	0.927	1.250	1.278	1.255	1.206	1.248	1.214	1.229	1.314	1.410	1.482	1.472	1.517	1.681	1.767	1.709	1.868	1.776	1.862	1.930	1.936	1.974	1.933	1.739	1.620	1.609	1.455
375.0	75.94	167.9	267.1	306.9	310.1	291.4	287.2	293.2	308.3	338.8	362.3	375.3	377.5	364.5	338.7	300.6	276.8	260.3	245.1	228.9	211.9	208.1	229.1	201.5	121.2	87.00	68.22	69.48	175.4	457.4	 1246	 3045	 1253	18.37	1.798	1.193	0.883	0.678	0.527	0.451	0.518	0.376	0.349	0.399	0.340	0.406	0.534	0.641	0.836	0.939	0.932	1.324	1.269	1.276	1.250	1.313	1.325	1.357	1.295	1.349	1.421	1.551	1.497	1.784	1.901	1.820	1.687	1.775	1.758	1.837	1.907	1.907	1.656	1.790	1.570	1.713	1.507
380.0	80.29	157.6	267.3	293.5	315.0	308.4	296.0	295.0	307.8	333.4	360.6	370.4	368.3	361.1	334.2	303.2	286.8	273.0	257.9	241.3	225.4	210.1	212.4	236.7	167.3	104.7	81.00	63.85	73.51	126.2	319.9	 1685	 3061	267.9	8.883	1.645	1.125	0.803	0.639	0.495	0.506	0.385	0.383	0.342	0.352	0.413	0.468	0.637	0.905	0.946	0.988	1.230	1.314	1.297	1.380	1.288	1.335	1.317	1.348	1.296	1.402	1.495	1.621	1.822	1.782	1.831	1.711	1.877	1.788	1.805	1.827	1.815	1.723	1.743	1.714	1.663	1.587
385.0	81.89	164.8	262.2	302.6	317.2	312.4	303.2	301.3	310.4	336.7	352.6	364.7	361.6	354.2	332.6	302.8	288.6	277.0	264.7	251.7	237.8	220.5	207.8	224.3	216.2	133.4	94.39	72.81	60.28	58.12	92.42	460.9	 2183	 2168	197.8	3.292	1.392	1.091	0.834	0.558	0.510	0.430	0.390	0.366	0.360	0.443	0.494	0.653	0.850	0.902	1.054	1.273	1.311	1.324	1.397	1.352	1.366	1.396	1.394	1.470	1.531	1.566	1.525	1.636	1.684	1.673	1.768	1.693	1.729	1.710	1.735	1.777	1.653	1.604	1.647	1.708	1.732
390.0	75.85	162.4	254.9	308.8	322.0	323.9	311.0	312.5	316.9	333.2	348.8	356.1	357.2	345.4	327.5	302.7	291.2	281.6	272.4	261.9	248.6	234.3	219.2	208.6	217.0	192.3	130.5	91.71	71.58	55.35	50.97	124.0	586.6	 1595	 1963	682.7	11.87	1.346	0.970	0.683	0.562	0.504	0.380	0.400	0.394	0.437	0.529	0.661	0.870	0.935	1.006	1.323	1.294	1.419	1.384	1.421	1.438	1.446	1.329	1.437	1.483	1.583	1.525	1.655	1.546	1.673	1.683	1.623	1.640	1.722	1.781	1.831	1.826	1.667	1.629	1.687	1.646
395.0	72.91	158.4	240.7	313.5	327.6	327.7	323.9	316.8	320.2	331.3	342.4	352.3	345.6	341.9	321.4	297.7	288.4	280.6	276.9	268.4	258.5	244.8	233.0	216.1	202.3	206.6	186.3	122.9	89.64	69.25	50.81	57.74	150.4	376.3	973.7	 2330	949.8	14.36	1.427	0.987	0.739	0.613	0.502	0.436	0.449	0.473	0.584	0.703	0.764	0.888	0.978	1.339	1.412	1.405	1.487	1.424	1.580	1.397	1.446	1.458	1.495	1.541	1.638	1.675	1.572	1.581	1.556	1.576	1.753	1.734	1.797	1.664	1.740	1.716	1.745	1.650	1.718
400.0	74.82	164.3	248.0	311.7	331.4	332.2	329.6	322.1	320.9	330.6	343.5	344.9	341.9	329.9	313.6	297.1	287.4	281.4	278.3	270.2	264.5	251.8	241.2	223.9	203.4	193.3	205.5	164.6	108.3	82.49	63.28	49.25	59.10	100.7	249.8	 1312	 2323	224.4	6.986	1.355	0.877	0.662	0.587	0.497	0.511	0.528	0.584	0.718	0.782	0.951	0.976	1.316	1.400	1.427	1.479	1.425	1.538	1.507	1.608	1.589	1.411	1.577	1.657	1.525	1.668	1.589	1.528	1.547	1.642	1.714	1.571	1.677	1.706	1.641	1.681	1.567	1.604
405.0	70.61	156.8	244.8	313.1	341.7	338.7	331.9	327.8	330.4	336.2	341.1	345.3	339.6	330.7	309.4	293.9	281.5	280.2	275.1	268.6	264.4	257.3	243.4	229.3	209.8	193.2	196.6	196.6	135.7	96.61	74.00	55.18	44.45	43.86	70.94	356.1	 1659	 1790	166.4	2.605	1.106	0.760	0.543	0.518	0.450	0.440	0.586	0.647	0.735	0.908	0.991	1.191	1.424	1.304	1.457	1.395	1.601	1.608	1.564	1.448	1.496	1.598	1.570	1.570	1.592	1.618	1.526	1.581	1.557	1.605	1.614	1.654	1.602	1.565	1.607	1.718	1.556
410.0	72.44	149.9	244.4	304.4	342.2	344.2	337.2	333.9	330.0	337.3	341.8	338.5	330.6	320.5	303.2	288.8	275.8	273.6	269.5	266.6	261.6	255.1	244.8	233.4	218.0	199.7	187.4	189.7	176.0	127.4	90.26	67.72	50.40	38.80	35.65	93.67	458.1	 1293	 1505	534.8	9.908	1.133	0.746	0.550	0.497	0.490	0.625	0.623	0.817	0.895	0.995	1.278	1.459	1.438	1.478	1.440	1.711	1.536	1.579	1.669	1.543	1.540	1.577	1.682	1.585	1.553	1.527	1.512	1.611	1.578	1.585	1.605	1.589	1.569	1.521	1.643	1.612
