Sample:	'1
File name:	支脉河庐山路15.FD3
Run date:	'19:25:31, 06/11/2025
Operator:	Administrator
Comment:	'

Instrument
Model:	F-2700 FL Spectrophotometer
Serial number:	23B8-004
ROM Version:	4J14000 07

Instrument parameters
Measurement type:	3-D scan
Data mode:	Fluorescence
EX  Start WL:	220.0 nm
EX  End WL:	600.0 nm
EX Sampling interval:	5.0 nm
EM  Start WL:	230.0 nm
EM  End WL:	650.0 nm
EM Sampling interval:	5.0 nm
Scan speed:	12000 nm/min
EX Slit:	5.0 nm
EM Slit:	5.0 nm
PMT Voltage:	700 V
Response:	Auto 
Corrected spectra:	Off
Contour interval:	50.000

Peak integration
Integration method:	Rectangular
Sensitivity:	1
Threshold:	1.000

Peaks
No.	ApexEX/EM(nm)	Height(Data)
1	225.0/340.0	668.5
2	225.0/560.0	50.97
3	225.0/575.0	39.96
4	225.0/585.0	41.34
5	230.0/375.0	532.4
6	230.0/395.0	515.2
7	230.0/500.0	282.3
8	235.0/415.0	501.3
9	235.0/510.0	232.5
10	240.0/260.0	371.5
11	240.0/525.0	202.9
12	245.0/270.0	361.3
13	245.0/535.0	174.4
14	250.0/275.0	437.1
15	250.0/415.0	474.7
16	250.0/545.0	148.2
17	255.0/280.0	565.0
18	255.0/560.0	127.0
19	260.0/285.0	564.6
20	260.0/435.0	480.0
21	260.0/570.0	99.79
22	265.0/440.0	482.1
23	265.0/585.0	90.87
24	270.0/300.0	791.6
25	270.0/595.0	82.40
26	275.0/305.0	949.3
27	275.0/610.0	71.99
28	280.0/310.0	825.7
29	280.0/625.0	60.08
30	285.0/315.0	770.2
31	285.0/635.0	44.49
32	290.0/325.0	658.3
33	295.0/330.0	494.1
34	300.0/335.0	439.7
35	305.0/345.0	363.9
36	310.0/350.0	301.7
37	315.0/355.0	287.5
38	320.0/360.0	278.2
39	325.0/370.0	252.9
40	330.0/375.0	248.1
41	335.0/380.0	253.1
42	345.0/395.0	206.9
43	350.0/400.0	209.8
44	355.0/405.0	200.3
45	365.0/420.0	179.9
46	370.0/425.0	168.0
47	415.0/485.0	39.09
48	420.0/490.0	33.61
49	425.0/495.0	28.62
50	430.0/505.0	25.29
51	435.0/510.0	20.41
52	440.0/515.0	17.55
53	445.0/525.0	15.93
54	460.0/545.0	8.410
55	495.0/270.0	2.065
56	505.0/275.0	3.123
57	510.0/280.0	3.176
58	520.0/285.0	3.619
59	530.0/290.0	3.539
60	540.0/295.0	4.742
61	545.0/300.0	5.051
62	555.0/305.0	4.927
63	565.0/310.0	4.396
64	575.0/315.0	4.614
65	580.0/320.0	4.537
66	585.0/325.0	4.216

Data points
	220.0	225.0	230.0	235.0	240.0	245.0	250.0	255.0	260.0	265.0	270.0	275.0	280.0	285.0	290.0	295.0	300.0	305.0	310.0	315.0	320.0	325.0	330.0	335.0	340.0	345.0	350.0	355.0	360.0	365.0	370.0	375.0	380.0	385.0	390.0	395.0	400.0	405.0	410.0	415.0	420.0	425.0	430.0	435.0	440.0	445.0	450.0	455.0	460.0	465.0	470.0	475.0	480.0	485.0	490.0	495.0	500.0	505.0	510.0	515.0	520.0	525.0	530.0	535.0	540.0	545.0	550.0	555.0	560.0	565.0	570.0	575.0	580.0	585.0	590.0	595.0	600.0
230.0	65.02	793.1	3072	1435	86.69	6.290	4.549	4.493	3.589	3.079	2.908	2.792	2.431	1.775	1.592	1.505	1.131	1.105	1.026	0.879	0.776	0.794	0.669	0.738	0.641	0.581	0.549	0.536	0.499	0.491	0.498	0.486	0.437	0.433	0.330	0.398	0.397	0.399	0.296	0.340	0.390	0.540	0.640	0.489	0.325	0.307	0.789	4.482	9.891	8.979	4.041	0.893	0.259	0.215	0.228	0.232	0.215	0.218	0.200	0.205	0.220	0.204	0.187	0.181	0.197	0.191	0.206	0.207	0.176	0.205	0.213	0.193	0.167	0.190	0.178	0.207	0.206
235.0	166.0	241.9	1418	3078	644.4	133.2	7.343	5.157	3.843	3.253	3.104	2.814	2.480	1.711	1.883	1.475	1.134	1.234	0.900	0.989	0.864	0.771	0.826	0.771	0.818	0.635	0.513	0.539	0.562	0.481	0.531	0.453	0.433	0.360	0.327	0.417	0.421	0.443	0.304	0.309	0.378	0.395	0.501	0.544	0.673	0.542	0.406	1.254	3.159	5.731	9.576	11.84	6.811	1.719	0.309	0.224	0.231	0.203	0.228	0.236	0.209	0.194	0.203	0.254	0.236	0.201	0.227	0.219	0.162	0.205	0.191	0.222	0.185	0.190	0.180	0.231	0.177
240.0	202.1	209.5	394.7	1930	3401	537.2	69.45	6.610	4.613	4.023	3.394	3.145	2.518	1.758	1.887	1.707	1.475	1.178	1.059	1.064	0.854	0.783	0.925	0.763	0.728	0.661	0.532	0.609	0.614	0.493	0.511	0.415	0.476	0.423	0.422	0.327	0.349	0.401	0.319	0.293	0.401	0.385	0.438	0.413	0.783	0.833	0.600	0.528	0.862	1.582	3.846	10.86	15.93	13.57	5.610	1.115	0.284	0.255	0.222	0.240	0.255	0.206	0.204	0.195	0.207	0.195	0.220	0.172	0.164	0.194	0.172	0.263	0.222	0.183	0.201	0.207	0.174
245.0	122.4	283.8	194.2	565.8	2767	3703	417.9	29.32	6.267	5.123	4.333	3.451	3.062	2.371	2.079	1.794	1.807	1.313	1.155	1.088	0.801	0.837	0.802	0.558	0.703	0.572	0.500	0.501	0.571	0.449	0.488	0.478	0.529	0.516	0.475	0.327	0.301	0.377	0.402	0.314	0.343	0.336	0.349	0.350	0.497	0.635	0.768	0.790	0.490	0.590	1.073	3.081	8.550	16.94	20.50	13.12	4.571	0.687	0.241	0.273	0.306	0.206	0.228	0.232	0.202	0.204	0.231	0.229	0.197	0.217	0.146	0.217	0.232	0.221	0.173	0.211	0.186
250.0	50.32	162.5	263.8	253.9	783.9	2664	3830	1461	112.4	7.909	5.940	4.491	3.773	2.945	2.576	1.911	1.611	1.441	1.251	1.185	1.002	0.912	0.788	0.732	0.675	0.658	0.612	0.481	0.557	0.562	0.471	0.476	0.453	0.451	0.483	0.364	0.330	0.406	0.299	0.340	0.351	0.356	0.312	0.317	0.374	0.360	0.463	0.746	0.967	0.992	0.816	1.016	2.185	4.852	9.593	15.10	21.68	20.81	13.09	4.632	0.762	0.258	0.296	0.224	0.215	0.240	0.227	0.233	0.229	0.209	0.147	0.189	0.219	0.210	0.238	0.230	0.203
255.0	28.78	58.73	147.2	344.1	313.8	641.7	2151	6032	2113	145.1	9.021	7.023	4.054	3.785	2.676	1.987	1.995	1.535	1.308	1.184	1.160	1.003	0.919	0.814	0.757	0.652	0.625	0.652	0.614	0.601	0.560	0.562	0.494	0.477	0.412	0.464	0.333	0.331	0.338	0.330	0.333	0.370	0.326	0.275	0.393	0.384	0.354	0.339	0.519	0.754	1.316	1.537	1.233	1.369	2.448	3.705	6.327	14.48	29.91	30.45	21.08	6.316	0.608	0.269	0.292	0.248	0.265	0.250	0.197	0.253	0.210	0.221	0.224	0.218	0.239	0.241	0.215
260.0	34.99	30.35	54.34	233.5	371.5	230.5	575.9	3707	7396	1697	86.42	8.616	5.730	4.245	3.027	2.420	2.258	1.558	1.308	1.314	1.257	1.108	0.833	0.786	0.828	0.792	0.624	0.628	0.607	0.610	0.660	0.552	0.563	0.507	0.487	0.545	0.357	0.422	0.371	0.332	0.379	0.435	0.328	0.320	0.365	0.375	0.296	0.293	0.385	0.402	0.693	1.526	1.994	1.518	0.963	1.077	1.758	3.876	10.35	24.79	43.40	30.77	17.86	3.248	0.364	0.303	0.257	0.225	0.201	0.270	0.286	0.285	0.221	0.271	0.253	0.213	0.273
265.0	31.78	27.40	29.84	95.40	352.1	320.2	178.4	1066	5663	8117	1271	32.21	7.925	5.031	4.078	3.284	2.527	2.168	1.852	1.466	1.264	1.137	0.942	0.949	0.952	0.596	0.882	0.723	0.628	0.568	0.599	0.646	0.553	0.526	0.482	0.501	0.419	0.428	0.405	0.400	0.460	0.376	0.428	0.405	0.393	0.325	0.345	0.276	0.284	0.274	0.353	0.715	1.415	2.290	1.951	1.016	0.736	1.133	2.674	6.733	18.03	36.38	54.94	28.02	12.49	1.433	0.356	0.305	0.235	0.232	0.257	0.318	0.236	0.225	0.238	0.211	0.291
270.0	41.47	33.30	26.35	39.42	143.8	361.3	327.1	306.5	1574	5537	8679	3407	76.08	8.889	5.840	3.897	3.054	2.355	1.984	1.691	1.511	1.222	1.286	1.105	0.914	0.813	0.796	0.759	0.750	0.612	0.667	0.620	0.599	0.525	0.570	0.492	0.466	0.450	0.485	0.373	0.438	0.349	0.375	0.451	0.403	0.367	0.345	0.332	0.310	0.311	0.281	0.406	0.573	1.033	1.675	2.065	2.006	1.220	1.041	1.827	4.421	9.623	20.82	32.67	46.42	43.31	19.18	9.606	1.630	0.358	0.299	0.336	0.294	0.260	0.249	0.252	0.279
275.0	75.89	62.42	40.55	34.62	54.31	141.7	437.1	375.5	405.3	1303	4089	9999.9	1336	89.11	8.884	5.582	3.996	2.936	2.362	1.904	1.797	1.576	1.125	1.056	0.967	0.892	0.861	0.949	0.727	0.666	0.753	0.729	0.691	0.652	0.630	0.570	0.539	0.516	0.373	0.426	0.417	0.423	0.438	0.389	0.431	0.477	0.406	0.452	0.345	0.315	0.296	0.343	0.424	0.511	0.609	0.909	1.817	3.123	2.862	1.351	1.374	2.459	5.069	7.813	11.87	21.84	47.98	72.33	29.89	12.97	1.205	0.400	0.346	0.310	0.242	0.250	0.326
280.0	102.9	84.88	64.57	49.13	37.15	61.29	228.5	565.0	293.8	343.3	1053	6055	9999.9	1063	47.66	8.599	5.683	3.624	2.830	2.367	2.105	1.753	1.476	1.132	1.080	1.035	0.998	0.846	0.853	0.772	0.796	0.837	0.764	0.652	0.665	0.620	0.536	0.647	0.416	0.487	0.493	0.479	0.458	0.490	0.516	0.534	0.468	0.531	0.425	0.356	0.347	0.402	0.407	0.354	0.460	0.547	0.808	1.838	3.176	3.019	1.820	1.167	1.477	2.170	3.090	5.469	14.03	37.14	65.15	75.67	26.23	7.217	0.574	0.341	0.324	0.266	0.314
285.0	158.6	147.0	104.4	62.77	41.25	46.99	95.67	386.7	564.6	204.9	300.6	1654	8307	8936	734.6	19.45	7.315	5.029	3.769	2.454	2.173	1.926	1.622	1.392	1.076	1.056	1.038	0.929	0.934	0.781	0.879	0.864	0.759	0.774	0.754	0.773	0.653	0.649	0.539	0.623	0.518	0.621	0.484	0.588	0.536	0.575	0.574	0.647	0.544	0.453	0.371	0.433	0.478	0.408	0.411	0.474	0.452	0.844	1.509	2.944	3.619	2.658	1.372	0.968	1.204	1.751	3.571	9.251	21.55	51.30	75.24	34.66	20.41	3.313	0.427	0.335	0.371
290.0	199.2	200.5	161.5	100.8	58.85	55.74	70.55	162.2	453.9	478.9	229.2	483.3	2226	6648	8532	2567	40.86	7.318	4.893	3.640	2.878	2.326	1.857	1.631	1.405	1.257	1.218	0.958	1.091	1.019	0.867	0.880	0.853	0.835	0.909	0.896	0.822	0.812	0.712	0.648	0.587	0.662	0.621	0.612	0.690	0.652	0.722	0.682	0.757	0.610	0.525	0.498	0.513	0.477	0.427	0.445	0.472	0.633	0.818	1.222	1.976	2.981	3.539	2.628	1.714	1.100	1.469	2.829	5.535	12.65	23.72	33.32	54.42	47.52	43.85	13.98	3.849
295.0	261.5	273.5	226.3	145.5	90.86	78.97	87.41	114.3	210.3	491.7	687.3	296.3	645.1	1605	4002	9999.9	3363	46.08	7.200	5.386	3.370	2.873	2.241	1.968	1.518	1.427	1.271	1.185	1.311	0.991	0.910	0.805	0.850	0.863	0.884	1.129	0.918	0.860	0.774	0.801	0.672	0.670	0.684	0.724	0.744	0.850	0.848	0.926	0.946	0.740	0.692	0.718	0.563	0.520	0.556	0.534	0.597	0.647	0.702	0.853	0.989	1.298	1.926	3.166	4.742	3.347	1.880	1.679	2.140	3.744	6.074	8.148	13.23	17.66	44.17	75.01	36.19
300.0	294.6	312.8	280.5	186.2	115.4	98.88	110.1	123.7	174.4	318.5	791.6	615.4	360.1	493.2	1057	5848	9999.9	621.3	23.62	6.588	4.568	3.198	2.493	2.221	1.826	1.659	1.303	1.284	1.210	1.029	1.084	0.943	0.927	0.869	0.910	1.002	0.901	0.992	0.766	0.756	0.765	0.679	0.818	0.904	0.909	0.912	0.947	1.065	1.021	0.896	0.761	0.776	0.606	0.507	0.474	0.589	0.693	0.729	0.843	0.982	1.096	1.056	1.356	1.882	3.306	5.051	4.272	2.414	1.774	1.836	2.388	2.745	3.744	4.813	11.62	29.91	58.15
305.0	324.6	372.4	323.6	211.2	141.1	127.3	136.4	161.7	209.9	295.7	566.0	949.3	491.2	311.5	367.2	1586	7700	8780	448.9	11.40	5.532	3.788	3.057	2.338	2.017	1.832	1.397	1.331	1.232	1.052	1.082	0.872	0.995	0.826	0.914	1.002	1.037	1.113	0.892	0.798	0.916	0.819	0.882	0.870	0.898	1.066	1.053	1.178	1.109	0.964	0.896	0.843	0.748	0.682	0.781	0.664	0.771	0.879	0.956	1.176	1.315	1.265	1.482	1.721	2.165	3.299	4.572	4.927	3.497	2.112	1.997	1.670	1.899	1.963	3.340	7.527	16.56
310.0	374.3	426.0	367.4	253.3	163.9	144.8	163.8	200.8	245.0	307.8	435.8	712.1	825.7	453.4	252.5	457.6	2063	6133	6429	1747	27.20	5.797	3.855	3.087	2.556	1.944	1.647	1.616	1.366	1.187	1.091	1.061	0.980	0.916	1.010	1.007	0.989	1.090	0.945	0.877	0.954	0.931	0.942	0.911	0.963	1.063	1.226	1.261	1.197	1.054	0.923	0.881	0.855	0.752	0.881	0.796	0.860	1.027	1.108	1.121	1.298	1.369	1.646	1.810	1.951	2.414	2.864	3.689	4.329	4.396	3.446	2.295	1.808	1.640	1.621	2.508	4.363
315.0	430.8	457.7	418.6	288.9	190.7	168.5	186.4	225.0	269.3	332.3	415.6	514.1	662.1	770.2	349.7	230.8	546.3	1446	3597	8683	523.9	27.97	5.539	4.065	3.147	2.328	2.102	1.684	1.586	1.474	1.298	1.030	1.109	1.038	1.023	1.261	1.062	1.053	0.938	0.949	0.886	0.891	0.910	0.891	0.999	1.188	1.262	1.499	1.300	1.036	0.997	0.971	0.919	0.865	0.933	0.908	1.008	0.960	1.211	1.285	1.241	1.500	1.718	1.842	2.004	2.077	2.324	2.590	2.839	3.251	4.207	4.614	3.244	2.017	1.551	1.647	1.838
320.0	461.7	513.1	457.5	314.7	213.8	179.1	199.5	236.7	284.5	350.0	423.4	484.3	530.6	705.7	583.6	225.2	222.6	387.2	922.4	5388	7546	445.2	13.45	5.373	3.511	2.792	2.174	1.902	1.580	1.471	1.232	1.155	1.191	1.175	1.152	1.077	1.138	0.955	1.066	0.981	0.822	0.927	0.891	1.016	1.100	1.214	1.344	1.558	1.379	1.241	1.088	0.962	0.966	0.892	1.026	1.051	1.067	1.084	1.265	1.461	1.437	1.577	1.917	1.895	2.046	2.130	2.465	2.471	2.578	2.588	3.059	3.929	4.537	3.644	1.963	1.444	1.365
325.0	474.5	553.1	521.9	359.2	229.0	197.4	203.2	243.9	286.5	353.5	428.5	476.7	490.6	522.4	658.3	358.5	164.9	156.9	248.8	1467	6501	4032	62.26	8.258	4.707	3.413	2.459	2.177	1.807	1.627	1.205	1.276	1.109	1.237	1.104	1.069	1.162	1.213	1.178	0.972	0.968	0.922	1.012	0.998	1.086	1.454	1.471	1.772	1.487	1.516	1.100	1.068	1.080	0.992	1.002	1.082	1.066	1.172	1.336	1.403	1.346	1.661	1.828	1.944	2.153	1.988	2.245	2.259	2.470	2.420	2.499	2.836	3.628	4.216	3.605	2.366	1.448
330.0	494.1	620.5	605.0	419.0	270.0	215.9	216.6	256.2	293.9	358.1	426.9	477.4	476.1	442.3	467.9	494.1	284.0	127.3	107.7	364.8	1779	4502	5062	1327	20.87	4.806	3.456	2.689	2.143	1.835	1.293	1.397	1.275	1.200	1.203	1.059	1.098	1.014	1.058	0.982	0.995	0.979	1.115	1.144	1.299	1.447	1.659	1.887	1.771	1.684	1.352	1.295	1.205	1.150	1.049	1.100	1.166	1.140	1.244	1.366	1.490	1.676	1.730	1.931	2.089	2.058	2.296	2.455	2.408	2.434	2.409	2.465	2.695	2.798	3.148	3.326	2.810
335.0	529.7	653.8	640.6	465.2	318.6	243.6	235.4	258.7	302.5	361.7	428.9	474.4	477.8	428.4	375.2	356.8	439.7	227.2	92.97	131.1	431.4	1058	3292	7147	433.4	23.46	4.724	3.521	2.472	2.287	1.761	1.606	1.280	1.116	1.151	0.998	1.158	1.074	1.018	0.974	0.999	1.004	1.145	1.083	1.300	1.484	1.560	1.816	2.038	1.747	1.588	1.565	1.391	1.263	1.193	1.176	1.271	1.268	1.314	1.447	1.565	1.636	1.779	2.047	1.976	2.147	2.368	2.446	2.340	2.496	2.368	2.437	2.354	2.237	2.284	2.149	2.529
340.0	528.9	668.5	667.7	506.5	348.6	265.6	248.3	271.0	300.9	361.2	420.7	461.2	461.5	424.2	355.1	289.4	357.8	363.0	136.3	87.52	139.4	267.4	853.1	4814	6275	377.0	11.22	4.641	3.143	2.667	2.124	1.642	1.469	1.279	1.108	1.119	1.140	0.981	1.090	0.907	0.993	1.002	1.162	1.162	1.403	1.509	1.638	1.907	2.036	1.720	1.557	1.682	1.439	1.161	1.301	1.157	1.284	1.355	1.418	1.444	1.401	1.569	1.716	1.897	1.989	2.210	2.118	2.353	2.414	2.483	2.329	2.319	2.162	2.126	2.239	1.853	1.906
345.0	509.1	624.7	666.3	523.2	371.7	289.7	258.9	276.7	303.8	351.5	406.6	447.4	448.4	412.2	348.5	271.7	259.1	363.9	249.9	88.68	81.91	98.80	220.0	1348	5743	3391	53.88	6.628	3.847	3.019	2.419	1.742	1.517	1.268	1.230	1.167	1.112	1.101	0.982	1.029	0.881	0.902	1.079	1.158	1.273	1.519	1.676	1.997	2.008	1.639	1.662	1.665	1.494	1.304	1.256	1.120	1.252	1.174	1.338	1.437	1.483	1.585	1.684	1.802	2.017	2.107	2.044	2.331	2.274	2.381	2.222	2.156	2.170	2.238	2.111	1.861	1.716
350.0	479.5	600.1	632.6	533.3	398.6	313.1	282.3	285.5	312.6	346.9	388.0	428.0	428.6	396.6	341.7	274.8	233.2	249.9	301.7	208.8	97.95	76.00	89.44	332.2	1602	3840	4232	1166	18.90	4.159	2.977	1.947	1.881	1.447	1.256	1.237	1.190	1.031	1.022	0.932	0.870	0.931	0.985	1.031	1.284	1.395	1.490	1.870	1.856	1.656	1.483	1.688	1.548	1.352	1.441	1.267	1.349	1.349	1.414	1.452	1.603	1.507	1.637	1.797	1.863	1.972	2.055	2.151	2.256	2.291	2.210	2.133	2.105	1.943	1.917	1.919	1.812
355.0	464.4	566.4	600.1	513.5	415.9	343.9	311.9	303.0	318.9	348.0	383.0	411.9	412.6	385.6	338.7	283.0	239.9	214.4	219.9	287.5	196.9	92.91	73.95	116.7	387.3	905.2	2751	5860	404.0	21.33	4.280	2.743	2.146	1.723	1.406	1.442	1.084	1.172	0.933	0.915	0.837	1.012	1.223	1.044	1.219	1.310	1.377	1.900	1.818	1.586	1.576	1.642	1.618	1.443	1.452	1.390	1.331	1.504	1.409	1.537	1.747	1.549	1.717	1.898	1.751	1.876	2.062	2.010	2.099	2.166	2.141	1.955	2.107	2.056	1.836	1.891	1.695
360.0	437.0	554.6	556.8	505.2	428.1	369.9	334.0	323.9	334.4	355.0	378.3	400.9	397.6	376.6	337.8	289.8	250.8	215.0	194.5	237.5	278.2	145.1	85.54	78.38	126.1	231.1	716.5	4002	5367	357.4	10.68	3.768	2.623	2.001	1.671	1.375	1.226	1.053	0.949	0.964	0.854	0.948	1.101	1.020	1.126	1.357	1.378	1.695	1.762	1.604	1.546	1.641	1.667	1.571	1.525	1.428	1.577	1.626	1.567	1.652	1.876	1.784	1.709	1.866	1.827	1.906	1.892	1.969	1.823	2.063	1.925	1.940	2.011	2.076	1.801	1.860	1.817
365.0	441.0	537.2	544.0	509.0	421.9	381.4	351.4	335.2	349.0	356.4	373.5	389.2	389.7	370.0	338.7	289.4	259.4	225.5	201.1	197.3	266.3	235.2	114.2	80.97	77.63	89.42	188.5	1126	4943	3179	50.49	5.648	3.363	2.383	1.883	1.536	1.284	1.066	1.018	1.076	0.885	1.130	1.006	1.097	1.150	1.313	1.333	1.546	1.608	1.600	1.544	1.584	1.663	1.649	1.666	1.424	1.704	1.794	1.585	1.719	1.971	1.817	1.776	1.699	1.975	1.913	1.727	1.894	1.994	2.003	1.942	1.995	2.008	1.961	1.964	1.880	1.848
370.0	413.1	499.8	526.9	503.8	445.2	401.0	374.1	359.7	365.6	368.5	382.6	389.2	380.6	365.5	338.8	295.8	269.3	242.2	216.9	200.3	210.7	252.9	209.8	115.2	83.93	70.78	80.19	280.7	1379	3485	3940	1111	17.19	3.470	2.450	1.894	1.467	1.276	1.027	1.152	1.027	0.996	1.116	1.029	1.017	1.277	1.336	1.520	1.593	1.485	1.521	1.666	1.743	1.719	1.693	1.661	1.735	1.736	1.621	1.741	1.798	1.799	1.811	1.816	1.859	1.847	1.934	1.860	1.914	1.974	1.989	2.092	1.910	2.016	2.007	1.832	1.910
375.0	415.7	484.9	532.4	495.5	458.8	419.9	394.5	378.5	380.4	382.9	386.7	385.2	382.3	357.8	338.0	299.0	278.5	257.6	234.2	216.3	200.4	205.0	248.1	206.5	109.1	81.54	67.77	102.3	335.2	822.4	2501	5323	1531	20.15	3.122	2.548	1.742	1.355	1.245	1.124	1.071	1.066	1.089	1.048	1.041	1.219	1.349	1.526	1.649	1.559	1.458	1.818	1.834	1.766	1.787	1.717	1.801	1.881	1.804	1.706	1.742	1.844	1.895	1.782	1.982	1.947	1.786	2.074	1.858	2.012	2.086	1.892	1.853	2.014	1.865	1.987	1.918
380.0	399.0	494.8	524.7	496.4	471.2	439.3	412.2	398.5	392.8	384.3	390.6	387.4	381.2	356.3	333.0	305.6	287.8	266.2	248.7	227.7	209.4	197.4	215.0	253.1	160.7	97.09	77.43	70.71	110.2	210.5	648.7	3519	5005	306.8	10.25	2.856	2.235	1.618	1.403	1.076	1.170	1.068	1.063	1.113	1.105	1.204	1.309	1.449	1.558	1.482	1.462	1.726	1.764	1.821	1.993	1.722	1.932	1.816	1.876	1.732	1.838	1.703	1.847	1.925	2.002	1.945	1.690	1.876	1.879	1.954	1.885	1.761	1.907	1.927	1.967	1.877	1.936
385.0	414.0	484.6	517.0	484.1	474.4	443.3	419.3	414.8	401.7	394.8	391.5	387.1	375.6	356.3	330.1	307.0	285.9	274.3	254.3	238.7	216.1	201.1	192.6	230.0	224.3	127.7	89.08	73.58	67.86	78.57	169.1	970.2	4158	2690	234.7	5.031	2.605	1.957	1.674	1.227	1.238	1.266	1.131	1.193	1.244	1.434	1.372	1.417	1.628	1.415	1.462	1.681	1.782	1.917	1.865	1.905	2.008	1.669	1.880	1.744	1.911	1.798	2.007	1.961	2.144	1.899	1.839	1.939	1.967	1.847	2.047	1.896	2.015	2.044	1.894	1.806	1.849
390.0	402.8	464.0	496.7	490.2	481.6	455.6	431.3	426.2	410.4	396.2	394.9	383.4	371.3	355.5	328.7	304.1	288.0	276.5	259.2	246.5	226.1	209.8	195.4	193.0	222.1	196.3	121.8	87.18	70.33	60.53	69.44	239.6	1123	2632	3063	930.5	15.76	2.703	1.995	1.520	1.358	1.388	1.186	1.273	1.238	1.385	1.511	1.428	1.514	1.516	1.405	1.680	1.854	1.801	1.869	1.928	2.038	1.880	1.833	1.830	1.983	1.968	1.965	1.949	1.963	1.928	1.803	1.849	1.896	1.889	1.985	1.933	1.998	2.012	1.910	2.171	2.145
395.0	384.3	468.8	515.2	499.8	478.9	466.1	449.8	434.0	420.6	410.6	397.2	387.5	376.4	351.1	322.9	300.6	286.6	279.2	263.4	252.2	235.8	217.7	201.7	188.1	184.3	206.9	188.5	115.2	85.18	68.51	57.67	85.10	271.6	613.9	1740	3954	1386	20.68	2.682	2.073	1.534	1.463	1.250	1.239	1.268	1.315	1.508	1.567	1.609	1.511	1.494	1.832	1.984	1.769	1.857	1.783	1.920	2.040	1.972	1.837	2.137	2.212	2.018	1.913	2.056	1.823	1.848	2.041	1.833	1.863	2.062	1.806	1.895	1.890	1.933	2.071	2.044
400.0	400.5	469.6	496.9	487.3	486.4	466.8	461.3	442.6	420.0	418.4	405.0	389.2	369.6	351.4	321.9	300.4	285.8	277.7	266.5	250.8	238.0	222.9	212.8	192.7	180.3	182.2	209.8	158.3	100.1	77.78	63.75	56.61	86.60	155.6	437.8	2351	3793	279.4	12.67	2.361	1.914	1.703	1.394	1.285	1.296	1.357	1.567	1.594	1.586	1.355	1.435	1.664	1.864	1.866	1.881	1.809	1.974	1.876	1.937	2.134	1.961	2.027	1.980	2.128	2.025	2.012	1.783	1.864	1.927	1.870	1.900	1.837	1.824	1.891	1.974	1.903	2.089
405.0	395.6	468.1	488.9	490.5	477.2	469.9	464.0	448.0	432.4	427.5	407.7	396.9	369.1	349.6	317.9	301.6	285.7	274.2	262.1	252.7	241.6	227.0	215.1	197.2	184.1	170.5	191.0	200.3	128.2	90.60	71.36	56.92	51.65	57.75	115.0	618.3	2740	2332	230.6	6.046	2.127	1.781	1.510	1.396	1.259	1.477	1.401	1.461	1.655	1.524	1.463	1.806	1.810	1.782	1.943	1.834	2.141	1.947	2.048	1.961	2.131	2.002	2.100	2.111	1.827	1.927	1.888	1.838	1.917	2.031	1.973	1.867	1.760	1.898	1.657	1.931	1.904
410.0	393.7	463.8	476.6	479.1	474.5	469.6	466.2	454.7	447.3	433.7	417.8	397.0	373.6	346.9	316.7	296.1	280.0	266.8	257.4	249.1	238.2	226.2	215.8	204.1	188.9	175.0	168.9	188.8	179.1	122.9	86.48	67.04	52.56	42.94	47.33	154.0	709.1	1861	2421	898.5	15.90	2.478	1.789	1.659	1.506	1.404	1.396	1.545	1.570	1.532	1.494	1.822	1.722	1.891	1.855	1.881	2.179	1.998	2.066	2.072	2.081	2.156	2.083	2.023	2.094	1.992	1.991	1.754	1.995	1.913	1.944	1.884	1.890	2.004	1.680	1.895	1.811
