Sample:	'1
File name:	Default_20250318_112747.FD3
Run date:	'11:21:26, 03/18/2025
Operator:	dsjg
Comment:	'

Instrument
Model:	F-2700 FL Spectrophotometer
Serial number:	2198-001
ROM Version:	4J14000 07

Instrument parameters
Measurement type:	3-D scan
Data mode:	Fluorescence
EX  Start WL:	220.0 nm
EX  End WL:	600.0 nm
EX Sampling interval:	5.0 nm
EM  Start WL:	230.0 nm
EM  End WL:	650.0 nm
EM Sampling interval:	5.0 nm
Scan speed:	12000 nm/min
EX Slit:	5.0 nm
EM Slit:	5.0 nm
PMT Voltage:	700 V
Response:	Auto 
Corrected spectra:	Off
Contour interval:	50.000

Peak integration
Integration method:	Rectangular
Sensitivity:	1
Threshold:	1.000

Peaks
No.	ApexEX/EM(nm)	Height(Data)
1	225.0/600.0	17.35
2	225.0/610.0	18.02
3	230.0/340.0	 1731
4	230.0/605.0	16.84
5	230.0/620.0	20.01
6	235.0/515.0	116.7
7	240.0/525.0	99.15
8	245.0/535.0	81.03
9	250.0/550.0	67.65
10	255.0/280.0	219.1
11	255.0/555.0	55.72
12	260.0/285.0	221.6
13	260.0/570.0	44.38
14	265.0/585.0	38.85
15	270.0/595.0	37.26
16	275.0/610.0	42.41
17	280.0/335.0	 1060
18	280.0/620.0	42.98
19	285.0/640.0	38.42
20	315.0/355.0	236.8
21	320.0/360.0	231.6
22	325.0/365.0	202.4
23	335.0/380.0	199.1
24	340.0/385.0	196.6
25	350.0/400.0	185.6
26	355.0/405.0	200.2
27	365.0/415.0	144.7
28	370.0/425.0	140.4
29	375.0/405.0	99.50
30	375.0/430.0	122.6
31	385.0/445.0	86.24
32	395.0/455.0	61.75
33	400.0/465.0	52.38
34	405.0/470.0	42.74
35	410.0/475.0	36.04
36	415.0/485.0	31.08
37	420.0/490.0	26.30
38	425.0/495.0	23.20
39	430.0/505.0	19.75
40	435.0/510.0	16.48
41	440.0/515.0	14.45
42	445.0/525.0	12.68
43	450.0/530.0	10.52
44	455.0/535.0	9.027
45	460.0/545.0	7.518
46	465.0/340.0	5.647
47	465.0/550.0	6.188
48	570.0/335.0	6.053

Data points
	220.0	225.0	230.0	235.0	240.0	245.0	250.0	255.0	260.0	265.0	270.0	275.0	280.0	285.0	290.0	295.0	300.0	305.0	310.0	315.0	320.0	325.0	330.0	335.0	340.0	345.0	350.0	355.0	360.0	365.0	370.0	375.0	380.0	385.0	390.0	395.0	400.0	405.0	410.0	415.0	420.0	425.0	430.0	435.0	440.0	445.0	450.0	455.0	460.0	465.0	470.0	475.0	480.0	485.0	490.0	495.0	500.0	505.0	510.0	515.0	520.0	525.0	530.0	535.0	540.0	545.0	550.0	555.0	560.0	565.0	570.0	575.0	580.0	585.0	590.0	595.0	600.0
230.0	142.1	 2626	 5496	 1955	44.38	4.820	2.793	2.248	2.075	1.963	1.648	1.632	1.330	1.115	0.927	0.851	0.718	0.552	0.651	0.577	0.571	0.505	0.492	0.466	0.473	0.377	0.383	0.340	0.381	0.364	0.334	0.273	0.305	0.315	0.288	0.309	0.294	0.310	0.261	0.245	0.233	0.214	0.231	0.194	0.190	0.185	0.264	1.450	5.215	7.296	4.121	0.904	0.181	0.156	0.123	0.134	0.132	0.122	0.111	0.100	0.093	0.073	0.082	0.099	0.075	0.098	0.097	0.068	0.085	0.083	0.079	0.094	0.066	0.079	0.078	0.078	0.062
235.0	66.61	727.1	 3506	 8236	 2184	44.92	3.889	3.294	2.359	1.841	1.952	1.509	1.420	1.181	1.133	0.976	0.688	0.649	0.612	0.480	0.522	0.623	0.455	0.543	0.466	0.353	0.459	0.331	0.375	0.357	0.344	0.314	0.299	0.328	0.244	0.251	0.267	0.271	0.265	0.246	0.209	0.241	0.218	0.211	0.302	0.288	0.237	0.463	1.666	4.230	7.651	11.13	7.300	1.839	0.237	0.181	0.149	0.126	0.090	0.116	0.110	0.074	0.075	0.090	0.081	0.085	0.095	0.083	0.073	0.097	0.086	0.080	0.091	0.090	0.082	0.100	0.086
240.0	71.01	210.4	 1085	 7373	 6959	390.9	14.66	3.516	3.321	2.587	2.188	1.998	1.897	1.116	1.135	1.039	0.921	0.588	0.616	0.612	0.597	0.546	0.544	0.479	0.539	0.421	0.509	0.377	0.385	0.432	0.373	0.289	0.306	0.324	0.266	0.251	0.232	0.294	0.304	0.260	0.206	0.239	0.246	0.227	0.247	0.302	0.280	0.330	0.523	1.150	3.170	9.535	15.77	13.39	5.713	0.829	0.177	0.141	0.130	0.142	0.130	0.115	0.114	0.125	0.083	0.090	0.066	0.088	0.060	0.100	0.070	0.080	0.090	0.109	0.077	0.079	0.079
245.0	70.91	129.8	284.9	 2773	 6843	 3121	259.6	6.979	4.278	3.077	2.511	2.346	2.208	1.546	1.258	1.146	0.852	0.762	0.814	0.654	0.552	0.515	0.481	0.534	0.470	0.411	0.442	0.418	0.377	0.350	0.383	0.351	0.271	0.339	0.288	0.268	0.270	0.262	0.301	0.280	0.248	0.252	0.224	0.216	0.241	0.284	0.400	0.428	0.383	0.386	0.863	2.843	8.278	15.69	18.63	11.84	3.359	0.314	0.140	0.164	0.134	0.121	0.112	0.113	0.120	0.120	0.099	0.093	0.107	0.122	0.088	0.083	0.090	0.064	0.088	0.087	0.070
250.0	51.07	99.57	168.4	684.1	 2229	 3543	 2918	972.3	51.09	4.512	3.213	2.799	2.182	1.771	1.351	1.274	1.042	0.966	0.685	0.683	0.617	0.531	0.451	0.513	0.497	0.460	0.452	0.410	0.426	0.367	0.463	0.379	0.332	0.275	0.311	0.267	0.284	0.242	0.256	0.291	0.265	0.225	0.263	0.209	0.239	0.258	0.260	0.383	0.608	0.542	0.542	0.859	2.070	4.645	9.049	13.99	17.44	15.59	9.332	2.989	0.383	0.133	0.102	0.123	0.114	0.120	0.125	0.098	0.103	0.085	0.093	0.095	0.111	0.084	0.084	0.087	0.100
255.0	48.77	54.59	115.7	300.2	547.0	909.3	 2238	 4073	 1348	54.53	4.781	3.470	2.648	1.895	1.837	1.293	1.122	0.951	0.925	0.719	0.750	0.577	0.544	0.553	0.547	0.556	0.451	0.421	0.573	0.378	0.402	0.325	0.409	0.313	0.441	0.249	0.279	0.179	0.302	0.229	0.267	0.244	0.312	0.254	0.215	0.184	0.198	0.230	0.327	0.466	0.677	1.004	0.907	1.242	2.178	3.367	5.903	12.37	22.51	24.39	14.24	3.135	0.272	0.134	0.114	0.165	0.128	0.068	0.142	0.068	0.098	0.110	0.085	0.090	0.089	0.118	0.110
260.0	47.11	37.63	55.27	195.1	251.9	230.4	685.5	 3261	 4147	 1003	23.02	4.846	3.393	2.280	2.039	1.864	1.133	1.062	0.902	0.729	0.648	0.724	0.676	0.617	0.452	0.572	0.389	0.361	0.506	0.473	0.478	0.397	0.434	0.339	0.273	0.291	0.267	0.184	0.265	0.272	0.288	0.300	0.274	0.256	0.229	0.205	0.201	0.203	0.240	0.245	0.454	0.945	1.211	0.978	0.757	0.938	1.522	3.278	9.220	19.80	29.11	23.29	10.36	1.448	0.154	0.157	0.134	0.102	0.137	0.098	0.115	0.110	0.125	0.080	0.098	0.099	0.088
265.0	48.72	35.36	28.65	95.19	208.7	145.4	173.0	 1107	 3899	 3979	192.0	10.87	4.074	3.066	2.426	1.931	1.359	1.273	0.985	0.897	0.838	0.781	0.759	0.709	0.593	0.514	0.487	0.393	0.449	0.414	0.424	0.405	0.368	0.320	0.308	0.288	0.280	0.297	0.237	0.297	0.275	0.294	0.243	0.221	0.232	0.239	0.224	0.200	0.186	0.161	0.219	0.451	0.855	1.272	1.150	0.579	0.516	0.886	2.276	5.655	14.04	26.62	30.62	20.67	6.080	0.521	0.152	0.162	0.156	0.109	0.127	0.111	0.144	0.100	0.107	0.074	0.129
270.0	49.01	39.48	23.22	42.80	101.2	173.0	146.0	275.3	 1214	 3367	 3868	 1615	53.65	5.114	3.441	2.283	1.799	1.576	1.221	1.041	0.979	0.867	0.861	0.650	0.618	0.574	0.577	0.492	0.430	0.507	0.453	0.414	0.431	0.364	0.344	0.319	0.312	0.268	0.213	0.265	0.248	0.256	0.242	0.225	0.239	0.266	0.246	0.207	0.200	0.163	0.199	0.222	0.350	0.561	0.932	1.102	1.056	0.775	0.816	1.436	3.393	7.525	13.84	21.69	24.94	25.45	14.64	5.946	0.713	0.144	0.146	0.142	0.132	0.111	0.127	0.092	0.103
275.0	57.51	46.46	35.74	32.48	36.91	82.11	192.0	185.0	295.9	847.0	 2311	 4852	 1146	66.27	5.349	3.318	2.326	1.941	1.591	1.115	1.047	0.964	0.835	0.806	0.667	0.706	0.578	0.525	0.539	0.589	0.535	0.501	0.468	0.403	0.411	0.360	0.357	0.297	0.285	0.249	0.263	0.222	0.155	0.279	0.299	0.283	0.285	0.287	0.221	0.219	0.191	0.196	0.210	0.257	0.367	0.448	0.997	1.356	1.555	1.046	1.018	1.925	3.248	5.193	7.439	15.52	29.49	37.23	21.70	5.680	0.369	0.165	0.158	0.140	0.127	0.089	0.104
280.0	65.01	62.14	42.22	34.96	24.67	32.50	124.4	219.1	155.0	219.2	670.5	 3036	 4850	921.6	37.52	4.713	3.130	2.349	1.687	1.434	1.030	0.990	1.064	0.790	0.750	0.693	0.634	0.610	0.648	0.592	0.602	0.439	0.472	0.370	0.356	0.361	0.415	0.319	0.312	0.309	0.262	0.238	0.167	0.254	0.264	0.277	0.388	0.373	0.321	0.306	0.217	0.171	0.246	0.225	0.227	0.229	0.437	0.861	1.499	1.654	1.092	0.840	0.973	1.365	1.880	4.097	10.33	23.18	37.10	30.29	15.94	2.279	0.206	0.139	0.166	0.099	0.100
285.0	87.08	78.34	58.56	42.25	23.67	19.32	53.20	171.5	221.6	119.2	192.0	947.9	 3514	 4697	691.0	14.64	4.140	3.050	2.219	1.793	1.427	1.113	1.029	0.954	0.845	0.752	0.767	0.754	0.569	0.567	0.611	0.556	0.505	0.434	0.341	0.422	0.376	0.351	0.305	0.289	0.287	0.208	0.247	0.236	0.271	0.316	0.387	0.361	0.404	0.370	0.291	0.229	0.257	0.195	0.217	0.193	0.245	0.416	0.759	1.220	1.752	1.541	0.719	0.610	0.690	1.229	2.703	6.304	14.89	27.99	40.06	25.97	8.762	0.694	0.183	0.176	0.134
290.0	114.5	101.1	85.91	60.78	33.42	26.31	36.33	85.89	201.6	241.3	162.3	290.2	 1055	 2812	 3915	 1905	37.81	4.699	3.070	2.290	1.926	1.552	1.313	0.998	0.898	0.905	0.799	0.734	0.585	0.693	0.593	0.586	0.550	0.451	0.471	0.448	0.416	0.351	0.345	0.315	0.329	0.255	0.248	0.226	0.277	0.378	0.427	0.400	0.475	0.392	0.368	0.305	0.301	0.260	0.260	0.221	0.294	0.327	0.450	0.565	1.021	1.450	1.664	1.487	1.128	0.839	1.116	1.894	3.833	7.695	15.03	22.46	26.27	28.74	16.18	6.214	0.508
295.0	143.8	133.7	119.6	79.89	52.15	47.33	53.60	79.75	134.8	264.8	351.8	218.4	351.1	737.6	 1753	 4328	 3023	47.55	4.886	3.421	2.387	2.021	1.617	1.289	1.012	0.956	0.716	0.781	0.635	0.755	0.635	0.585	0.555	0.536	0.493	0.512	0.492	0.400	0.355	0.331	0.365	0.314	0.296	0.250	0.311	0.393	0.369	0.484	0.613	0.495	0.488	0.452	0.386	0.307	0.353	0.343	0.338	0.439	0.496	0.522	0.738	0.895	1.260	1.719	2.368	1.971	1.425	1.204	1.566	2.477	3.892	5.485	7.597	14.83	29.57	42.18	23.61
300.0	171.6	172.8	158.6	117.8	82.94	74.66	97.22	123.5	170.7	262.7	437.8	425.9	290.6	284.5	553.6	 2219	 5223	583.3	31.10	4.690	2.899	2.221	1.969	1.432	1.205	1.048	0.929	0.834	0.628	0.745	0.689	0.684	0.600	0.622	0.544	0.477	0.597	0.431	0.321	0.334	0.343	0.324	0.330	0.281	0.314	0.360	0.518	0.569	0.662	0.608	0.606	0.581	0.449	0.469	0.468	0.472	0.609	0.658	0.775	0.763	0.910	0.996	1.365	1.573	2.162	2.888	2.851	2.008	1.423	1.661	1.944	2.051	2.506	4.244	9.872	23.63	40.61
305.0	193.5	219.7	212.2	165.3	129.9	123.7	155.7	192.7	257.4	334.0	485.0	627.1	482.3	318.0	305.9	741.5	 2940	 5158	492.8	16.50	4.034	2.975	2.269	1.714	1.550	1.354	0.963	0.908	0.719	0.799	0.783	0.740	0.690	0.619	0.564	0.557	0.615	0.431	0.480	0.376	0.364	0.323	0.349	0.336	0.424	0.432	0.632	0.765	0.864	0.766	0.691	0.769	0.672	0.662	0.636	0.700	0.881	0.869	1.107	1.182	1.220	1.419	1.912	2.015	2.300	2.871	3.675	3.953	2.964	2.262	2.242	1.771	1.964	2.214	3.168	6.872	15.49
310.0	208.9	286.9	281.8	228.9	177.5	182.2	218.8	267.5	324.4	407.2	509.2	641.0	700.7	509.3	342.1	352.2	913.4	 2663	 3836	 1997	30.00	4.563	3.090	2.356	1.843	1.502	1.266	1.045	1.032	0.922	0.835	0.720	0.732	0.644	0.612	0.588	0.568	0.483	0.453	0.389	0.409	0.406	0.365	0.374	0.413	0.572	0.699	0.953	1.037	0.918	0.885	0.933	0.876	0.821	0.891	0.958	1.133	1.244	1.395	1.581	1.586	1.808	2.091	2.386	2.639	2.859	3.215	3.817	4.185	4.018	3.394	2.562	2.226	2.178	2.029	2.648	4.475
315.0	278.7	429.0	404.8	310.4	243.1	238.5	274.7	338.6	391.8	488.5	601.8	699.8	767.5	776.1	530.1	353.7	410.1	741.4	 1476	 4665	 2923	38.95	4.652	3.088	2.203	1.897	1.556	1.170	1.215	1.085	0.933	0.834	0.710	0.706	0.583	0.634	0.557	0.532	0.499	0.495	0.428	0.377	0.387	0.336	0.567	0.688	0.999	1.447	1.605	1.410	1.146	1.218	1.189	1.097	1.189	1.210	1.389	1.592	1.859	1.980	2.125	2.099	2.527	2.829	3.027	3.587	3.713	3.790	4.363	4.236	4.548	4.637	3.671	2.932	2.270	2.213	2.441
320.0	389.8	677.0	683.5	462.6	310.2	280.1	328.6	405.2	470.4	583.4	729.2	840.6	870.8	893.6	778.3	466.2	361.1	334.0	433.2	 2040	 5524	 2120	26.25	4.322	3.005	2.139	1.674	1.607	1.278	1.147	1.011	0.755	0.791	0.834	0.627	0.700	0.584	0.627	0.480	0.436	0.444	0.444	0.557	0.428	0.681	1.056	1.388	2.215	2.391	2.037	1.732	1.663	1.617	1.388	1.464	1.488	1.628	1.735	2.141	2.276	2.399	2.460	3.088	3.435	3.551	4.178	4.375	4.949	4.946	4.941	4.871	5.262	5.244	4.349	3.148	2.749	2.500
325.0	516.0	974.5	 1031	702.2	413.3	338.2	374.0	458.9	524.4	662.6	814.7	939.7	969.3	933.2	871.5	625.9	388.9	262.0	189.0	573.6	 2811	 5593	408.8	14.96	3.782	2.735	2.191	1.638	1.344	1.145	1.044	0.872	0.874	0.938	0.706	0.711	0.567	0.594	0.544	0.468	0.408	0.480	0.490	0.577	0.824	1.326	1.911	2.973	3.541	3.449	2.885	2.555	2.065	1.553	1.537	1.630	1.961	2.041	2.323	2.583	2.663	2.721	3.417	3.839	4.077	4.766	4.954	5.202	5.462	5.742	5.254	5.254	5.669	5.741	4.563	3.196	2.586
330.0	594.5	 1167	 1362	996.3	569.2	388.0	403.6	482.2	560.7	702.0	864.8	987.1	 1027	970.9	833.4	706.0	508.1	274.2	154.7	202.2	750.9	 2621	 4273	 1698	26.72	4.335	3.012	2.180	1.710	1.547	1.351	1.162	1.059	0.976	0.841	0.731	0.671	0.614	0.567	0.522	0.480	0.492	0.609	0.598	0.902	1.467	2.339	3.503	4.332	4.490	3.875	3.474	2.865	2.179	1.935	1.873	2.111	2.238	2.381	2.689	2.783	3.077	3.477	3.931	4.330	4.876	5.102	5.418	5.606	5.744	5.598	5.326	5.548	5.094	4.796	4.454	3.712
335.0	666.0	 1319	 1627	 1215	711.7	452.1	429.2	497.3	585.8	714.8	891.5	 1015	 1060	986.1	834.8	652.1	571.1	372.2	174.0	138.7	241.2	642.1	 1479	 4643	 2639	36.18	4.270	3.122	2.183	1.834	1.431	1.259	1.073	0.972	0.862	0.790	0.738	0.704	0.661	0.594	0.551	0.499	0.602	0.695	1.093	1.606	2.535	3.952	4.903	5.291	4.494	4.306	3.840	2.977	2.451	2.100	2.067	2.301	2.431	2.976	2.832	3.125	3.704	4.094	4.441	4.787	5.228	5.611	5.779	5.838	6.053	5.644	5.246	5.025	4.282	3.956	4.078
340.0	685.9	 1384	 1731	 1320	775.2	483.4	429.3	492.8	589.3	705.1	875.4	990.7	 1033	961.1	796.1	615.1	503.9	440.0	217.8	132.4	133.0	200.4	383.2	 1957	 5710	 1995	25.66	3.777	2.789	2.322	1.623	1.281	1.179	1.025	0.978	0.776	0.718	0.667	0.636	0.533	0.639	0.577	0.640	0.714	1.131	1.611	2.521	4.260	5.314	5.647	5.036	4.867	4.060	2.986	2.370	2.163	2.208	2.351	2.581	2.854	2.998	3.214	3.460	4.174	4.581	4.863	5.152	5.335	5.698	5.588	5.639	5.432	5.084	4.767	4.063	3.563	3.502
345.0	637.4	 1309	 1642	 1302	772.1	470.8	410.3	466.6	555.1	670.4	805.5	920.1	959.2	883.2	740.7	567.8	431.7	387.3	293.6	143.6	111.0	104.5	125.8	505.5	 2991	 5511	363.1	15.49	3.621	2.634	1.934	1.698	1.226	1.180	1.069	0.881	0.620	0.757	0.646	0.601	0.565	0.535	0.547	0.611	1.038	1.643	2.476	4.010	5.176	5.592	4.836	4.864	3.995	2.854	2.491	2.155	1.966	2.182	2.344	2.581	2.706	3.119	3.416	4.082	4.219	4.463	4.715	5.067	4.913	5.240	5.555	5.234	4.940	4.387	3.684	3.387	2.955
350.0	554.6	 1122	 1442	 1203	751.1	460.0	389.5	413.5	496.5	593.0	713.1	802.6	831.9	775.3	655.6	507.1	376.1	294.1	280.3	223.4	127.1	89.75	75.36	145.5	742.3	 2612	 4103	 1557	25.52	3.940	2.639	2.105	1.409	1.244	1.159	0.920	0.742	0.759	0.711	0.612	0.517	0.515	0.505	0.696	0.881	1.427	2.187	3.479	4.515	4.746	4.193	4.478	3.875	2.989	2.542	2.111	2.064	2.085	2.295	2.333	2.515	2.647	2.993	3.351	3.770	3.899	4.115	4.496	4.479	4.608	4.668	4.642	4.162	3.907	3.423	3.066	2.682
355.0	457.4	945.1	 1256	 1072	699.8	455.5	375.0	392.6	453.8	527.9	615.6	696.5	708.8	671.2	567.0	440.5	333.9	252.5	209.6	236.8	203.2	101.5	71.66	72.67	191.8	603.8	 1382	 4389	 2464	36.49	3.794	2.686	2.018	1.464	1.232	1.066	0.865	0.930	0.555	0.636	0.548	0.570	0.482	0.597	0.798	1.381	1.921	2.928	3.945	4.142	3.819	3.821	3.735	3.063	2.408	2.035	1.878	2.010	2.062	2.158	2.318	2.390	2.719	2.890	3.226	3.294	3.562	3.846	3.881	3.916	3.767	3.833	3.728	3.586	3.101	2.708	2.399
360.0	404.4	827.4	 1104	941.4	658.1	432.2	359.9	373.2	416.6	485.7	553.9	616.1	628.1	588.5	503.9	399.2	308.1	233.0	183.2	186.4	231.6	146.5	77.73	60.14	74.02	156.9	335.6	 1837	 5167	 1927	25.85	3.488	2.332	1.901	1.346	1.270	0.927	0.893	0.680	0.683	0.639	0.567	0.454	0.556	0.776	1.249	1.719	2.529	3.291	3.616	3.428	3.531	3.484	2.886	2.312	1.997	1.850	1.859	2.012	2.002	2.208	2.273	2.370	2.835	2.950	3.165	3.176	3.494	3.605	3.712	3.443	3.387	3.205	2.966	2.627	2.441	2.302
365.0	347.0	695.3	928.2	849.7	609.9	415.7	343.8	356.5	390.2	450.4	505.4	548.0	561.4	525.9	448.9	362.9	281.8	220.9	179.7	158.4	195.4	202.4	102.3	64.73	53.99	61.33	94.84	457.1	 2716	 5223	350.8	15.55	3.144	2.229	1.638	1.234	0.991	0.859	0.834	0.730	0.577	0.570	0.590	0.626	0.692	1.018	1.363	2.105	2.904	3.011	3.159	3.275	3.013	2.694	2.115	1.871	1.712	1.580	1.922	1.842	2.113	2.192	2.068	2.527	2.652	2.757	2.831	3.061	3.098	3.264	3.106	2.965	2.837	2.714	2.446	2.185	2.101
370.0	291.6	565.3	770.9	727.9	557.6	403.7	342.7	335.6	366.0	404.1	452.0	480.6	493.7	459.7	395.8	325.1	264.0	215.3	180.0	156.3	154.7	183.8	171.0	96.94	60.60	51.01	51.96	128.0	672.3	 2519	 3947	 1439	23.65	4.240	2.235	1.528	1.172	1.002	0.880	0.774	0.658	0.565	0.530	0.553	0.669	0.939	1.143	1.797	2.440	2.553	2.572	2.825	2.736	2.436	2.062	1.792	1.808	1.724	1.882	1.864	1.871	2.035	2.021	2.278	2.493	2.479	2.454	2.718	2.748	2.748	2.773	2.594	2.567	2.502	2.209	2.018	1.968
375.0	259.2	469.8	640.4	637.7	522.0	400.7	328.2	322.6	351.3	379.2	419.7	442.5	458.4	424.0	353.1	296.0	247.4	209.6	181.3	162.9	149.6	147.5	170.8	176.1	96.95	67.55	65.35	73.97	190.3	596.8	 1379	 4098	 2200	32.90	4.231	2.095	1.670	1.166	0.987	0.795	0.603	0.730	0.501	0.585	0.687	0.908	1.136	1.598	2.130	2.246	2.173	2.485	2.558	2.352	2.153	1.804	1.817	1.812	1.789	1.957	1.793	1.969	1.961	2.001	2.191	2.382	2.322	2.487	2.415	2.620	2.550	2.291	2.250	2.064	1.944	2.001	1.807
380.0	225.1	414.9	559.2	572.3	507.8	396.0	330.9	320.4	334.1	368.7	409.9	415.9	443.5	399.4	326.9	275.0	238.1	205.9	182.0	166.9	154.2	145.0	148.1	199.1	152.0	87.40	84.63	89.80	100.2	176.2	369.4	 1793	 4630	 1647	22.52	2.868	2.003	1.535	1.168	0.823	0.731	0.663	0.559	0.603	0.571	0.850	1.096	1.408	1.819	1.878	1.964	2.341	2.377	2.309	2.091	1.860	1.669	1.776	1.814	1.761	1.884	2.084	1.971	2.051	2.083	2.122	2.399	2.231	2.379	2.548	2.474	2.207	2.186	1.770	1.777	1.774	1.613
385.0	203.6	357.2	497.9	538.2	477.5	388.6	323.2	316.0	327.6	355.6	389.2	394.8	426.5	379.7	307.3	262.8	228.1	204.5	187.6	168.6	158.7	145.6	138.4	170.7	196.6	120.7	100.3	105.0	89.16	91.18	143.0	501.5	 2509	 4376	289.7	11.72	2.462	1.714	1.323	1.051	0.829	0.820	0.631	0.541	0.608	0.833	0.967	1.255	1.498	1.664	1.773	2.037	2.259	2.137	2.045	1.932	1.738	1.708	1.733	1.687	1.658	1.796	1.852	2.103	2.083	2.015	2.245	2.232	2.268	2.437	2.420	1.985	1.996	1.859	1.738	1.764	1.620
390.0	192.4	301.2	423.7	470.9	441.3	367.9	317.2	303.3	314.5	330.1	357.2	362.0	384.4	343.7	284.5	246.5	218.6	202.1	186.3	173.0	162.7	151.7	140.9	146.6	168.6	168.5	125.3	105.7	84.05	71.54	85.48	170.6	636.1	 2126	 3155	 1156	18.68	2.553	1.691	1.229	0.994	0.793	0.673	0.582	0.588	0.745	0.852	1.178	1.430	1.513	1.683	1.823	2.021	2.020	1.984	1.810	1.653	1.581	1.761	1.712	1.651	1.753	1.710	1.951	1.864	2.032	2.057	2.103	2.078	2.244	2.102	1.843	1.939	1.797	1.722	1.645	1.573
395.0	192.9	275.8	375.7	412.6	402.8	362.5	311.0	306.3	306.5	313.0	343.2	338.3	355.2	318.4	265.0	235.3	215.1	201.4	188.4	176.6	167.0	160.4	148.4	145.9	145.9	160.1	176.9	130.5	91.03	73.06	77.10	101.6	179.0	492.9	 1094	 3328	 1775	26.28	2.611	1.546	1.090	0.969	0.714	0.595	0.681	0.709	0.877	1.087	1.363	1.437	1.416	1.650	1.861	1.904	1.792	1.730	1.727	1.695	1.889	1.613	1.515	1.860	1.792	1.789	1.925	1.818	1.811	1.901	2.023	2.096	1.961	1.857	1.841	1.670	1.560	1.508	1.484
400.0	171.9	252.9	343.9	388.2	387.6	351.3	303.6	300.2	305.5	303.4	332.3	325.3	351.4	312.8	256.9	227.6	212.0	197.8	188.0	180.6	172.4	166.4	156.6	151.6	147.4	145.0	185.6	175.2	108.5	83.07	86.06	95.49	83.45	131.2	263.2	 1436	 3626	 1315	18.39	2.033	1.377	1.089	0.792	0.700	0.653	0.850	0.872	1.041	1.266	1.291	1.367	1.535	1.849	1.872	1.801	1.630	1.547	1.607	1.672	1.573	1.650	1.665	1.709	1.757	1.792	1.758	1.790	1.779	2.002	2.127	2.035	1.721	1.796	1.626	1.636	1.415	1.462
405.0	166.2	235.2	315.0	372.5	372.7	342.8	299.8	295.2	298.0	301.9	327.1	323.4	345.7	303.7	254.1	225.7	207.7	196.7	187.2	180.7	175.2	168.3	162.5	160.0	152.0	140.7	165.3	200.2	136.7	92.31	93.73	99.50	65.41	53.13	73.12	352.9	 1910	 3358	253.9	10.90	1.609	1.232	1.052	0.825	0.670	0.815	0.883	0.968	1.189	1.299	1.235	1.461	1.877	1.679	1.742	1.637	1.593	1.611	1.743	1.535	1.686	1.668	1.738	1.706	1.776	1.818	1.701	1.846	2.002	2.092	1.686	1.682	1.750	1.600	1.645	1.435	1.324
410.0	147.6	215.0	293.7	339.5	355.6	329.2	298.8	285.2	293.1	296.2	307.5	303.9	319.5	284.0	240.6	216.3	200.0	192.9	184.5	178.1	173.7	168.7	164.7	161.4	154.1	140.2	142.8	167.1	162.3	116.7	93.20	90.71	59.71	38.55	33.72	91.65	462.9	 1628	 2219	 1022	16.01	1.984	1.258	0.965	0.848	0.816	0.848	0.886	1.035	1.183	1.214	1.435	1.706	1.726	1.638	1.560	1.573	1.631	1.631	1.578	1.621	1.586	1.556	1.511	1.670	1.675	1.594	1.594	1.779	1.881	1.582	1.508	1.546	1.485	1.468	1.457	1.381
