Sample:	'1
File name:	t2025042301反帝沟入小清河.FD3
Run date:	'10:17:59, 04/24/2025
Operator:	Administrator
Comment:	'

Instrument
Model:	F-2700 FL Spectrophotometer
Serial number:	23B8-004
ROM Version:	4J14000 07

Instrument parameters
Measurement type:	3-D scan
Data mode:	Fluorescence
EX  Start WL:	220.0 nm
EX  End WL:	600.0 nm
EX Sampling interval:	5.0 nm
EM  Start WL:	230.0 nm
EM  End WL:	650.0 nm
EM Sampling interval:	5.0 nm
Scan speed:	12000 nm/min
EX Slit:	5.0 nm
EM Slit:	5.0 nm
PMT Voltage:	700 V
Response:	Auto 
Corrected spectra:	Off
Contour interval:	50.000

Peak integration
Integration method:	Rectangular
Sensitivity:	1
Threshold:	1.000

Peaks
No.	ApexEX/EM(nm)	Height(Data)
1	225.0/575.0	52.95
2	225.0/600.0	46.58
3	230.0/345.0	1128
4	230.0/565.0	58.83
5	230.0/585.0	54.64
6	230.0/605.0	45.93
7	235.0/365.0	1009
8	235.0/505.0	272.2
9	240.0/265.0	346.3
10	240.0/385.0	889.6
11	240.0/520.0	241.9
12	245.0/535.0	201.9
13	250.0/545.0	166.5
14	255.0/280.0	560.7
15	255.0/560.0	143.0
16	260.0/570.0	114.7
17	265.0/585.0	109.7
18	270.0/300.0	1020
19	270.0/595.0	97.13
20	275.0/305.0	1176
21	275.0/340.0	937.6
22	275.0/610.0	86.57
23	280.0/310.0	1055
24	280.0/625.0	74.98
25	285.0/315.0	992.2
26	285.0/635.0	55.92
27	290.0/325.0	911.9
28	305.0/345.0	572.2
29	315.0/355.0	462.3
30	320.0/360.0	438.5
31	330.0/375.0	403.1
32	335.0/380.0	397.1
33	430.0/505.0	32.24
34	445.0/525.0	19.13
35	465.0/340.0	3.363
36	485.0/265.0	2.125
37	505.0/275.0	3.215
38	510.0/280.0	3.410
39	520.0/285.0	3.769
40	530.0/290.0	3.569
41	535.0/270.0	45.03
42	540.0/295.0	5.152
43	545.0/300.0	5.849
44	555.0/305.0	5.815
45	560.0/310.0	5.548
46	570.0/315.0	5.587
47	580.0/320.0	5.786
48	585.0/325.0	5.712

Data points
	220.0	225.0	230.0	235.0	240.0	245.0	250.0	255.0	260.0	265.0	270.0	275.0	280.0	285.0	290.0	295.0	300.0	305.0	310.0	315.0	320.0	325.0	330.0	335.0	340.0	345.0	350.0	355.0	360.0	365.0	370.0	375.0	380.0	385.0	390.0	395.0	400.0	405.0	410.0	415.0	420.0	425.0	430.0	435.0	440.0	445.0	450.0	455.0	460.0	465.0	470.0	475.0	480.0	485.0	490.0	495.0	500.0	505.0	510.0	515.0	520.0	525.0	530.0	535.0	540.0	545.0	550.0	555.0	560.0	565.0	570.0	575.0	580.0	585.0	590.0	595.0	600.0
230.0	28.39	672.6	1820	583.4	27.71	4.577	3.437	3.149	3.124	2.851	2.899	2.625	2.099	1.931	1.881	1.393	1.223	1.031	0.964	0.915	0.747	0.671	0.678	0.559	0.554	0.551	0.487	0.478	0.490	0.399	0.416	0.319	0.392	0.329	0.360	0.324	0.314	0.264	0.252	0.264	0.277	0.312	0.309	0.274	0.248	0.214	1.010	4.196	7.149	4.887	1.728	0.368	0.174	0.162	0.148	0.165	0.185	0.152	0.138	0.121	0.148	0.146	0.130	0.150	0.151	0.142	0.150	0.156	0.138	0.136	0.131	0.148	0.159	0.143	0.132	0.120	0.148
235.0	56.49	194.4	1318	2492	523.7	49.10	5.524	4.251	3.452	3.524	3.249	2.751	2.505	2.106	2.259	1.554	1.383	1.127	1.099	1.062	0.892	0.777	0.831	0.613	0.649	0.524	0.551	0.456	0.424	0.500	0.431	0.390	0.321	0.301	0.339	0.318	0.311	0.293	0.266	0.277	0.224	0.279	0.324	0.428	0.333	0.198	0.448	1.219	3.074	6.190	9.037	9.050	3.836	0.766	0.160	0.193	0.163	0.186	0.145	0.115	0.143	0.132	0.167	0.165	0.170	0.165	0.120	0.132	0.155	0.128	0.116	0.116	0.133	0.138	0.130	0.117	0.129
240.0	87.17	101.0	418.3	2286	3083	422.2	22.71	6.831	4.015	4.012	3.604	3.084	2.374	2.285	1.792	1.682	1.376	1.278	0.962	0.884	0.867	0.684	0.693	0.650	0.616	0.635	0.681	0.544	0.477	0.417	0.459	0.406	0.360	0.349	0.288	0.283	0.301	0.331	0.293	0.246	0.247	0.272	0.277	0.365	0.370	0.440	0.300	0.499	0.863	1.943	5.714	13.49	16.46	9.895	3.142	0.406	0.174	0.174	0.158	0.148	0.151	0.137	0.160	0.157	0.161	0.152	0.151	0.140	0.157	0.128	0.141	0.140	0.139	0.162	0.167	0.142	0.129
245.0	68.97	135.5	145.1	811.1	3527	3075	307.4	11.96	5.581	4.583	3.853	3.369	3.046	2.401	1.832	1.718	1.408	1.323	1.078	0.895	0.868	0.764	0.753	0.805	0.548	0.642	0.605	0.506	0.536	0.387	0.545	0.407	0.387	0.297	0.268	0.341	0.273	0.252	0.279	0.325	0.245	0.257	0.264	0.301	0.338	0.547	0.588	0.530	0.416	0.585	1.499	4.887	13.12	20.84	18.36	8.594	1.956	0.263	0.197	0.182	0.156	0.163	0.145	0.130	0.156	0.134	0.139	0.140	0.173	0.121	0.142	0.123	0.146	0.145	0.145	0.158	0.138
250.0	29.92	99.70	192.3	265.6	1136	3290	3999	1160	69.09	6.539	5.759	4.634	3.768	2.539	2.084	1.980	1.631	1.428	1.283	1.057	0.965	0.833	0.851	0.837	0.647	0.711	0.583	0.548	0.502	0.514	0.493	0.407	0.392	0.364	0.336	0.304	0.300	0.301	0.277	0.312	0.305	0.287	0.246	0.313	0.289	0.299	0.393	0.658	0.773	0.738	0.657	1.346	3.352	7.262	13.26	19.60	24.31	17.43	8.977	1.925	0.284	0.221	0.160	0.180	0.155	0.143	0.155	0.148	0.161	0.139	0.155	0.169	0.146	0.170	0.152	0.158	0.153
255.0	27.37	37.76	146.7	302.6	343.9	837.9	3385	6475	1609	69.02	9.040	6.438	5.810	3.543	2.580	2.170	1.899	1.705	1.163	1.331	1.106	0.975	0.799	0.765	0.888	0.756	0.572	0.487	0.638	0.545	0.491	0.371	0.447	0.412	0.275	0.364	0.303	0.289	0.341	0.332	0.234	0.316	0.249	0.353	0.291	0.232	0.258	0.344	0.550	0.799	1.189	1.178	1.109	1.802	3.167	4.893	10.46	24.24	39.16	26.98	13.40	2.116	0.255	0.213	0.203	0.160	0.169	0.166	0.189	0.165	0.236	0.177	0.174	0.163	0.239	0.158	0.172
260.0	22.58	21.53	61.75	257.1	314.0	242.1	1022	5452	7218	1201	31.51	8.406	6.679	4.043	3.317	2.684	1.968	1.872	1.436	1.415	1.195	1.152	0.899	0.824	0.921	0.656	0.564	0.717	0.649	0.644	0.492	0.454	0.559	0.356	0.411	0.406	0.316	0.306	0.366	0.269	0.268	0.324	0.320	0.285	0.258	0.220	0.246	0.298	0.328	0.409	0.836	1.625	1.580	1.000	0.998	1.352	2.645	6.850	19.25	38.40	49.15	24.41	9.896	0.911	0.254	0.263	0.186	0.207	0.219	0.169	0.178	0.149	0.196	0.147	0.192	0.145	0.158
265.0	30.78	20.37	26.79	111.2	346.3	242.1	266.8	1826	7768	7168	208.1	14.89	8.237	5.199	4.021	2.808	2.255	1.905	1.637	1.516	1.316	1.256	0.980	0.783	0.804	0.719	0.652	0.690	0.837	0.653	0.453	0.549	0.534	0.475	0.431	0.427	0.334	0.350	0.333	0.332	0.279	0.338	0.273	0.292	0.312	0.257	0.279	0.214	0.240	0.260	0.395	0.880	1.873	2.125	1.303	0.700	0.862	1.801	4.752	12.41	31.15	52.35	56.61	20.86	4.595	0.465	0.294	0.246	0.204	0.230	0.228	0.253	0.201	0.156	0.177	0.173	0.167
270.0	39.42	38.86	33.96	48.38	164.3	353.4	284.2	461.2	2413	7055	8698	2498	52.17	8.620	5.889	3.885	2.924	2.496	2.013	1.762	1.477	1.471	0.971	0.938	0.961	0.868	0.857	0.763	0.771	0.718	0.631	0.572	0.618	0.555	0.483	0.445	0.433	0.361	0.382	0.357	0.330	0.328	0.317	0.341	0.372	0.304	0.261	0.325	0.279	0.278	0.274	0.400	0.767	1.235	1.755	1.972	1.586	1.024	1.341	3.050	7.573	16.05	32.26	45.03	42.28	44.47	14.41	5.083	0.497	0.301	0.263	0.268	0.238	0.211	0.203	0.198	0.232
275.0	91.20	101.1	103.1	62.74	68.93	167.4	456.9	349.6	592.3	1734	6084	9999.9	1160	52.88	9.367	5.748	4.176	3.112	2.324	2.278	1.390	1.559	1.159	1.145	1.024	1.060	0.901	0.850	0.809	0.834	0.699	0.594	0.785	0.669	0.543	0.524	0.457	0.433	0.497	0.440	0.445	0.370	0.391	0.494	0.492	0.433	0.530	0.535	0.483	0.369	0.327	0.409	0.436	0.605	0.658	1.204	2.409	3.215	2.067	1.390	2.084	3.934	7.635	10.76	15.02	39.96	72.14	73.66	22.81	5.102	0.486	0.327	0.292	0.247	0.236	0.252	0.201
280.0	153.3	198.5	176.9	105.3	61.58	78.34	289.0	560.7	304.7	462.5	1703	9262	9899	858.6	24.35	7.992	5.831	3.327	3.108	2.826	1.956	1.624	1.313	1.177	1.086	1.054	1.090	0.896	0.849	0.794	0.806	0.612	0.681	0.707	0.591	0.638	0.507	0.547	0.534	0.452	0.520	0.385	0.455	0.492	0.529	0.628	0.706	0.798	0.642	0.519	0.416	0.463	0.365	0.383	0.496	0.602	1.098	2.306	3.410	2.829	1.509	1.356	2.244	2.927	3.893	10.36	26.80	60.59	87.59	32.46	17.91	2.287	0.378	0.276	0.311	0.241	0.215
285.0	202.3	277.6	268.4	165.7	84.91	66.82	138.3	484.4	530.0	246.4	497.5	2830	9999.9	8024	119.0	12.92	7.503	4.986	3.535	3.092	2.264	1.860	1.540	1.326	1.368	1.188	1.158	0.915	0.868	0.831	0.777	0.674	0.807	0.730	0.877	0.682	0.693	0.628	0.635	0.542	0.501	0.389	0.543	0.665	0.614	0.814	1.006	1.023	0.930	0.726	0.681	0.497	0.474	0.418	0.395	0.527	0.569	0.985	2.029	3.533	3.769	2.032	1.192	1.235	1.649	2.981	6.663	16.25	39.71	66.76	86.41	29.81	13.57	0.957	0.396	0.304	0.276
290.0	256.5	392.4	362.8	236.2	120.2	88.13	113.2	238.0	550.3	602.3	367.9	833.3	3035	8781	9210	1986	32.30	7.521	5.189	4.091	2.907	2.133	1.881	1.636	1.466	1.319	1.189	1.003	0.963	0.882	0.832	0.755	0.865	0.776	0.904	0.824	0.719	0.680	0.608	0.589	0.580	0.540	0.607	0.690	0.790	0.961	1.130	1.181	1.266	1.132	0.807	0.737	0.634	0.540	0.555	0.611	0.627	0.741	1.061	1.669	2.601	3.216	3.569	2.736	1.931	1.780	2.548	4.597	9.966	18.11	34.87	49.02	73.07	55.26	19.96	10.00	1.541
295.0	297.0	441.5	468.0	305.7	164.4	122.9	143.0	199.0	323.5	692.3	810.9	527.0	929.3	2200	6065	9999.9	678.6	31.06	7.351	5.667	3.864	3.003	2.056	1.947	1.695	1.604	1.238	1.182	0.951	1.028	0.869	0.782	0.843	0.848	0.807	0.797	0.787	0.957	0.728	0.593	0.604	0.604	0.645	0.691	0.878	1.089	1.296	1.416	1.365	1.310	0.992	0.890	0.877	0.719	0.754	0.677	0.707	0.802	1.049	1.381	1.467	1.751	2.604	4.063	5.152	3.427	2.298	2.634	3.686	5.368	8.959	12.10	18.82	30.09	62.75	89.28	32.47
300.0	322.7	502.2	524.3	355.1	217.3	166.0	183.1	233.2	299.7	510.0	1020	772.7	550.3	721.3	1678	7926	9999.9	520.5	15.86	7.506	4.575	3.360	2.656	2.283	2.077	1.662	1.296	1.147	1.152	1.096	0.992	0.949	0.997	0.872	1.026	0.874	0.886	0.911	0.763	0.584	0.650	0.576	0.628	0.780	0.946	1.207	1.265	1.613	1.526	1.414	1.197	1.038	0.921	0.887	0.868	0.880	0.976	1.032	1.254	1.234	1.446	1.541	2.009	2.838	4.645	5.849	4.797	3.062	2.855	3.042	3.474	3.914	5.352	7.861	18.75	47.62	80.26
305.0	327.9	502.7	531.5	400.6	249.8	203.2	239.7	285.0	351.6	483.7	835.2	1176	652.9	474.9	564.3	2335	9809	5084	74.21	12.08	6.037	4.399	3.363	2.449	2.197	1.744	1.445	1.390	1.317	0.995	0.998	1.027	1.011	0.843	1.069	0.928	0.900	0.826	0.822	0.806	0.724	0.706	0.625	0.800	0.956	1.251	1.374	1.790	1.768	1.557	1.168	1.364	1.166	1.058	1.090	0.961	1.203	1.315	1.344	1.638	1.725	1.880	2.125	2.634	3.285	4.668	5.688	5.815	3.993	3.063	2.603	2.497	2.641	2.897	5.134	12.03	26.79
310.0	351.0	508.7	541.8	420.0	284.6	252.0	285.9	338.1	416.9	531.3	713.3	1019	1055	620.4	388.1	664.9	2789	6368	6666	1665	23.68	6.210	4.433	3.047	2.643	1.982	1.717	1.473	1.354	1.234	1.101	1.055	1.074	0.993	1.020	1.006	0.925	0.904	0.805	0.795	0.761	0.806	0.680	0.782	0.969	1.219	1.305	1.711	1.703	1.621	1.357	1.435	1.232	1.218	1.127	1.199	1.425	1.604	1.687	1.834	2.054	2.194	2.359	2.878	3.136	3.589	4.244	5.007	5.548	5.241	4.283	3.091	2.369	2.279	2.408	3.606	6.825
315.0	347.2	502.6	568.9	442.9	318.6	297.5	334.3	387.5	476.5	584.9	717.8	851.3	959.4	992.2	495.2	340.6	745.5	1543	4432	9999.9	502.4	25.20	6.339	4.045	3.532	2.482	1.923	1.663	1.514	1.364	1.159	1.099	1.157	1.118	1.131	1.046	0.866	0.918	0.715	0.782	0.810	0.771	0.854	0.789	1.006	1.155	1.449	1.875	1.774	1.704	1.483	1.479	1.353	1.273	1.320	1.360	1.452	1.670	1.892	1.822	2.304	2.540	2.678	3.056	3.074	3.358	3.771	3.949	4.380	4.599	5.587	5.552	4.030	2.616	2.242	2.020	2.581
320.0	378.9	550.6	640.6	501.1	363.7	337.0	364.3	422.9	513.8	628.5	751.6	854.4	859.3	987.2	774.1	352.1	338.9	458.1	1181	7341	8139	421.6	13.83	5.187	4.342	2.909	2.361	1.969	1.629	1.578	1.229	1.185	1.252	1.134	1.137	1.088	0.900	0.913	0.904	0.830	0.748	0.809	0.874	0.938	1.068	1.303	1.519	1.820	2.034	1.902	1.635	1.594	1.564	1.426	1.528	1.599	1.584	1.826	1.882	1.993	2.376	2.555	2.740	2.871	3.332	3.636	3.775	4.297	4.121	3.965	4.667	5.472	5.786	4.566	2.972	2.031	1.963
325.0	415.3	644.7	791.2	608.5	421.1	367.8	399.9	460.2	557.3	661.3	791.9	885.2	869.2	859.6	911.9	534.1	287.0	247.1	357.8	2069	7381	3917	59.66	8.790	5.135	3.626	2.835	2.025	1.780	1.673	1.590	1.294	1.247	1.019	1.095	1.015	0.982	0.924	0.914	0.757	0.746	0.989	0.810	0.904	1.274	1.447	1.673	2.067	2.400	2.284	1.862	1.833	1.679	1.656	1.644	1.651	1.618	2.154	2.169	2.163	2.378	2.523	2.877	3.110	3.612	3.922	3.791	4.360	4.269	4.003	4.207	4.196	5.013	5.712	4.897	3.078	2.412
330.0	452.8	749.0	942.8	792.8	520.2	430.4	441.2	499.7	585.6	702.3	824.7	917.7	897.9	829.9	772.5	717.6	457.2	250.1	206.6	552.5	2062	4751	5413	1342	21.20	5.129	3.616	2.719	2.160	1.919	1.716	1.494	1.287	1.168	1.126	1.050	0.937	0.882	0.837	0.833	0.786	0.868	0.860	1.016	1.233	1.439	2.043	2.537	2.897	2.668	2.384	2.213	2.127	1.801	1.904	1.829	1.902	2.142	2.364	2.306	2.593	2.807	3.188	3.484	3.751	4.079	4.042	4.274	4.393	4.397	4.366	4.060	4.252	4.565	4.497	4.567	4.099
335.0	455.7	804.1	1064	895.6	622.5	493.6	485.1	526.6	616.8	723.5	847.5	936.8	932.3	850.9	737.1	638.6	658.8	400.6	216.0	248.6	537.2	1139	3556	7564	1904	23.71	4.878	3.812	2.746	2.211	2.064	1.705	1.478	1.227	1.180	1.078	1.091	0.954	0.816	0.975	0.786	0.819	0.964	0.981	1.231	1.718	2.032	2.677	2.935	3.101	2.605	2.743	2.375	2.240	1.988	1.982	2.316	2.367	2.432	2.451	2.796	3.000	3.217	3.660	3.702	4.148	4.210	4.103	4.579	4.272	4.593	4.161	4.257	4.257	3.990	3.713	4.096
340.0	460.2	822.6	1105	976.8	687.2	546.4	519.9	536.4	631.5	734.2	849.7	937.6	937.0	864.5	746.4	605.4	600.7	571.2	288.2	201.2	219.4	318.1	933.0	5015	7299	377.8	13.41	4.691	3.283	2.738	2.376	1.889	1.602	1.360	1.156	1.178	1.009	0.908	0.883	0.894	0.835	0.856	0.991	0.993	1.407	1.753	2.254	2.718	3.156	3.363	2.843	3.015	2.679	2.357	2.322	2.131	2.280	2.380	2.473	2.704	2.813	3.067	3.417	3.641	3.636	4.172	4.039	4.369	4.564	4.389	4.594	4.428	4.343	4.071	3.920	3.569	3.610
345.0	470.8	817.1	1128	1026	731.8	585.8	550.3	557.9	625.1	731.5	835.9	931.0	919.7	868.8	744.8	605.3	530.3	572.2	428.7	229.0	167.2	153.3	265.6	1392	6236	5665	52.81	7.596	4.187	3.206	2.482	1.872	1.724	1.345	1.108	1.085	0.917	1.012	0.809	0.848	0.868	0.914	0.977	1.044	1.323	1.696	2.016	2.853	3.186	3.317	3.064	3.260	2.863	2.575	2.443	2.358	2.437	2.475	2.373	2.741	2.822	3.125	3.193	3.533	3.622	3.939	3.937	4.025	4.369	4.666	4.735	4.469	4.333	4.124	3.683	3.570	3.295
350.0	427.8	779.3	1064	1016	793.3	648.6	580.8	585.1	638.4	726.7	815.7	890.3	889.6	843.2	739.7	616.1	522.0	480.6	489.1	366.4	206.7	147.8	142.4	369.6	1734	4369	4432	1236	20.12	4.336	3.213	2.267	2.000	1.520	1.217	1.161	1.003	0.962	0.841	0.834	0.806	0.954	0.945	1.085	1.172	1.627	1.966	2.595	3.113	3.134	2.938	3.203	2.957	2.864	2.549	2.390	2.571	2.409	2.511	2.782	2.779	3.161	3.248	3.448	3.793	3.867	3.993	3.915	4.252	4.212	4.294	4.104	4.211	4.242	3.765	3.717	3.445
355.0	408.4	714.8	995.2	1007	839.8	698.6	635.6	626.9	667.4	732.5	795.6	859.0	861.4	823.4	741.5	635.2	543.5	469.9	430.7	462.3	337.2	191.9	146.5	167.1	443.8	1034	2763	6246	1808	25.18	4.576	3.027	2.475	1.794	1.429	1.298	1.125	1.001	1.038	0.797	0.867	0.970	0.876	1.008	1.233	1.680	1.781	2.402	2.876	2.834	2.857	3.206	3.104	3.068	2.809	2.605	2.725	2.811	2.865	2.815	2.855	3.284	3.275	3.364	3.725	3.537	3.997	4.064	4.103	4.321	4.408	4.201	4.274	3.987	3.993	3.796	3.690
360.0	407.2	683.5	951.1	979.9	857.4	748.2	681.7	658.7	692.2	739.1	792.0	841.2	838.6	805.3	732.6	641.0	560.8	485.5	424.1	426.5	438.5	268.5	175.0	143.0	174.9	279.7	719.4	4019	6140	367.8	14.71	3.886	3.078	2.302	1.486	1.317	1.190	1.258	1.009	0.868	0.840	0.814	0.926	0.928	1.278	1.649	1.786	2.272	2.635	2.845	2.936	3.292	3.339	3.085	2.905	2.813	2.875	2.812	2.936	3.105	3.192	3.118	3.330	3.451	3.713	3.892	3.755	4.116	4.168	4.029	4.128	4.182	4.218	4.157	3.815	3.792	3.652
365.0	384.8	649.7	919.6	1009	872.2	778.8	710.2	679.9	702.4	737.2	793.1	833.6	821.0	795.5	728.7	650.2	574.8	510.0	443.2	405.4	432.0	379.9	225.0	163.1	134.9	128.6	205.9	1113	5046	5316	294.4	6.852	4.016	2.405	1.777	1.467	1.277	1.246	1.136	0.931	0.875	0.800	0.933	1.101	1.246	1.426	1.866	2.206	2.586	2.706	2.877	3.388	3.213	2.963	3.085	2.902	2.842	2.942	3.013	3.057	3.277	3.185	3.697	3.526	3.492	3.781	3.696	3.852	4.052	4.139	3.919	4.069	4.042	4.049	3.955	3.915	3.792
370.0	370.2	641.5	866.9	950.5	884.5	794.1	743.7	724.2	727.4	754.6	791.9	807.7	801.9	774.3	721.2	650.8	589.4	538.3	473.9	425.0	401.3	413.5	346.4	220.8	158.9	122.4	113.3	296.3	1380	4035	4175	1171	19.02	3.751	2.490	1.794	1.442	1.392	1.180	1.012	0.901	0.875	0.947	1.042	1.167	1.406	1.731	2.272	2.557	2.398	2.674	3.273	3.462	3.157	3.068	3.160	2.984	3.107	3.217	3.347	3.209	3.225	3.553	3.568	3.623	3.525	3.689	3.699	3.884	3.819	3.911	4.033	3.919	3.919	4.124	3.916	4.024
375.0	357.0	600.8	827.2	924.3	888.1	829.3	766.3	746.0	751.6	766.1	786.6	792.7	776.2	754.9	707.7	648.0	600.5	551.3	507.1	459.7	410.1	386.7	403.1	337.0	208.5	151.5	118.1	133.5	351.6	951.2	2517	5549	1744	22.45	3.850	2.391	1.819	1.527	1.261	0.951	0.935	0.973	1.007	0.999	1.129	1.418	1.556	2.050	2.447	2.464	2.542	3.352	3.197	3.270	3.093	3.152	3.085	3.177	3.235	3.311	3.187	3.190	3.565	3.661	3.738	3.469	3.742	3.734	3.631	3.868	3.858	3.842	4.047	3.842	4.126	3.881	4.071
380.0	337.2	586.9	789.2	902.8	884.4	847.9	793.3	763.3	754.6	764.1	772.3	773.1	764.1	739.5	701.4	646.1	602.6	561.3	524.7	475.9	432.5	388.7	379.9	397.1	276.9	180.2	138.1	112.7	137.7	253.4	652.1	3467	5734	312.4	12.53	3.057	2.060	1.681	1.417	1.047	1.015	0.978	0.931	1.001	1.191	1.343	1.690	1.983	2.266	2.265	2.577	3.284	3.223	3.286	3.277	3.371	3.304	3.340	3.334	3.415	3.438	3.456	3.434	3.533	3.563	3.490	3.629	3.285	3.517	3.631	3.987	3.833	3.787	3.723	3.967	4.033	3.954
385.0	348.6	566.9	775.5	878.1	889.6	851.2	794.1	768.7	755.9	758.3	765.2	765.3	755.6	725.9	686.9	641.4	603.8	564.0	533.5	491.7	447.7	403.1	370.7	384.8	355.0	229.4	163.1	126.4	104.2	109.7	184.0	945.5	4575	4184	246.0	6.238	2.576	1.952	1.525	1.341	1.034	1.036	0.921	1.118	1.135	1.206	1.568	2.155	2.235	2.374	2.340	3.149	3.304	3.187	3.347	3.353	3.539	3.427	3.376	3.518	3.585	3.539	3.531	3.671	3.516	3.489	3.464	3.602	3.528	3.715	3.804	3.959	3.905	3.923	3.850	3.737	4.060
390.0	343.2	529.2	758.0	858.6	879.9	853.9	801.9	774.2	759.0	745.4	760.1	750.3	736.2	705.0	670.0	624.6	598.3	563.1	535.5	501.7	463.0	426.2	384.7	363.3	366.3	316.1	215.9	157.8	122.1	99.08	94.05	248.2	1244	3037	3136	926.8	15.52	2.953	1.938	1.607	1.222	1.158	1.132	1.162	1.260	1.352	1.657	2.175	2.240	2.415	2.361	2.989	3.277	3.149	3.413	3.355	3.394	3.389	3.198	3.378	3.360	3.428	3.523	3.607	3.536	3.432	3.427	3.371	3.648	3.708	3.490	3.762	3.792	3.722	3.725	3.758	3.864
395.0	334.6	514.9	733.9	837.8	856.1	846.8	806.5	771.1	754.6	742.5	743.5	732.9	714.6	692.9	650.6	609.0	580.9	560.1	535.7	502.7	475.3	441.5	403.7	373.6	343.1	346.1	302.1	202.9	153.7	121.5	95.58	107.4	312.3	714.8	1854	4118	1384	19.42	2.969	1.929	1.470	1.219	1.211	1.293	1.244	1.494	1.555	1.989	2.225	2.435	2.396	2.877	3.435	3.165	3.365	3.233	3.526	3.448	3.425	3.464	3.250	3.375	3.386	3.535	3.394	3.652	3.268	3.108	3.432	3.925	3.320	3.531	3.555	3.564	3.622	3.738	3.737
400.0	309.4	510.1	699.2	817.4	852.9	847.5	799.2	770.0	758.4	742.5	732.2	720.4	706.8	674.3	638.2	602.1	567.4	547.0	528.6	500.5	478.5	448.3	418.0	387.7	349.0	334.9	341.9	260.5	181.0	144.3	111.1	87.34	115.0	190.2	480.1	2571	3922	267.5	11.50	2.666	1.714	1.512	1.283	1.277	1.361	1.496	1.633	1.842	2.147	2.260	2.377	3.072	3.299	3.033	3.342	3.024	3.675	3.494	3.278	3.428	3.172	3.273	3.295	3.272	3.538	3.498	3.037	3.241	3.455	3.437	3.587	3.482	3.424	3.358	3.691	3.545	3.700
405.0	304.1	504.3	694.6	809.0	847.9	828.0	807.0	775.1	758.7	742.5	726.8	713.2	691.3	660.1	625.3	588.3	561.7	539.7	519.5	496.5	473.3	453.3	424.2	393.5	360.3	332.3	333.1	316.6	223.2	167.3	129.2	96.66	79.39	79.90	133.7	695.3	2947	3255	216.4	5.278	2.246	1.655	1.361	1.342	1.354	1.495	1.497	1.696	2.254	2.333	2.428	2.917	3.122	3.074	3.226	3.170	3.604	3.484	3.397	3.555	3.146	3.526	3.418	3.313	3.211	3.372	3.137	3.114	3.411	3.489	3.365	3.521	3.375	3.770	3.580	3.496	3.631
410.0	315.3	488.6	687.1	782.8	833.5	815.2	798.3	774.0	749.4	726.5	718.1	698.0	676.3	645.6	606.4	568.0	539.8	522.4	502.5	483.1	463.7	448.4	425.0	401.9	371.1	340.7	319.6	318.2	288.3	211.3	154.2	115.7	86.75	67.33	64.43	179.9	788.6	2314	2532	829.3	14.10	2.221	1.810	1.527	1.404	1.482	1.558	1.901	2.148	2.282	2.228	2.813	3.126	3.037	3.231	3.118	3.436	3.487	3.421	3.558	3.335	3.331	3.306	3.391	3.316	3.366	3.169	3.100	3.170	3.316	3.194	3.303	3.261	3.607	3.520	3.647	3.545
415.0	300.9	463.4	652.9	760.9	813.1	800.8	788.4	754.0	739.0	714.1	699.4	685.1	646.3	617.3	584.6	540.4	515.8	499.0	473.2	462.6	447.9	436.5	417.8	400.0	375.3	344.7	320.2	299.9	299.3	269.4	186.0	134.2	99.61	73.93	57.06	70.60	196.9	539.2	1415	3120	1156	18.02	2.227	1.773	1.799	1.564	1.526	1.871	2.028	2.154	2.207	2.928	3.083	2.897	3.107	2.882	3.324	3.404	3.577	3.355	3.327	3.262	3.415	3.354	3.162	3.245	3.250	3.035	3.236	3.151	3.065	3.353	3.368	3.407	3.292	3.201	3.366
