Sample:	'1
File name:	Default_20240316_160551.FD3
Run date:	'15:59:30, 03/16/2024
Operator:	dsjg
Comment:	'

Instrument
Model:	F-2700 FL Spectrophotometer
Serial number:	2198-001
ROM Version:	4J14000 07

Instrument parameters
Measurement type:	3-D scan
Data mode:	Fluorescence
EX  Start WL:	220.0 nm
EX  End WL:	600.0 nm
EX Sampling interval:	5.0 nm
EM  Start WL:	230.0 nm
EM  End WL:	650.0 nm
EM Sampling interval:	5.0 nm
Scan speed:	12000 nm/min
EX Slit:	5.0 nm
EM Slit:	5.0 nm
PMT Voltage:	700 V
Response:	Auto 
Corrected spectra:	Off
Contour interval:	50.000

Peak integration
Integration method:	Rectangular
Sensitivity:	1
Threshold:	1.000

Peaks
No.	ApexEX/EM(nm)	Height(Data)
1	225.0/495.0	92.55
2	225.0/555.0	23.06
3	230.0/340.0	 4096
4	230.0/505.0	89.74
5	230.0/575.0	17.69
6	235.0/255.0	171.3
7	235.0/515.0	79.46
8	235.0/585.0	11.33
9	240.0/265.0	172.0
10	240.0/525.0	69.56
11	245.0/270.0	158.2
12	245.0/535.0	51.88
13	250.0/275.0	172.0
14	250.0/550.0	42.62
15	255.0/280.0	194.6
16	255.0/565.0	35.33
17	260.0/570.0	27.61
18	265.0/580.0	26.29
19	275.0/320.0	 2299
20	275.0/620.0	100.7
21	340.0/385.0	107.3
22	345.0/390.0	74.36
23	350.0/395.0	68.71
24	355.0/405.0	69.00
25	360.0/410.0	56.92
26	365.0/415.0	55.84
27	370.0/425.0	54.75
28	375.0/430.0	45.26
29	380.0/435.0	41.61
30	385.0/445.0	38.69
31	390.0/450.0	30.10
32	395.0/455.0	28.06
33	400.0/465.0	25.50
34	405.0/470.0	19.67
35	410.0/475.0	17.67
36	415.0/485.0	15.89
37	420.0/490.0	13.12
38	425.0/495.0	12.05
39	430.0/505.0	10.63
40	435.0/510.0	9.010
41	440.0/515.0	7.829
42	445.0/525.0	7.070
43	450.0/530.0	5.992
44	455.0/535.0	5.420
45	460.0/340.0	10.35
46	460.0/545.0	4.779
47	465.0/550.0	3.831
48	470.0/560.0	3.289
49	475.0/350.0	9.376
50	475.0/565.0	2.676
51	485.0/580.0	1.657
52	560.0/320.0	12.06

Data points
	220.0	225.0	230.0	235.0	240.0	245.0	250.0	255.0	260.0	265.0	270.0	275.0	280.0	285.0	290.0	295.0	300.0	305.0	310.0	315.0	320.0	325.0	330.0	335.0	340.0	345.0	350.0	355.0	360.0	365.0	370.0	375.0	380.0	385.0	390.0	395.0	400.0	405.0	410.0	415.0	420.0	425.0	430.0	435.0	440.0	445.0	450.0	455.0	460.0	465.0	470.0	475.0	480.0	485.0	490.0	495.0	500.0	505.0	510.0	515.0	520.0	525.0	530.0	535.0	540.0	545.0	550.0	555.0	560.0	565.0	570.0	575.0	580.0	585.0	590.0	595.0	600.0
230.0	32.11	536.2	 1229	351.0	10.98	3.276	3.054	2.491	1.993	1.956	2.009	1.755	1.810	1.543	1.170	1.217	0.904	0.805	0.560	0.463	0.307	0.355	0.315	0.357	0.337	0.299	0.302	0.282	0.255	0.286	0.236	0.259	0.214	0.243	0.188	0.450	0.476	0.475	0.456	0.394	0.396	0.521	0.551	0.422	0.345	0.272	0.341	1.242	2.784	2.709	1.334	0.465	0.228	0.248	0.172	0.186	0.145	0.255	0.197	0.197	0.199	0.175	0.099	0.117	0.131	0.185	0.106	0.171	0.179	0.164	0.136	0.076	0.155	0.142	0.112	0.147	0.167
235.0	61.36	146.6	694.1	 1071	364.3	18.26	4.509	2.908	3.218	2.406	2.305	1.812	2.353	2.278	1.572	1.024	0.511	0.671	0.475	0.277	0.325	0.560	0.270	0.345	0.331	0.314	0.230	0.229	0.256	0.364	0.295	0.170	0.250	0.276	0.272	0.235	0.410	0.500	0.512	0.396	0.358	0.470	0.504	0.476	0.508	0.319	0.306	0.444	1.155	1.565	2.438	2.725	1.863	0.640	0.241	0.164	0.252	0.231	0.148	0.246	0.243	0.106	0.178	0.169	0.255	0.171	0.112	0.139	0.169	0.134	0.059	0.134	0.235	0.124	0.128	0.188	0.247
240.0	92.46	71.38	206.8	837.9	 1060	257.7	6.191	2.926	3.578	2.359	3.372	1.433	2.848	1.448	1.825	1.071	0.779	0.637	0.476	0.321	0.475	0.771	0.353	0.364	0.178	0.123	0.208	0.131	0.186	0.482	0.449	0.187	0.200	0.136	0.268	0.168	0.269	0.390	0.516	0.420	0.248	0.406	0.334	0.322	0.470	0.466	0.519	0.326	0.435	0.619	1.188	2.257	3.456	2.730	1.349	0.338	0.272	0.189	0.250	0.215	0.085	0.125	0.090	0.222	0.137	0.298	0.223	0.140	0.175	0.178	0.187	0.100	0.119	0.094	0.110	0.140	0.232
245.0	72.59	112.6	82.43	288.8	 1021	866.6	155.0	3.972	3.884	2.236	2.469	1.463	2.057	2.058	1.811	1.173	0.506	0.528	0.642	0.438	0.697	0.368	0.396	0.363	0.307	0.191	0.074	0.189	0.024	0.332	0.287	0.180	0.166	0.293	0.192	0.146	0.219	0.394	0.563	0.419	0.428	0.449	0.337	0.390	0.408	0.387	0.480	0.454	0.407	0.354	0.446	0.813	1.843	3.112	3.860	2.509	0.920	0.199	0.199	0.184	0.135	0.167	0.142	0.199	0.150	0.199	0.211	0.235	0.083	0.190	0.116	0.108	0.117	0.212	0.165	0.104	0.235
250.0	33.81	91.64	124.4	106.4	328.8	832.7	913.7	297.2	23.19	2.884	2.404	1.725	1.969	1.737	1.200	1.047	0.684	0.815	0.726	0.502	0.396	0.352	0.345	0.367	0.347	0.347	0.178	0.285	0.235	0.374	0.169	0.215	0.197	0.199	0.266	0.218	0.235	0.274	0.396	0.435	0.551	0.420	0.354	0.436	0.419	0.346	0.428	0.423	0.553	0.626	0.469	0.385	0.583	1.159	1.977	2.961	3.509	3.094	1.858	0.683	0.287	0.236	0.118	0.165	0.139	0.133	0.199	0.153	0.131	0.142	0.182	0.126	0.082	0.165	0.181	0.182	0.181
255.0	14.10	28.94	96.07	171.3	113.4	213.8	656.0	 1223	401.7	19.52	2.701	2.092	1.983	1.820	1.226	1.155	1.125	0.512	0.793	0.629	0.444	0.358	0.532	0.327	0.326	0.345	0.177	0.371	0.295	0.314	0.080	0.271	0.353	0.219	0.216	0.248	0.260	0.270	0.137	0.344	0.396	0.361	0.378	0.435	0.341	0.338	0.267	0.411	0.434	0.629	0.506	0.656	0.519	0.485	0.664	0.914	1.229	2.530	4.242	4.666	2.735	0.863	0.157	0.194	0.138	0.093	0.080	0.167	0.079	0.150	0.119	0.108	0.035	0.125	0.236	0.110	0.171
260.0	6.053	11.93	40.34	151.3	147.1	76.24	195.4	911.3	 1264	299.5	9.526	3.144	2.896	1.838	1.925	1.305	1.075	0.896	0.923	0.556	0.481	0.395	0.471	0.221	0.364	0.400	0.368	0.163	0.221	0.231	0.294	0.283	0.228	0.326	0.265	0.261	0.216	0.190	0.116	0.228	0.245	0.364	0.502	0.385	0.463	0.476	0.285	0.467	0.329	0.402	0.388	0.662	0.829	0.704	0.479	0.519	0.473	0.868	1.745	3.841	5.201	4.385	1.683	0.326	0.159	0.179	0.136	0.121	0.211	0.104	0.192	0.217	0.064	0.057	0.218	0.188	0.167
265.0	9.622	9.742	14.61	69.12	172.0	108.1	58.12	297.4	 1129	 1158	213.0	4.496	2.785	1.476	2.261	0.957	0.851	1.060	0.768	0.593	0.705	0.494	0.358	0.288	0.334	0.357	0.239	0.290	0.146	0.303	0.197	0.239	0.180	0.307	0.352	0.115	0.241	0.187	0.112	0.158	0.169	0.318	0.548	0.487	0.439	0.458	0.280	0.500	0.305	0.299	0.288	0.473	0.559	0.926	0.709	0.334	0.270	0.388	0.585	1.237	2.747	4.819	4.759	3.061	0.846	0.266	0.159	0.130	0.112	0.115	0.215	0.167	0.089	0.172	0.148	0.137	0.155
270.0	12.04	10.04	11.77	21.88	82.14	158.2	114.8	89.65	346.3	903.5	 1110	483.1	37.36	2.326	2.293	1.306	1.474	1.274	0.840	0.514	0.700	0.411	0.341	0.324	0.371	0.299	0.203	0.219	0.135	0.308	0.159	0.222	0.274	0.201	0.294	0.247	0.263	0.248	0.153	0.201	0.176	0.209	0.322	0.445	0.386	0.352	0.328	0.460	0.394	0.321	0.290	0.288	0.402	0.597	0.695	0.785	0.757	0.549	0.398	0.443	0.741	1.489	2.452	3.646	3.935	3.557	2.003	0.805	0.268	0.095	0.170	0.125	0.182	0.172	0.133	0.163	0.114
275.0	19.69	19.72	12.66	13.81	24.58	70.00	172.0	125.3	92.86	224.1	625.7	 1279	292.7	32.10	2.769	1.777	1.709	1.363	0.570	0.506	0.566	0.508	0.342	0.478	0.426	0.372	0.274	0.131	0.173	0.211	0.121	0.136	0.401	0.075	0.330	0.294	0.399	0.257	0.159	0.263	0.200	0.297	0.271	0.400	0.451	0.483	0.436	0.417	0.505	0.288	0.286	0.260	0.406	0.312	0.315	0.459	0.801	1.054	0.937	0.447	0.387	0.425	0.773	1.015	1.379	2.691	4.404	4.698	2.793	0.800	0.181	0.163	0.189	0.158	0.173	0.169	0.199
280.0	21.02	23.12	14.65	13.51	10.71	22.08	102.6	194.6	101.9	63.10	182.0	783.5	 1159	233.0	12.18	1.791	2.343	1.752	1.097	0.978	0.713	0.378	0.285	0.517	0.322	0.357	0.249	0.283	0.335	0.143	0.278	0.360	0.368	0.198	0.381	0.378	0.404	0.289	0.174	0.221	0.215	0.327	0.259	0.224	0.343	0.459	0.479	0.553	0.453	0.259	0.309	0.274	0.343	0.243	0.302	0.333	0.406	0.741	1.043	1.018	0.654	0.353	0.368	0.378	0.437	0.854	1.726	3.530	4.909	4.441	1.970	0.357	0.208	0.064	0.050	0.269	0.176
285.0	25.76	22.74	18.69	14.74	9.778	11.95	40.72	148.8	190.9	64.81	57.19	243.4	875.8	 1020	169.7	4.465	1.929	2.290	0.943	0.815	0.530	0.461	0.412	0.314	0.418	0.376	0.279	0.236	0.297	0.418	0.293	0.304	0.381	0.388	0.374	0.298	0.417	0.291	0.218	0.296	0.221	0.305	0.245	0.232	0.230	0.428	0.442	0.489	0.489	0.364	0.271	0.327	0.306	0.290	0.345	0.336	0.296	0.453	0.504	0.831	1.176	0.841	0.468	0.314	0.330	0.329	0.660	1.157	2.507	3.995	4.778	3.491	1.079	0.121	0.102	0.131	0.169
290.0	37.05	34.96	33.60	26.08	30.58	28.08	43.57	86.82	181.5	202.5	108.3	97.48	279.6	660.0	838.2	432.4	34.69	3.621	1.566	0.960	0.653	0.557	0.420	0.455	0.271	0.383	0.357	0.289	0.333	0.371	0.312	0.282	0.309	0.308	0.431	0.399	0.420	0.341	0.364	0.293	0.205	0.321	0.289	0.296	0.261	0.347	0.379	0.439	0.515	0.396	0.362	0.362	0.350	0.372	0.348	0.319	0.406	0.346	0.379	0.568	0.789	1.060	1.201	0.995	0.610	0.458	0.459	0.489	0.854	1.376	2.116	3.259	3.710	3.582	2.238	0.942	0.269
295.0	79.52	89.86	79.67	90.29	86.46	109.9	147.2	178.1	220.5	316.3	364.8	232.0	201.2	256.0	484.8	979.9	631.1	47.21	5.104	1.523	0.853	0.788	0.763	0.738	0.148	0.424	0.228	0.217	0.244	0.289	0.261	0.229	0.346	0.397	0.605	0.577	0.587	0.642	0.418	0.386	0.346	0.355	0.394	0.350	0.379	0.426	0.397	0.482	0.595	0.590	0.599	0.530	0.585	0.603	0.609	0.735	0.797	0.864	0.867	0.943	1.130	1.127	1.344	1.732	1.959	1.563	1.076	0.829	1.064	1.053	1.115	1.419	1.675	2.758	4.582	5.621	3.510
300.0	216.4	225.2	231.2	213.6	232.1	269.2	367.7	446.9	469.3	498.6	787.0	763.7	326.8	293.8	435.6	800.9	 1222	605.3	38.85	4.467	1.461	1.318	0.740	0.671	0.502	0.631	0.354	0.290	0.431	0.338	0.316	0.357	0.485	0.595	0.623	0.673	0.746	1.028	0.690	0.644	0.599	0.563	0.567	0.560	0.498	0.704	0.649	0.708	0.846	0.915	0.769	0.909	1.039	0.995	1.131	1.142	1.553	1.822	1.761	2.147	2.357	2.540	2.981	2.941	3.531	3.495	3.905	3.317	2.977	2.813	2.562	2.422	2.235	2.739	3.335	5.411	6.892
305.0	410.0	484.5	466.7	420.9	419.2	513.6	704.4	895.9	 1047	 1240	 1456	 1584	 1303	971.0	847.1	834.2	 1250	 1518	127.0	12.56	2.590	1.469	0.942	0.693	0.746	0.605	0.446	0.316	0.437	0.342	0.438	0.298	0.566	0.725	1.204	1.348	1.155	1.531	1.325	1.462	1.148	1.026	1.049	1.109	1.171	0.958	1.220	1.219	1.482	1.423	1.230	1.413	1.526	1.581	1.763	2.026	2.423	3.064	3.299	3.960	4.230	4.560	5.631	6.084	6.143	6.843	7.697	7.461	7.229	6.200	5.885	5.438	5.357	5.596	5.128	5.032	6.686
310.0	644.6	785.5	776.4	675.9	644.9	740.3	993.8	 1238	 1395	 1633	 1830	 1977	 1882	 1475	 1178	 1002	 1031	 1294	861.5	387.3	22.67	2.217	1.341	1.024	0.817	0.708	0.557	0.528	0.443	0.522	0.493	0.460	0.728	1.055	1.597	1.659	1.588	1.787	1.693	1.746	1.636	1.417	1.279	1.548	1.558	1.758	1.869	2.117	2.193	2.110	1.870	2.029	2.269	2.363	2.563	2.817	3.479	4.230	4.786	5.281	5.745	6.438	7.158	7.854	8.057	8.683	9.543	9.674	9.847	9.515	8.548	7.699	7.880	7.930	6.985	6.135	6.662
315.0	939.9	 1204	 1153	928.8	860.1	931.0	 1173	 1430	 1589	 1844	 2044	 2204	 2122	 1865	 1495	 1155	 1032	976.0	520.1	799.7	496.5	16.52	1.880	1.272	0.885	0.703	0.628	0.678	0.580	0.758	0.512	0.367	0.743	1.275	1.818	1.912	1.814	2.270	2.077	2.046	1.858	1.957	1.550	2.071	2.102	2.355	2.774	3.121	3.284	2.973	2.438	2.595	3.103	2.916	3.246	3.420	4.077	4.884	5.660	6.159	6.279	7.100	7.976	8.736	9.344	9.631	10.35	10.77	11.02	10.82	10.75	10.47	9.743	9.382	8.200	7.037	7.227
320.0	 1346	 1743	 1572	 1116	962.0	 1015	 1288	 1513	 1640	 1927	 2145	 2299	 2213	 1980	 1720	 1272	 1079	926.9	327.4	450.3	892.3	96.06	7.309	2.070	1.034	1.050	0.727	0.794	0.698	0.597	0.505	0.689	0.749	1.206	1.815	2.015	2.120	2.204	2.179	2.254	2.090	2.461	2.161	2.452	2.813	3.347	3.788	4.716	4.598	3.751	2.981	3.154	3.384	3.187	3.639	3.601	4.470	5.625	5.958	6.791	6.683	7.372	8.390	9.089	9.762	10.62	10.60	11.29	12.06	11.09	11.40	11.46	11.39	10.36	8.868	7.469	7.366
325.0	 1768	 2325	 2066	 1404	 1029	 1037	 1316	 1512	 1606	 1863	 2074	 2258	 2194	 1948	 1735	 1364	 1058	885.4	296.1	197.8	547.8	759.1	77.48	4.948	1.665	1.023	0.816	0.642	0.801	0.810	0.682	0.845	0.789	1.159	1.534	1.957	2.135	2.183	2.241	2.471	2.124	2.754	2.611	2.907	3.614	4.304	5.034	6.198	6.422	5.171	3.925	3.497	3.785	3.525	3.742	3.811	4.641	5.433	6.331	6.624	7.004	7.355	7.883	8.779	9.389	10.49	10.42	11.30	12.04	11.17	11.62	10.70	11.08	11.01	9.824	7.711	7.714
330.0	 2097	 2902	 2876	 2193	 1498	 1178	 1278	 1430	 1486	 1711	 1936	 2117	 2095	 1859	 1622	 1369	 1114	857.3	346.7	182.3	238.2	489.3	652.7	308.1	20.71	2.267	1.016	0.796	0.828	0.795	0.625	0.646	0.787	1.006	1.498	1.811	2.136	2.156	2.305	2.405	2.348	2.547	2.781	3.232	4.035	5.185	5.893	7.687	7.772	7.041	5.831	5.762	5.299	4.907	4.402	4.067	4.720	5.225	5.685	6.377	6.045	6.711	7.300	7.973	8.768	9.566	9.855	10.61	11.33	10.67	11.02	10.61	10.45	10.23	9.197	8.554	7.966
335.0	 2517	 3502	 3798	 3226	 2326	 1474	 1291	 1376	 1400	 1593	 1805	 2021	 2024	 1851	 1611	 1350	 1187	963.8	463.5	278.0	228.4	246.5	373.4	808.1	427.1	14.16	1.606	1.161	0.921	0.721	0.646	0.584	0.700	0.999	1.456	1.637	1.864	2.256	2.152	2.370	2.392	2.796	3.105	3.758	4.628	6.076	7.086	9.068	9.559	9.021	8.168	8.244	8.067	7.245	5.875	4.833	4.931	5.440	5.529	6.023	6.072	6.365	6.939	7.652	8.153	8.792	9.908	10.08	10.23	10.81	11.08	10.65	10.70	10.35	8.869	8.487	8.856
340.0	 2602	 3739	 4096	 3579	 2576	 1566	 1249	 1291	 1301	 1439	 1665	 1873	 1881	 1742	 1530	 1271	 1096	993.4	531.8	316.9	239.2	206.0	213.7	461.2	864.8	77.28	4.714	1.217	0.800	0.698	0.587	0.519	0.644	0.976	1.325	1.527	1.617	2.186	2.275	2.327	2.603	2.777	2.866	3.619	4.527	6.320	7.240	9.286	10.35	9.803	8.660	9.215	9.262	7.970	6.443	5.024	4.884	4.810	5.227	5.431	5.503	6.009	6.355	6.615	7.557	8.216	8.803	9.302	9.713	10.00	10.36	9.884	10.11	9.834	8.918	7.648	8.039
345.0	 2409	 3586	 4049	 3598	 2547	 1501	 1155	 1138	 1142	 1270	 1482	 1644	 1675	 1576	 1382	 1163	973.9	881.2	588.1	330.9	239.6	194.9	171.3	207.7	532.4	611.9	60.59	2.144	0.959	0.992	0.762	0.592	0.845	1.009	1.334	1.596	1.608	1.859	1.865	2.160	2.251	2.572	2.649	3.359	4.176	5.543	6.952	9.023	9.892	9.765	9.211	9.174	8.943	7.905	6.432	4.581	4.357	4.216	4.703	4.921	5.118	5.052	5.868	5.915	6.924	7.187	7.647	8.252	8.591	9.141	9.003	8.846	9.317	8.873	7.970	6.991	7.103
350.0	 2136	 3183	 3767	 3479	 2584	 1485	 1021	988.3	958.9	 1059	 1243	 1382	 1418	 1366	 1213	 1027	850.6	738.4	556.2	403.4	256.0	197.7	170.7	140.0	172.4	388.8	549.3	247.0	13.39	0.965	0.771	0.593	0.728	0.883	1.190	1.352	1.410	1.787	1.634	1.791	1.831	2.143	2.437	3.027	3.666	4.839	6.142	8.146	9.248	9.290	8.737	9.376	9.313	8.302	6.418	4.551	3.880	3.814	4.038	4.340	4.216	4.298	4.863	5.223	5.618	6.154	6.497	6.859	7.113	7.563	7.957	7.976	7.987	7.746	7.209	6.466	6.250
355.0	 1796	 2831	 3334	 3240	 2488	 1381	894.4	831.3	794.0	864.3	 1006	 1144	 1170	 1137	 1023	888.7	732.9	627.3	467.4	392.9	315.0	199.9	163.7	124.7	76.68	103.4	231.9	664.4	339.6	10.18	0.889	0.858	0.810	0.806	1.076	1.064	1.147	1.341	1.407	1.531	1.670	1.912	2.172	2.489	3.200	4.179	5.156	7.127	7.854	8.090	8.019	8.629	8.956	7.803	6.164	3.912	3.589	3.306	3.422	3.545	3.564	3.837	4.081	4.429	4.744	4.948	5.256	5.800	5.897	6.515	6.729	6.591	6.766	6.566	6.122	5.726	5.468
360.0	 1550	 2440	 2908	 2899	 2201	 1230	775.6	700.2	655.1	725.3	829.6	949.9	973.8	964.6	880.7	755.8	625.0	539.4	397.5	318.5	316.9	216.8	148.9	108.2	52.97	37.15	63.40	328.6	730.9	68.94	3.753	0.842	0.806	0.880	1.078	1.137	1.036	1.114	1.152	1.316	1.431	1.717	1.742	2.225	2.856	3.864	4.467	5.695	6.776	7.108	7.049	7.622	7.668	6.867	5.532	3.544	3.225	2.945	2.849	2.791	3.025	3.242	3.298	3.600	3.895	4.157	4.483	4.957	5.263	5.264	5.458	5.721	5.832	5.446	5.069	4.725	4.695
365.0	 1287	 1984	 2512	 2532	 1935	 1096	672.9	592.5	558.3	599.7	688.6	790.6	823.3	810.1	735.9	644.7	534.0	461.2	343.6	262.5	251.9	246.8	150.3	96.57	45.00	23.21	20.95	90.30	454.0	553.5	55.22	1.629	0.875	0.784	0.942	0.986	0.999	1.019	1.115	1.153	1.324	1.484	1.576	1.968	2.605	3.051	3.871	4.779	5.561	6.065	6.081	6.594	6.964	6.263	4.691	3.160	2.590	2.483	2.578	2.457	2.516	2.762	2.815	3.100	3.413	3.756	3.901	4.055	4.548	4.257	4.538	4.855	4.759	4.786	4.377	4.164	3.998
370.0	 1028	 1615	 2039	 2095	 1644	930.5	557.6	480.5	442.6	474.3	546.8	619.5	650.6	644.3	593.6	524.3	439.2	382.7	290.0	221.4	182.9	201.4	187.5	102.9	39.96	18.61	11.65	24.71	119.6	361.6	513.6	219.3	12.00	1.052	0.837	0.816	0.913	0.899	0.963	1.040	0.962	1.259	1.389	1.647	1.999	2.386	3.093	3.909	4.597	4.897	4.903	5.726	6.010	5.400	3.925	2.936	2.126	2.087	2.069	2.103	1.866	2.156	2.345	2.500	2.858	2.980	3.074	3.206	3.498	3.485	3.718	3.863	3.962	3.950	3.688	3.453	3.397
375.0	810.0	 1225	 1608	 1684	 1343	758.4	441.7	370.5	343.5	369.1	421.4	475.5	502.4	500.8	464.8	411.6	348.3	309.3	237.1	182.2	143.8	133.0	159.4	143.4	46.02	16.48	9.149	10.21	30.25	85.91	220.7	604.6	295.2	10.10	1.005	0.783	0.811	0.764	0.798	0.988	0.897	0.981	1.252	1.357	1.548	1.768	2.479	3.068	3.541	3.961	3.870	4.576	4.687	4.290	3.141	2.452	1.856	1.507	1.496	1.658	1.643	1.581	1.793	2.004	2.136	2.225	2.334	2.544	2.602	2.738	2.776	3.128	3.099	2.811	3.062	2.761	2.819
380.0	662.4	 1009	 1303	 1397	 1127	631.9	365.1	309.7	275.6	298.7	340.8	382.6	409.6	404.3	374.0	340.3	287.2	255.6	203.0	156.5	122.6	104.4	109.2	143.3	76.44	18.40	9.305	7.218	11.04	22.90	57.01	298.8	626.8	57.98	3.272	0.791	0.677	0.704	0.773	0.792	0.733	0.847	0.968	1.215	1.130	1.445	1.915	2.293	3.135	3.175	3.376	3.754	4.034	3.714	2.772	2.137	1.420	1.377	1.278	1.361	1.332	1.262	1.467	1.546	1.738	1.762	1.810	2.033	2.318	2.325	2.444	2.573	2.650	2.555	2.486	2.255	2.383
385.0	523.5	814.9	 1062	 1163	945.2	539.5	308.5	259.5	230.9	245.1	281.1	307.3	331.1	336.9	310.1	280.5	241.4	216.1	172.9	135.7	104.5	88.20	82.03	99.07	107.3	35.16	9.700	6.877	6.208	8.476	15.90	80.46	390.9	456.6	45.89	1.452	0.887	0.706	0.629	0.612	0.716	0.857	0.806	1.045	1.020	1.408	1.811	1.960	2.320	2.542	2.690	3.218	3.516	3.006	2.308	1.737	1.296	1.160	1.123	1.177	1.026	1.055	1.141	1.163	1.369	1.594	1.678	1.758	2.115	1.830	2.014	2.088	2.138	2.016	1.967	1.840	1.995
390.0	413.1	621.4	826.3	916.9	760.0	430.8	247.3	202.8	182.8	194.3	220.2	244.1	261.3	262.4	242.6	224.5	192.1	173.2	143.6	113.2	87.68	73.19	66.04	59.87	73.64	74.36	28.00	7.890	5.267	5.459	6.815	20.80	102.1	289.2	395.3	174.7	11.12	0.743	0.649	0.560	0.599	0.594	0.699	0.762	0.856	1.096	1.248	1.524	1.826	2.146	2.220	2.476	2.732	2.448	1.854	1.462	1.157	1.076	0.938	1.005	0.830	0.903	0.933	0.980	1.218	1.306	1.312	1.456	1.620	1.567	1.667	1.637	1.787	1.531	1.622	1.450	1.562
395.0	328.0	485.9	643.1	703.4	592.2	344.0	201.5	160.6	139.0	152.5	168.0	185.0	201.8	202.6	188.5	175.2	152.1	139.1	118.5	93.22	74.41	61.95	53.40	42.68	37.04	56.65	68.71	22.05	5.696	5.076	5.011	7.675	25.30	68.03	165.9	460.3	244.4	9.648	0.723	0.699	0.580	0.505	0.563	0.640	0.771	0.885	1.113	1.147	1.537	1.467	1.678	1.900	2.102	1.863	1.564	1.128	0.956	0.897	0.822	0.730	0.687	0.845	0.795	1.007	0.864	0.967	0.989	1.118	1.282	1.337	1.409	1.207	1.422	1.278	1.280	1.328	1.366
400.0	264.5	403.1	530.4	587.9	492.2	293.2	174.2	135.4	120.7	129.1	139.5	156.5	168.6	167.7	155.7	144.9	127.9	117.8	99.59	79.84	64.78	54.67	47.19	36.18	25.74	30.78	68.05	52.04	11.24	5.196	4.812	4.971	8.409	17.60	41.94	223.9	483.4	49.57	3.587	0.556	0.549	0.529	0.560	0.576	0.702	0.735	0.944	1.013	1.223	1.320	1.388	1.700	1.658	1.572	1.239	0.979	0.828	0.798	0.567	0.631	0.557	0.705	0.733	0.613	0.693	0.798	0.942	0.908	1.062	1.175	1.245	1.096	1.126	1.036	1.124	1.227	1.123
405.0	215.1	340.7	453.7	499.5	413.1	256.9	159.9	122.8	105.4	110.0	121.4	132.4	138.6	143.5	134.5	124.5	110.2	102.8	90.67	72.44	57.30	49.83	42.57	32.19	21.90	19.31	39.53	69.00	29.45	7.134	4.954	4.650	5.008	6.140	12.01	58.79	284.9	382.2	41.18	1.562	0.618	0.619	0.534	0.496	0.591	0.654	0.936	0.893	0.873	1.161	1.174	1.382	1.496	1.478	1.112	0.926	0.613	0.671	0.554	0.467	0.528	0.584	0.629	0.481	0.541	0.882	0.701	0.806	0.831	0.941	1.097	1.008	0.978	0.897	0.875	0.896	1.005
410.0	172.1	266.2	363.2	403.3	339.6	212.7	131.2	105.4	92.07	92.41	103.0	110.7	115.9	119.8	109.9	105.4	93.84	87.46	78.35	64.31	51.90	43.39	38.37	30.39	20.64	15.55	19.52	42.11	56.92	26.45	7.449	5.011	4.186	4.283	5.200	15.37	72.46	221.4	316.8	147.5	10.15	0.536	0.475	0.523	0.502	0.544	0.712	0.755	0.831	0.992	0.986	1.188	1.230	1.281	0.972	0.696	0.610	0.561	0.463	0.535	0.505	0.589	0.519	0.578	0.519	0.708	0.714	0.706	0.706	0.754	0.894	0.909	0.897	0.824	0.837	0.780	0.920
