Sample:	'1
File name:	Default_20230506_105629.FD3
Run date:	'10:50:08, 05/06/2023
Operator:	user
Comment:	'

Instrument
Model:	F-2700 FL Spectrophotometer
Serial number:	2190-003
ROM Version:	4J14000 07

Instrument parameters
Measurement type:	3-D scan
Data mode:	Fluorescence
EX  Start WL:	220.0 nm
EX  End WL:	600.0 nm
EX Sampling interval:	5.0 nm
EM  Start WL:	230.0 nm
EM  End WL:	650.0 nm
EM Sampling interval:	5.0 nm
Scan speed:	12000 nm/min
EX Slit:	5.0 nm
EM Slit:	5.0 nm
PMT Voltage:	700 V
Response:	Auto 
Corrected spectra:	Off
Contour interval:	50.000

Peak integration
Integration method:	Rectangular
Sensitivity:	1
Threshold:	1.000

Peaks
No.	ApexEX/EM(nm)	Height(Data)
1	225.0/525.0	60.17
2	225.0/545.0	57.16
3	225.0/565.0	54.27
4	225.0/600.0	52.97
5	225.0/625.0	52.91
6	230.0/495.0	86.12
7	230.0/535.0	59.34
8	230.0/580.0	52.35
9	230.0/640.0	52.85
10	235.0/505.0	88.56
11	235.0/560.0	44.45
12	235.0/635.0	46.07
13	240.0/525.0	97.49
14	245.0/265.0	226.1
15	245.0/530.0	92.45
16	250.0/270.0	264.1
17	250.0/365.0	 4989
18	250.0/545.0	89.16
19	250.0/580.0	28.25
20	250.0/605.0	28.25
21	255.0/280.0	369.8
22	255.0/555.0	86.02
23	255.0/620.0	22.80
24	260.0/285.0	520.1
25	260.0/565.0	80.79
26	265.0/290.0	531.7
27	265.0/580.0	96.75
28	270.0/245.0	16.80
29	270.0/295.0	765.5
30	270.0/590.0	86.98
31	275.0/305.0	833.0
32	275.0/600.0	86.74
33	280.0/310.0	760.2
34	280.0/615.0	69.18
35	285.0/250.0	10.84
36	285.0/315.0	683.9
37	285.0/625.0	53.82
38	290.0/320.0	647.7
39	290.0/640.0	47.81
40	295.0/325.0	501.9
41	305.0/340.0	500.7
42	310.0/345.0	468.4
43	315.0/525.0	15.03
44	320.0/355.0	314.9
45	320.0/635.0	200.3
46	325.0/365.0	288.7
47	330.0/370.0	224.6
48	335.0/375.0	218.6
49	340.0/385.0	212.9
50	345.0/390.0	177.7
51	345.0/440.0	51.62
52	350.0/395.0	172.7
53	355.0/405.0	168.7
54	360.0/410.0	139.9
55	365.0/415.0	132.3
56	370.0/425.0	120.5
57	375.0/430.0	99.36
58	380.0/435.0	92.15
59	385.0/255.0	2.820
60	385.0/445.0	84.92
61	390.0/450.0	68.42
62	395.0/455.0	64.43
63	400.0/465.0	53.89
64	405.0/470.0	41.29
65	410.0/475.0	34.48
66	415.0/485.0	32.29
67	420.0/490.0	25.97
68	425.0/495.0	23.81
69	430.0/505.0	20.46
70	435.0/510.0	17.04
71	440.0/515.0	15.49
72	445.0/525.0	14.63
73	450.0/530.0	11.51
74	455.0/535.0	9.798
75	460.0/545.0	8.575
76	475.0/565.0	4.535
77	485.0/580.0	3.039
78	495.0/365.0	17.63
79	495.0/595.0	2.645
80	505.0/275.0	2.708
81	510.0/280.0	2.772
82	515.0/285.0	3.038
83	530.0/290.0	3.114
84	540.0/300.0	4.135
85	550.0/305.0	4.098
86	560.0/310.0	3.345
87	570.0/315.0	3.621
88	575.0/320.0	3.327
89	580.0/325.0	3.485
90	590.0/330.0	3.119

Data points
	220.0	225.0	230.0	235.0	240.0	245.0	250.0	255.0	260.0	265.0	270.0	275.0	280.0	285.0	290.0	295.0	300.0	305.0	310.0	315.0	320.0	325.0	330.0	335.0	340.0	345.0	350.0	355.0	360.0	365.0	370.0	375.0	380.0	385.0	390.0	395.0	400.0	405.0	410.0	415.0	420.0	425.0	430.0	435.0	440.0	445.0	450.0	455.0	460.0	465.0	470.0	475.0	480.0	485.0	490.0	495.0	500.0	505.0	510.0	515.0	520.0	525.0	530.0	535.0	540.0	545.0	550.0	555.0	560.0	565.0	570.0	575.0	580.0	585.0	590.0	595.0	600.0
230.0	52.06	174.2	 1483	 1280	116.7	23.83	19.65	18.99	16.98	14.61	10.66	10.69	8.440	8.644	6.943	6.755	5.723	4.259	4.550	3.369	3.327	3.207	2.580	2.476	2.447	2.418	2.465	2.134	2.405	2.021	2.087	2.098	1.930	1.701	1.968	1.637	1.865	1.709	1.796	1.537	1.302	1.607	1.270	1.415	1.552	1.380	1.350	2.707	4.935	4.337	2.384	1.111	1.217	0.885	1.080	1.051	1.144	1.033	1.065	0.972	1.028	1.028	1.016	0.933	1.028	1.200	0.993	1.090	1.104	1.068	1.068	0.903	0.951	0.926	1.116	1.066	1.089
235.0	64.56	71.51	550.2	 1829	 1418	125.9	18.33	20.34	18.48	14.95	12.50	11.38	8.617	6.370	7.326	6.667	5.590	5.024	3.806	3.934	3.147	4.099	2.527	2.378	2.261	2.569	2.684	2.240	1.827	2.081	2.515	2.223	1.539	1.737	2.165	1.673	1.679	1.771	1.908	1.218	1.391	1.477	1.611	1.013	1.476	1.389	0.888	1.355	2.151	3.800	4.859	4.962	2.896	1.044	1.318	1.188	0.954	0.891	1.110	0.875	1.260	1.085	1.147	1.011	1.032	1.153	0.894	0.892	1.177	1.129	1.167	0.979	1.328	0.970	1.091	1.159	1.270
240.0	52.51	66.61	166.1	882.5	 2411	 1119	75.52	22.88	15.09	13.74	13.67	13.46	7.689	7.641	6.823	5.097	5.451	5.225	3.478	3.371	3.748	3.383	3.182	2.877	2.410	2.256	2.248	2.148	2.432	2.138	2.120	2.241	1.671	1.691	1.849	1.672	1.704	1.490	1.536	1.357	1.389	1.663	1.360	1.381	1.053	1.563	1.325	1.343	1.174	1.774	2.871	5.676	6.801	5.406	2.225	1.496	1.035	1.078	1.491	1.121	0.903	1.014	1.103	0.961	0.933	1.455	1.130	1.215	1.064	1.212	1.260	1.156	1.123	1.251	0.772	0.976	1.089
245.0	50.17	69.79	80.37	247.3	 1393	 2384	875.8	46.95	16.53	13.11	16.80	12.99	7.324	10.40	6.892	4.621	5.965	4.507	3.977	4.145	2.932	3.416	3.478	2.290	2.818	2.323	2.538	2.387	2.365	2.883	2.135	2.233	2.084	2.008	1.630	1.545	1.570	1.269	1.388	1.546	1.685	1.440	1.604	1.485	1.434	1.698	1.018	1.574	1.327	1.209	1.421	2.416	4.569	7.585	8.624	4.679	1.676	0.924	1.089	1.193	0.824	1.161	1.048	1.080	0.830	1.090	1.218	1.170	1.084	0.912	0.989	0.939	0.905	1.299	1.003	1.178	1.000
250.0	51.60	68.35	94.95	130.5	372.7	 1272	 2428	 1686	255.5	17.24	14.01	14.00	9.264	10.84	7.815	5.240	5.384	5.151	4.317	3.516	3.773	3.283	3.076	2.501	3.072	2.354	2.467	2.284	2.244	2.476	1.763	2.349	1.541	1.877	1.700	1.666	1.841	1.651	1.615	1.779	1.755	1.301	1.572	1.258	1.424	1.302	1.132	1.328	1.304	1.104	1.210	1.417	1.901	3.202	5.380	7.202	7.624	5.759	3.480	1.515	0.992	1.098	1.078	1.064	0.923	1.211	1.233	1.150	1.180	1.271	0.961	0.911	1.035	1.239	0.792	1.016	0.910
255.0	45.16	50.14	69.97	134.4	187.9	312.0	892.8	 3061	 1472	262.9	14.75	12.78	7.434	10.03	9.051	6.790	7.079	4.758	4.463	3.120	3.453	3.478	2.938	2.789	2.039	2.561	2.804	1.951	2.316	2.307	1.793	2.410	1.738	2.820	1.638	1.760	1.489	1.451	1.665	1.534	1.392	1.286	1.739	1.152	1.428	1.391	1.348	0.945	1.375	0.900	1.152	1.515	1.293	1.720	2.082	2.423	3.339	6.481	9.957	8.454	4.169	1.232	0.997	1.067	1.168	1.232	1.117	0.969	0.940	1.075	0.764	1.204	0.950	0.948	0.751	0.926	1.137
260.0	50.04	36.96	50.77	82.27	186.4	152.3	235.3	 1417	 3805	 1262	113.4	13.54	13.43	8.984	8.683	7.034	5.929	4.839	4.957	3.914	3.261	3.531	2.846	2.678	2.207	2.215	3.112	2.452	2.766	1.985	2.310	1.724	1.874	2.018	1.637	1.425	1.370	1.572	1.011	1.148	1.424	1.220	1.602	1.348	1.340	1.354	1.309	1.506	1.101	0.930	0.959	1.603	2.088	1.488	1.367	1.141	1.720	2.729	5.278	9.168	10.71	7.284	2.781	1.150	1.039	0.938	1.245	1.251	0.904	1.199	0.968	0.959	0.832	1.138	0.944	1.093	1.266
265.0	48.57	46.25	48.21	49.25	140.6	226.1	110.1	373.7	 2032	 4073	974.5	43.07	13.23	8.524	9.813	6.892	6.571	5.956	4.587	4.409	3.618	3.769	2.749	2.109	2.632	2.629	2.152	2.439	2.026	1.892	2.377	2.353	2.010	1.762	1.766	1.833	1.551	1.646	1.460	1.328	1.589	1.389	1.546	1.523	0.956	1.310	0.815	1.284	1.194	0.772	0.749	1.157	1.822	1.842	1.682	1.197	1.291	1.551	2.231	3.529	6.747	10.81	11.32	5.978	1.451	1.013	0.871	1.169	0.812	1.024	0.904	0.987	0.904	0.915	1.178	1.010	1.127
270.0	49.95	49.66	40.27	39.30	65.53	181.1	264.1	165.8	516.2	 1828	 3147	 2029	236.1	12.03	9.443	7.362	6.469	5.774	5.746	4.267	3.952	3.057	2.872	2.675	3.295	2.814	2.024	2.866	2.034	1.899	2.300	1.817	1.924	1.631	1.489	1.813	1.662	1.618	1.397	1.355	1.350	1.388	1.533	1.252	1.406	1.195	1.044	1.113	1.023	1.085	0.760	1.179	1.117	1.363	1.737	2.154	1.791	1.589	1.377	1.693	2.493	4.184	6.829	9.036	9.756	8.189	3.992	1.548	1.092	1.000	1.020	0.966	1.087	1.008	1.042	1.121	1.079
275.0	49.23	48.14	49.07	36.37	42.15	72.05	226.6	365.6	197.3	440.8	 1015	 3174	 2836	232.2	9.887	9.609	7.220	5.382	5.499	3.534	3.768	2.975	3.309	2.422	2.635	3.426	2.341	2.203	1.894	2.259	2.063	2.392	1.998	2.289	1.281	1.826	1.663	1.356	1.319	1.781	1.293	1.085	1.480	1.442	1.458	1.342	1.154	1.253	1.028	1.039	0.943	1.021	0.926	1.240	1.351	1.628	2.108	2.708	2.215	1.396	1.582	1.832	2.497	3.269	4.114	8.469	13.43	11.30	3.999	1.036	0.965	0.918	1.381	1.211	0.935	0.795	0.817
280.0	56.57	46.97	52.97	44.14	36.24	44.34	98.75	369.8	355.0	150.7	282.6	 1218	 3878	 2160	96.01	9.424	7.052	5.920	5.343	3.698	4.033	2.958	3.698	3.339	2.898	3.282	2.376	2.521	2.081	1.754	1.788	2.030	1.618	2.209	1.539	1.527	1.926	1.302	1.407	1.762	1.451	1.537	1.510	1.763	1.244	1.081	1.245	1.067	1.087	0.857	0.871	1.100	1.229	1.170	1.153	1.048	1.561	2.248	2.772	2.585	1.844	1.386	1.677	1.670	2.112	2.994	6.554	13.27	14.43	8.162	2.091	1.143	1.217	1.056	1.114	0.906	0.858
285.0	64.64	66.65	62.74	44.85	32.34	36.43	45.98	189.6	520.1	261.4	135.4	363.9	 1679	 4055	643.1	33.97	8.434	6.594	4.885	3.773	4.188	3.611	3.821	2.836	3.462	2.446	2.048	2.107	1.882	2.435	2.036	2.190	2.112	1.848	1.694	1.709	1.612	1.280	1.118	1.733	1.572	1.335	1.231	1.669	1.636	1.470	1.019	0.837	1.074	0.888	1.037	1.066	0.825	1.097	1.318	0.967	1.165	1.396	2.044	3.038	2.819	2.160	1.611	1.213	1.663	1.734	2.490	4.971	10.16	14.95	13.07	4.796	1.441	1.388	1.090	1.078	1.020
290.0	74.42	68.66	72.71	57.89	34.79	35.86	42.58	87.27	282.0	531.7	355.8	225.2	516.7	 1644	 2951	 1937	161.8	8.765	5.620	3.986	4.318	3.668	3.814	2.714	2.835	2.546	2.349	2.381	2.762	2.189	2.273	1.950	2.179	1.820	1.802	1.652	1.756	1.598	1.431	1.681	1.537	1.428	1.458	1.496	1.359	1.326	1.140	1.475	1.304	1.017	1.060	1.205	1.040	1.193	1.145	0.974	1.372	1.411	1.367	1.790	2.415	2.990	3.114	2.377	1.710	1.536	1.820	2.425	3.433	5.655	8.334	10.94	10.11	7.852	3.657	1.476	1.022
295.0	76.55	80.26	85.92	68.51	44.52	47.01	48.50	69.35	130.5	308.2	765.5	417.4	290.5	481.4	883.7	 3143	 2538	171.3	7.927	5.204	4.787	3.077	3.480	3.158	3.188	2.530	2.570	2.235	2.300	1.767	2.431	2.124	2.205	1.855	2.082	1.989	1.620	1.861	1.902	1.457	1.390	1.456	1.538	1.539	1.412	1.375	1.339	1.461	1.278	1.226	1.244	1.204	1.138	1.297	1.317	1.081	1.318	1.243	1.361	1.481	1.601	2.089	2.744	3.829	3.989	1.758	1.738	1.888	2.270	2.558	2.765	3.740	4.480	10.47	15.40	10.89	3.582
300.0	84.41	77.58	94.76	73.11	46.27	46.48	57.19	70.28	103.8	207.0	594.7	805.3	337.9	246.4	264.0	 1118	 3476	 1822	77.40	5.736	4.888	4.998	4.709	3.023	2.951	2.720	2.331	2.483	2.566	2.557	2.208	2.003	2.299	1.854	1.878	1.946	1.477	1.913	1.612	1.460	1.516	1.498	1.553	1.100	1.324	1.669	1.378	1.414	1.866	1.116	1.252	1.113	0.900	1.440	1.280	1.281	1.199	1.246	1.249	1.307	1.405	2.097	2.170	2.402	4.135	4.012	3.181	1.942	1.955	2.081	1.576	1.790	1.740	3.421	8.180	13.95	15.12
305.0	79.00	72.79	109.2	79.96	60.29	52.37	57.69	74.05	112.2	179.0	344.5	833.0	665.5	225.5	126.2	296.0	 1492	 3506	401.1	27.35	6.024	4.775	4.020	3.495	3.024	2.834	3.015	2.426	2.643	2.335	2.444	1.841	2.226	1.824	1.902	1.642	1.404	1.649	1.286	1.187	1.558	1.396	1.374	1.571	1.483	1.430	1.175	1.185	1.263	1.088	1.067	1.216	1.214	1.010	1.100	1.667	1.171	1.163	1.090	1.357	1.435	1.561	1.505	1.889	2.577	3.564	4.098	3.300	2.131	1.848	1.706	1.267	1.361	1.908	2.831	4.803	11.14
310.0	67.96	96.58	113.3	81.45	56.98	62.10	69.28	79.27	121.4	162.4	250.5	457.7	760.2	537.8	139.2	111.1	377.2	 1408	 2362	 1377	117.4	6.187	4.318	3.351	2.999	2.818	2.614	2.452	2.643	2.122	2.315	2.378	2.096	2.014	1.783	1.834	1.676	1.533	1.567	1.198	1.669	1.606	1.404	1.471	1.459	1.317	1.103	1.337	1.265	1.222	1.087	1.148	1.172	1.594	0.973	1.247	1.277	1.345	1.290	1.381	1.520	1.781	1.610	1.632	2.004	2.192	2.983	3.196	3.345	2.897	1.975	1.501	1.135	1.329	1.684	1.738	3.468
315.0	79.04	95.59	115.7	94.99	86.32	98.68	96.80	123.9	142.3	177.1	226.1	300.7	390.8	683.9	430.2	90.50	121.8	347.3	700.8	 2386	 2052	134.4	5.459	3.849	3.248	2.739	3.128	3.431	2.651	2.294	2.465	2.325	1.742	1.994	1.618	1.586	1.806	1.497	1.591	1.482	1.411	1.584	1.503	1.751	1.590	1.136	1.096	1.235	1.131	1.125	1.207	1.183	1.311	1.952	1.226	1.516	1.376	1.403	1.659	1.558	1.814	1.730	1.763	1.418	1.826	1.584	1.865	2.010	2.219	3.007	3.621	2.465	1.178	1.759	1.342	1.536	1.704
320.0	77.14	103.1	154.1	131.6	167.5	182.8	179.1	201.3	207.0	230.5	240.1	256.3	275.7	418.9	647.7	235.3	74.74	115.0	186.5	887.1	 2980	 1393	60.45	4.862	3.301	3.291	3.225	2.757	2.980	2.888	2.295	2.413	1.997	2.022	1.757	1.691	1.745	1.702	1.490	1.726	1.272	1.499	1.419	1.601	1.618	1.468	1.155	1.362	1.112	1.266	1.194	1.379	1.507	1.854	1.454	1.592	1.981	1.601	1.708	1.998	1.662	1.618	1.576	1.907	1.704	1.751	1.930	1.629	1.783	2.118	3.036	3.327	2.877	1.840	1.601	1.232	1.207
325.0	106.4	148.2	201.8	261.3	313.9	391.5	399.3	386.5	354.1	322.5	284.0	263.9	255.3	267.7	486.7	501.9	126.8	68.98	72.94	230.5	 1312	 2706	291.0	22.76	4.594	3.941	3.357	3.198	2.865	3.088	2.370	2.443	1.795	2.114	1.621	1.688	1.518	1.770	1.737	1.506	1.651	1.482	1.807	1.437	1.326	1.415	1.485	1.436	1.548	1.467	1.257	1.764	2.334	2.460	2.442	2.406	2.778	2.232	2.348	2.302	1.810	2.193	2.224	1.884	1.708	1.788	2.028	1.687	2.016	1.624	2.020	2.378	3.485	2.806	2.150	1.464	1.339
330.0	151.0	236.0	392.8	591.2	792.8	934.7	 1007	918.2	768.9	622.8	438.9	306.5	271.0	241.0	272.6	445.0	414.2	142.2	70.94	91.12	335.3	 1131	 1799	 1038	90.59	4.969	3.385	3.417	3.492	2.916	2.527	2.402	2.291	2.097	1.803	1.744	1.449	1.865	1.804	1.575	1.564	1.529	1.877	1.504	1.495	1.860	1.640	2.094	2.163	1.876	2.209	2.995	3.845	4.156	4.190	4.577	4.374	3.925	4.142	3.410	3.381	3.142	2.943	2.404	2.166	1.950	1.801	1.580	2.061	1.713	1.612	1.566	2.059	2.646	3.119	2.453	1.750
335.0	214.8	362.8	668.5	 1091	 1539	 1790	 1928	 1739	 1426	 1098	702.6	376.1	309.6	267.3	242.7	254.2	418.3	426.6	135.1	76.23	113.0	275.7	573.4	 2006	 1522	111.6	4.510	3.361	4.096	2.548	2.529	2.306	2.120	1.848	1.630	1.874	2.098	2.111	1.947	1.762	1.436	1.729	2.074	1.932	1.846	2.070	2.368	2.597	3.325	3.132	3.412	5.366	5.490	6.863	6.832	7.690	7.097	6.420	6.483	5.533	5.532	4.695	4.160	3.358	2.374	2.057	1.993	2.123	1.915	1.739	1.808	1.651	1.704	2.028	2.241	2.532	2.906
340.0	268.3	515.7	969.5	 1542	 2110	 2469	 2715	 2447	 1977	 1489	915.9	434.2	342.2	302.5	264.7	226.0	281.3	500.7	301.4	95.04	70.91	89.10	151.4	783.1	 2324	 1140	52.45	4.031	4.189	2.307	3.054	2.437	2.666	2.390	1.919	1.985	1.979	2.008	1.942	1.495	1.407	1.838	1.683	2.083	2.342	2.386	2.700	2.869	3.984	4.355	4.886	7.400	8.001	8.617	9.201	9.526	10.28	9.455	7.965	7.098	6.612	5.289	4.783	3.761	2.609	2.190	1.764	2.274	1.766	1.823	1.958	1.774	1.737	1.875	1.817	1.922	2.189
345.0	336.2	661.9	 1211	 1904	 2628	 3228	 3391	 3092	 2489	 1865	 1145	503.5	354.8	312.4	287.9	234.4	234.7	366.2	468.4	179.6	65.52	50.47	55.03	199.2	 1096	 2303	234.0	18.58	3.970	3.037	3.411	3.115	2.447	2.245	2.146	2.250	2.056	1.926	1.864	1.749	1.515	1.809	2.241	1.948	2.420	2.598	3.362	3.646	4.281	4.912	6.168	8.648	9.722	10.79	11.65	11.73	12.77	11.42	11.11	8.626	8.009	7.284	5.706	4.652	2.920	2.428	2.085	2.077	2.187	2.015	2.101	1.809	1.671	1.697	1.693	1.757	1.787
350.0	414.6	833.8	 1380	 2313	 3184	 3945	 4182	 3748	 2999	 2291	 1320	562.8	381.5	333.5	306.0	262.3	236.3	258.2	365.4	356.2	145.9	50.54	37.25	64.50	274.4	 1010	 1507	845.0	76.73	4.128	3.485	3.132	2.466	2.225	2.014	1.921	1.851	1.814	2.207	1.590	1.552	1.968	2.123	2.098	2.288	3.036	3.663	4.604	5.366	5.836	7.347	9.851	11.51	13.49	14.23	14.86	14.88	14.06	12.62	10.28	9.293	8.118	6.717	4.993	3.676	2.724	2.124	1.969	2.271	2.020	2.097	2.076	2.014	1.834	1.795	1.802	1.775
355.0	467.1	919.3	 1588	 2535	 3598	 4503	 4718	 4217	 3356	 2606	 1435	602.7	375.4	345.3	318.7	275.8	247.6	241.6	238.5	294.2	314.9	103.4	36.56	34.83	77.80	241.4	522.3	 1707	 1243	81.98	3.845	3.127	3.114	2.635	2.078	2.198	1.964	1.946	1.680	1.663	2.004	2.164	2.263	2.142	2.878	3.295	4.079	4.937	6.523	6.434	8.302	10.95	12.50	15.25	16.05	16.45	16.66	15.84	13.24	10.88	10.33	9.034	8.167	5.310	3.938	2.847	2.865	2.088	1.998	1.973	2.191	1.883	2.070	2.116	1.830	1.702	1.712
360.0	493.9	915.6	 1630	 2742	 3753	 4639	 4956	 4420	 3533	 2719	 1490	605.9	372.7	357.9	323.6	292.9	263.9	241.6	212.8	197.1	305.4	210.7	53.49	33.03	35.48	70.26	136.1	711.1	 1977	875.2	36.08	3.118	3.452	2.749	2.098	2.320	1.991	1.930	1.931	1.343	1.855	1.888	2.010	2.272	2.674	3.889	4.148	5.340	6.129	6.433	8.149	11.91	12.73	15.64	16.23	17.56	16.93	16.04	13.17	12.18	10.92	9.919	7.664	5.676	3.521	3.199	2.559	1.950	2.303	1.944	2.099	1.950	2.232	1.803	1.908	2.132	1.964
365.0	476.6	948.8	 1714	 2727	 3773	 4619	 4989	 4458	 3525	 2693	 1482	596.5	369.1	346.0	321.7	285.0	269.0	241.4	207.1	162.0	200.5	288.7	131.6	38.49	31.31	33.06	43.80	181.3	984.4	 1941	202.6	12.06	3.395	2.882	2.338	2.000	1.904	1.998	2.100	1.720	1.916	2.013	1.988	1.975	2.651	3.760	3.711	4.895	6.056	6.776	7.970	11.74	13.58	15.03	17.06	17.63	16.69	15.88	14.53	11.63	11.17	10.09	7.069	5.817	4.405	3.138	2.756	2.247	1.983	1.774	2.124	1.997	2.186	1.969	1.931	2.010	2.024
370.0	429.8	902.8	 1615	 2609	 3625	 4452	 4737	 4255	 3335	 2574	 1419	582.6	361.2	332.9	313.8	284.7	260.6	242.7	202.1	151.3	126.6	184.9	224.6	106.7	38.22	29.00	28.31	55.50	246.6	910.5	 1382	709.4	57.45	3.428	2.457	2.086	1.929	1.976	1.999	1.727	2.181	2.296	2.045	2.276	2.635	3.619	3.568	5.111	5.382	6.379	7.676	11.48	13.22	14.81	16.25	17.08	17.04	16.29	13.64	11.38	10.32	8.627	7.448	5.392	3.868	2.661	2.490	2.090	2.127	1.841	2.086	1.989	2.131	2.002	1.925	2.177	1.988
375.0	386.7	839.2	 1541	 2453	 3326	 4073	 4419	 3854	 3133	 2324	 1315	535.9	340.2	310.8	300.4	272.9	256.3	224.3	194.7	145.8	110.3	102.0	160.5	218.6	87.29	33.10	30.08	30.99	70.68	216.5	503.4	 1582	962.5	56.20	3.153	2.486	2.197	2.187	2.101	1.914	2.279	1.666	1.978	1.881	2.375	3.103	3.463	4.681	5.167	6.292	7.383	9.857	11.81	13.71	14.61	15.40	15.86	15.46	12.64	11.43	8.803	8.347	6.711	5.240	3.828	2.632	2.187	2.000	1.950	1.604	2.107	1.905	2.392	1.983	1.994	1.684	2.287
380.0	367.8	766.5	 1379	 2197	 3155	 3739	 4041	 3559	 2888	 2105	 1226	489.0	320.9	285.4	279.5	261.4	242.2	224.1	190.9	145.5	106.1	80.47	94.35	199.7	174.5	56.24	30.96	26.81	32.66	59.81	127.4	720.8	 1703	629.5	20.18	2.678	2.339	2.293	1.843	1.972	2.221	1.849	2.082	2.250	2.569	2.826	3.617	4.486	4.969	5.481	7.380	9.296	11.28	11.84	13.16	14.06	14.29	13.23	11.70	10.09	8.744	8.032	6.572	4.889	3.432	2.604	1.992	1.835	1.791	1.641	2.133	1.902	2.066	1.931	1.969	1.921	2.530
385.0	353.6	701.3	 1275	 1967	 2840	 3397	 3579	 3227	 2545	 1928	 1083	461.8	297.9	273.0	273.2	242.5	234.4	217.3	187.7	138.1	98.73	75.98	69.62	117.8	212.9	114.3	37.00	26.06	25.27	28.30	40.27	183.9	951.7	 1432	152.3	6.618	2.503	2.505	2.145	2.139	2.011	2.206	1.792	1.882	2.592	3.331	3.286	3.688	4.440	5.570	6.778	8.761	10.02	11.42	12.15	13.30	12.86	11.66	10.01	9.641	7.924	7.092	6.098	4.343	3.165	2.407	1.799	1.624	1.748	1.676	1.794	2.064	1.831	1.716	1.821	2.179	2.049
390.0	308.1	634.9	 1144	 1696	 2407	 2884	 3049	 2751	 2152	 1657	916.7	399.1	269.7	247.2	241.7	224.9	215.7	192.4	168.0	134.1	98.76	76.07	65.89	73.50	130.5	177.7	96.95	37.41	27.27	22.81	22.31	52.87	242.2	773.4	 1090	501.8	38.32	2.922	2.754	2.099	2.128	1.953	1.875	1.721	2.569	2.880	2.954	3.625	4.207	4.739	5.493	7.899	8.647	9.791	10.26	10.89	10.75	10.23	8.894	7.200	6.680	5.999	5.489	3.984	2.746	2.056	1.666	1.615	1.702	1.557	2.031	1.986	1.657	1.635	1.888	1.847	1.982
395.0	269.4	492.8	892.9	 1378	 1972	 2333	 2550	 2299	 1768	 1373	780.7	351.0	232.2	224.8	216.7	197.7	194.1	172.3	154.0	122.3	93.49	76.71	63.71	63.39	74.68	119.1	172.7	87.77	32.14	24.26	19.69	24.47	63.78	181.6	445.4	 1266	646.7	30.52	2.682	1.806	2.201	2.107	1.955	1.711	2.187	2.649	2.384	3.639	3.675	3.917	4.365	7.029	7.781	8.158	8.785	9.111	9.058	8.694	7.600	6.734	6.186	5.610	5.008	3.549	2.229	2.014	1.599	1.855	1.735	1.261	1.949	1.917	1.517	1.486	1.721	1.794	1.660
400.0	265.4	436.8	744.8	 1180	 1703	 1957	 2172	 1941	 1539	 1178	675.8	316.4	214.8	213.2	192.2	189.2	179.9	159.4	142.3	116.5	90.62	75.28	64.15	61.88	63.43	74.24	145.5	150.2	50.07	26.63	21.83	18.67	24.91	48.40	112.3	641.8	 1262	144.2	11.26	2.400	2.369	2.179	1.837	2.002	2.104	1.991	2.250	3.233	3.167	3.242	4.461	5.828	6.245	7.513	7.677	8.054	7.851	7.689	6.532	5.689	5.178	5.028	3.928	3.051	2.292	1.613	1.618	1.528	1.888	1.741	1.627	1.850	1.729	1.599	1.629	2.003	1.821
