Sample:	'1
File name:	t2025061903ÕÅÐ¤ÌÃ¸ÉÇþ.FD3
Run date:	'14:22:15, 06/23/2025
Operator:	Administrator
Comment:	'

Instrument
Model:	F-2700 FL Spectrophotometer
Serial number:	23B8-004
ROM Version:	4J14000 07

Instrument parameters
Measurement type:	3-D scan
Data mode:	Fluorescence
EX  Start WL:	220.0 nm
EX  End WL:	600.0 nm
EX Sampling interval:	5.0 nm
EM  Start WL:	230.0 nm
EM  End WL:	650.0 nm
EM Sampling interval:	5.0 nm
Scan speed:	12000 nm/min
EX Slit:	5.0 nm
EM Slit:	5.0 nm
PMT Voltage:	700 V
Response:	Auto 
Corrected spectra:	Off
Contour interval:	50.000

Peak integration
Integration method:	Rectangular
Sensitivity:	1
Threshold:	1.000

Peaks
No.	ApexEX/EM(nm)	Height(Data)
1	225.0/635.0	30.24
2	230.0/360.0	684.6
3	235.0/405.0	891.5
4	240.0/265.0	396.3
5	240.0/395.0	884.2
6	240.0/410.0	891.0
7	240.0/525.0	305.9
8	245.0/270.0	417.1
9	245.0/415.0	891.6
10	245.0/535.0	255.2
11	250.0/275.0	529.1
12	250.0/420.0	884.1
13	250.0/550.0	206.3
14	255.0/285.0	548.1
15	255.0/560.0	162.0
16	260.0/290.0	494.2
17	260.0/575.0	125.7
18	265.0/295.0	603.6
19	265.0/585.0	110.1
20	270.0/300.0	832.6
21	270.0/600.0	89.52
22	275.0/305.0	854.6
23	275.0/610.0	72.39
24	280.0/310.0	730.2
25	280.0/625.0	60.09
26	285.0/315.0	663.8
27	285.0/635.0	40.65
28	290.0/325.0	599.7
29	295.0/330.0	462.5
30	300.0/335.0	437.8
31	305.0/345.0	404.1
32	310.0/350.0	358.7
33	315.0/355.0	365.2
34	320.0/365.0	377.1
35	325.0/370.0	384.6
36	330.0/375.0	394.9
37	335.0/380.0	403.5
38	505.0/275.0	3.339
39	510.0/280.0	3.410
40	515.0/285.0	3.367
41	520.0/420.0	4.155
42	530.0/290.0	3.110
43	540.0/295.0	3.952
44	545.0/300.0	4.710
45	550.0/305.0	5.015
46	560.0/310.0	4.258
47	570.0/315.0	4.136
48	580.0/320.0	3.740
49	585.0/325.0	4.077

Data points
	220.0	225.0	230.0	235.0	240.0	245.0	250.0	255.0	260.0	265.0	270.0	275.0	280.0	285.0	290.0	295.0	300.0	305.0	310.0	315.0	320.0	325.0	330.0	335.0	340.0	345.0	350.0	355.0	360.0	365.0	370.0	375.0	380.0	385.0	390.0	395.0	400.0	405.0	410.0	415.0	420.0	425.0	430.0	435.0	440.0	445.0	450.0	455.0	460.0	465.0	470.0	475.0	480.0	485.0	490.0	495.0	500.0	505.0	510.0	515.0	520.0	525.0	530.0	535.0	540.0	545.0	550.0	555.0	560.0	565.0	570.0	575.0	580.0	585.0	590.0	595.0	600.0
230.0	119.7	1742	2454	442.1	17.51	6.634	5.492	5.037	4.011	3.816	3.229	3.036	2.631	2.176	1.669	1.529	1.330	1.268	1.117	1.094	0.924	0.965	0.827	0.789	0.796	0.701	0.681	0.695	0.651	0.660	0.573	0.595	0.511	0.471	0.486	0.466	0.417	0.391	0.405	0.387	0.443	0.537	0.523	0.382	0.364	0.452	2.357	7.107	8.526	4.346	1.284	0.382	0.317	0.278	0.283	0.295	0.255	0.267	0.269	0.261	0.285	0.257	0.253	0.264	0.288	0.278	0.249	0.295	0.253	0.286	0.270	0.311	0.304	0.263	0.297	0.279	0.292
235.0	107.3	519.7	2193	2545	463.5	26.04	6.271	5.167	4.935	3.822	3.940	2.887	2.557	2.276	1.881	1.477	1.480	1.322	1.097	1.116	1.002	0.884	0.699	0.918	0.715	0.707	0.688	0.692	0.608	0.696	0.617	0.613	0.546	0.501	0.493	0.453	0.453	0.461	0.381	0.445	0.392	0.444	0.513	0.516	0.489	0.438	0.805	2.140	4.391	7.009	9.183	7.407	2.797	0.633	0.357	0.267	0.319	0.262	0.292	0.240	0.307	0.258	0.258	0.294	0.261	0.309	0.229	0.363	0.270	0.312	0.243	0.287	0.299	0.260	0.282	0.236	0.313
240.0	175.0	190.2	775.1	2950	2592	331.2	13.92	5.948	5.319	4.172	4.187	3.187	2.420	2.829	2.047	1.658	1.454	1.587	1.011	1.021	1.000	0.901	0.853	0.831	0.748	0.730	0.646	0.753	0.622	0.666	0.654	0.556	0.538	0.537	0.448	0.395	0.492	0.454	0.407	0.416	0.524	0.380	0.441	0.491	0.616	0.741	0.526	0.784	1.260	2.558	6.384	13.09	12.83	7.294	1.971	0.370	0.352	0.244	0.330	0.273	0.276	0.244	0.241	0.295	0.297	0.271	0.251	0.280	0.255	0.241	0.230	0.246	0.271	0.248	0.279	0.307	0.311
245.0	148.1	199.8	225.3	1224	3760	2369	230.7	8.852	5.121	4.895	4.010	3.593	2.826	2.746	1.980	1.488	1.552	1.641	1.189	1.128	0.927	1.128	0.859	0.835	0.709	0.734	0.666	0.824	0.721	0.626	0.617	0.592	0.486	0.481	0.484	0.302	0.404	0.455	0.414	0.397	0.405	0.374	0.385	0.411	0.490	0.716	0.829	0.727	0.555	0.822	1.786	5.233	12.08	17.62	14.03	5.724	1.361	0.340	0.298	0.308	0.322	0.237	0.243	0.262	0.259	0.274	0.270	0.285	0.237	0.231	0.255	0.270	0.293	0.276	0.264	0.313	0.354
250.0	71.82	176.1	236.2	353.5	1399	3316	3313	841.8	35.89	6.444	4.781	4.267	3.286	2.841	2.171	1.773	1.611	1.462	1.317	1.175	1.013	1.128	0.884	0.880	0.790	0.669	0.747	0.687	0.816	0.679	0.632	0.567	0.543	0.518	0.494	0.381	0.421	0.507	0.430	0.415	0.434	0.398	0.411	0.408	0.385	0.422	0.642	0.788	0.914	0.803	0.793	1.502	3.231	6.713	11.42	15.87	17.95	13.96	6.737	1.605	0.389	0.319	0.289	0.295	0.273	0.286	0.294	0.299	0.292	0.260	0.288	0.278	0.345	0.340	0.257	0.308	0.329
255.0	38.03	67.39	199.8	320.9	377.1	934.4	3560	4957	298.0	33.52	6.370	5.862	4.003	3.048	2.270	1.959	1.770	1.461	1.406	0.992	1.114	1.117	1.127	0.970	0.887	0.833	0.801	0.745	0.720	0.699	0.624	0.616	0.517	0.600	0.476	0.403	0.419	0.446	0.381	0.397	0.434	0.401	0.421	0.457	0.430	0.454	0.418	0.425	0.697	1.014	1.242	1.419	1.135	1.800	2.869	4.229	8.603	18.81	29.06	23.13	9.431	1.663	0.294	0.324	0.355	0.282	0.282	0.265	0.317	0.307	0.331	0.321	0.297	0.322	0.278	0.294	0.323
260.0	36.85	35.50	90.76	307.6	297.9	260.1	1213	5141	4749	242.8	16.93	7.291	4.436	3.897	2.579	2.122	1.788	1.606	1.568	1.347	1.169	1.128	0.969	0.841	0.808	0.936	0.811	0.679	0.751	0.726	0.697	0.788	0.535	0.550	0.488	0.423	0.442	0.412	0.469	0.414	0.387	0.372	0.380	0.429	0.379	0.347	0.344	0.361	0.428	0.511	0.884	1.788	1.413	1.053	1.002	1.330	2.345	5.628	15.16	28.56	31.48	20.30	6.216	0.751	0.410	0.325	0.359	0.294	0.294	0.288	0.274	0.293	0.289	0.286	0.345	0.289	0.324
265.0	31.79	29.91	39.59	173.2	396.3	227.5	325.5	2009	6501	4371	177.8	10.67	5.451	4.409	3.052	2.405	2.082	1.733	1.632	1.360	1.092	1.231	0.899	0.949	0.894	0.861	0.797	0.814	0.725	0.628	0.672	0.631	0.533	0.561	0.579	0.476	0.385	0.406	0.437	0.408	0.410	0.475	0.387	0.411	0.377	0.336	0.380	0.329	0.310	0.321	0.443	1.033	1.724	1.958	1.359	0.772	0.965	1.628	3.954	9.456	22.22	36.61	30.10	16.90	3.181	0.447	0.371	0.274	0.329	0.291	0.357	0.303	0.315	0.314	0.324	0.283	0.355
270.0	43.35	31.40	27.94	72.17	234.2	417.1	292.6	521.8	2305	5671	4834	744.6	34.43	6.683	4.435	3.051	2.709	2.088	1.712	1.470	1.336	1.189	1.152	0.997	0.980	0.955	0.872	0.931	0.749	0.690	0.668	0.677	0.603	0.663	0.575	0.526	0.472	0.469	0.444	0.435	0.453	0.487	0.434	0.400	0.436	0.425	0.366	0.340	0.300	0.350	0.333	0.575	0.860	1.351	1.811	2.085	1.799	1.290	1.378	2.529	5.633	11.71	19.77	30.12	31.48	28.34	12.24	3.269	0.575	0.366	0.338	0.283	0.357	0.348	0.332	0.350	0.340
275.0	64.74	48.10	36.77	48.58	108.4	265.4	529.1	340.0	563.9	1506	5048	8143	986.4	27.67	6.399	4.258	3.447	2.530	2.120	1.972	1.535	1.491	1.200	1.257	1.015	1.127	0.908	0.917	0.661	0.695	0.724	0.704	0.735	0.709	0.517	0.614	0.510	0.467	0.461	0.539	0.548	0.421	0.451	0.376	0.520	0.484	0.402	0.401	0.363	0.305	0.343	0.449	0.542	0.749	0.905	1.421	2.520	3.339	2.156	1.144	1.742	3.047	4.844	7.355	11.39	26.27	45.67	31.68	18.25	2.887	0.454	0.372	0.367	0.378	0.437	0.358	0.302
280.0	88.13	69.72	51.78	47.18	75.78	148.5	400.4	543.0	246.7	387.9	1580	7341	7297	145.1	13.47	5.443	3.954	3.282	2.528	2.111	1.765	1.652	1.429	1.059	1.200	1.113	1.080	0.952	0.747	0.768	0.741	0.782	0.725	0.634	0.724	0.733	0.709	0.595	0.555	0.528	0.596	0.607	0.608	0.457	0.483	0.510	0.476	0.487	0.456	0.374	0.381	0.432	0.410	0.632	0.701	0.818	1.290	2.324	3.410	2.724	1.333	1.226	1.520	2.161	2.992	7.100	17.97	35.20	51.54	29.33	12.48	1.383	0.437	0.343	0.416	0.378	0.337
285.0	128.4	106.2	73.35	55.28	69.29	108.4	203.8	548.1	338.6	169.4	427.0	2485	8407	5597	104.8	8.220	5.360	3.695	2.698	2.347	2.034	1.562	1.367	1.297	1.287	1.069	0.997	0.938	0.760	0.889	0.707	0.773	0.758	0.743	0.735	0.735	0.710	0.697	0.577	0.652	0.609	0.730	0.535	0.512	0.577	0.572	0.593	0.537	0.519	0.431	0.412	0.485	0.456	0.584	0.635	0.678	0.876	1.108	1.999	3.367	3.224	1.911	1.040	1.043	1.197	2.171	4.577	10.07	24.57	43.33	51.38	24.33	6.979	0.716	0.366	0.417	0.343
290.0	177.6	161.3	116.5	80.59	76.16	94.58	119.9	250.9	494.2	431.5	236.4	671.9	2642	6063	5610	434.8	23.87	5.411	3.463	2.697	2.325	1.806	1.543	1.368	1.307	1.235	1.062	1.062	0.829	0.954	0.821	0.809	0.784	0.821	0.770	0.761	0.798	0.738	0.674	0.762	0.722	0.690	0.582	0.621	0.653	0.731	0.593	0.715	0.661	0.557	0.463	0.491	0.518	0.581	0.614	0.656	0.746	0.827	0.991	1.494	2.235	3.076	3.110	2.237	1.356	1.316	1.744	2.935	6.333	12.04	21.87	31.19	32.01	33.25	16.45	6.129	0.838
295.0	214.9	217.3	179.3	114.5	93.48	97.60	105.3	142.2	247.4	603.6	575.5	326.8	724.6	1539	4215	6496	619.7	18.76	5.251	3.489	3.058	2.102	1.734	1.529	1.410	1.337	1.252	0.927	1.003	0.895	0.948	0.817	0.669	0.713	0.868	0.859	0.854	0.859	0.756	0.647	0.666	0.805	0.749	0.737	0.775	0.797	0.724	0.857	0.795	0.673	0.605	0.667	0.573	0.598	0.641	0.628	0.685	0.837	0.776	0.846	1.096	1.462	2.076	3.409	3.952	2.680	1.546	1.559	2.392	3.407	5.609	7.758	9.248	19.52	39.13	49.16	25.62
300.0	256.1	262.0	210.2	137.0	111.7	116.9	120.3	140.7	190.9	405.3	832.6	497.7	346.5	464.9	1212	5456	5506	87.33	9.841	4.484	3.435	2.458	1.893	1.748	1.363	1.441	1.272	1.026	1.151	0.921	0.980	0.805	0.790	0.850	0.846	1.002	0.901	0.826	0.799	0.719	0.623	0.976	0.703	0.835	0.756	0.890	0.873	1.035	0.926	0.776	0.653	0.802	0.649	0.655	0.688	0.670	0.808	0.910	0.858	0.976	1.045	1.167	1.439	2.258	3.446	4.710	3.687	2.081	1.719	1.709	2.257	2.524	2.820	5.259	12.52	28.95	48.16
305.0	272.9	311.4	257.0	175.2	133.9	133.1	152.3	178.3	216.0	318.7	658.5	854.6	381.0	264.6	372.4	1689	6183	4329	69.71	6.289	4.123	3.058	2.205	2.087	1.478	1.486	1.272	1.150	1.168	0.905	0.947	0.916	0.819	0.932	0.940	0.873	0.867	0.838	0.738	0.693	0.734	0.775	0.649	0.790	0.816	0.901	0.980	1.069	0.938	0.764	0.748	0.747	0.712	0.728	0.789	0.772	0.885	0.972	0.986	1.119	1.097	1.172	1.439	1.756	2.178	3.275	5.015	4.360	2.758	1.836	1.529	1.584	1.506	1.949	3.565	7.544	17.60
310.0	304.8	314.0	276.1	194.4	151.9	147.5	171.0	203.9	244.9	313.9	443.8	715.0	730.2	350.2	214.1	458.6	1829	4403	4465	305.0	17.90	4.056	2.940	2.575	1.887	1.695	1.345	1.222	1.219	1.035	0.882	0.875	0.945	0.944	0.930	0.955	0.974	0.853	0.862	0.823	0.745	0.872	0.767	0.805	0.872	1.016	0.934	1.104	1.033	0.863	0.799	0.852	0.908	0.854	0.842	0.857	0.926	1.038	1.174	1.141	1.219	1.453	1.507	1.742	1.804	2.329	3.070	3.696	4.258	3.685	2.844	1.803	1.471	1.388	1.589	2.333	4.740
315.0	295.8	325.1	290.4	224.5	174.4	167.7	184.3	222.6	258.0	325.7	396.8	485.5	631.1	663.8	263.2	202.2	476.4	1064	2949	5410	478.7	16.43	4.014	3.051	2.487	1.880	1.534	1.431	1.401	1.413	1.041	0.994	0.929	0.897	0.953	0.904	0.940	0.818	0.895	0.785	0.724	0.845	0.788	0.854	0.972	1.021	1.085	1.167	0.984	0.904	0.916	0.948	0.929	0.940	1.080	0.877	1.037	1.154	1.274	1.296	1.309	1.502	1.463	1.618	1.904	2.126	2.231	2.387	2.734	3.136	4.136	3.676	2.500	1.466	1.250	1.315	1.801
320.0	325.9	386.4	339.0	253.4	192.7	180.5	200.9	242.5	278.8	333.4	399.4	435.6	469.5	658.8	478.4	175.9	188.4	287.4	787.7	3857	4117	370.3	8.442	4.010	2.987	2.209	1.735	1.574	1.389	1.526	1.045	0.987	0.899	0.967	0.961	0.981	0.960	0.967	1.020	0.855	0.744	0.843	0.774	0.860	1.000	1.096	1.013	1.279	1.046	0.936	0.968	0.956	0.931	0.877	0.956	1.003	1.153	1.069	1.291	1.371	1.436	1.560	1.573	1.871	1.903	2.087	2.068	2.205	2.356	2.399	2.824	3.449	3.740	2.727	1.623	1.188	1.253
325.0	360.4	449.5	408.0	294.4	215.1	195.2	211.2	250.3	291.3	345.2	398.5	436.1	429.5	478.2	599.7	295.2	142.6	127.4	216.5	1102	4281	3501	57.43	5.467	3.545	2.520	2.065	1.550	1.367	1.342	1.348	1.054	1.011	0.929	0.939	0.901	0.946	0.916	1.049	0.783	0.777	0.799	0.931	0.901	0.973	1.147	1.195	1.438	1.333	1.094	1.100	1.096	1.063	1.043	1.093	0.990	1.145	1.249	1.287	1.264	1.362	1.482	1.633	1.808	2.057	2.048	1.920	2.297	2.135	2.254	2.273	2.575	3.027	4.077	3.447	1.763	1.351
330.0	398.5	513.0	501.7	381.2	271.2	231.1	229.3	269.8	306.5	360.0	414.2	448.1	438.1	406.0	441.0	462.5	264.6	120.4	107.8	287.6	1225	3213	3486	939.2	16.95	3.508	2.727	2.053	1.740	1.564	1.272	1.138	1.096	1.046	0.991	1.016	0.942	0.887	0.931	0.779	0.807	0.812	0.875	0.957	0.979	1.341	1.400	1.601	1.685	1.430	1.192	1.451	1.168	1.202	1.134	1.196	1.312	1.290	1.327	1.367	1.479	1.573	1.836	1.842	2.165	2.110	2.050	2.149	2.366	2.227	2.308	2.368	2.484	2.779	3.060	3.287	2.722
335.0	444.5	565.6	575.5	446.4	347.2	268.1	261.8	293.4	327.0	376.6	427.6	468.0	457.3	412.6	368.7	362.0	437.8	233.4	112.7	126.6	317.4	771.6	2203	4511	412.1	16.82	3.773	2.568	2.039	1.744	1.352	1.314	1.224	1.064	1.040	1.099	0.915	0.852	0.877	0.834	0.853	0.806	0.991	0.986	1.108	1.365	1.479	1.753	1.785	1.629	1.426	1.607	1.420	1.409	1.277	1.270	1.466	1.393	1.523	1.462	1.600	1.664	1.834	2.017	2.168	2.404	2.287	2.322	2.254	2.309	2.398	2.391	2.381	2.282	2.353	2.322	2.624
340.0	467.6	596.8	615.7	514.6	391.0	316.1	289.7	305.2	343.8	394.3	438.5	484.4	475.0	430.3	369.7	311.4	385.1	381.3	162.6	107.7	131.2	217.0	588.8	3093	3427	331.9	7.582	3.166	2.452	1.767	1.513	1.384	1.281	1.163	0.943	0.956	0.978	0.839	0.846	0.894	0.883	0.778	0.941	0.960	1.208	1.254	1.450	2.015	2.050	1.737	1.645	1.841	1.573	1.563	1.490	1.375	1.570	1.512	1.531	1.494	1.706	1.863	2.046	2.165	2.107	2.279	2.400	2.545	2.321	2.431	2.486	2.429	2.506	2.232	2.180	1.956	2.233
345.0	445.2	602.9	639.3	554.1	429.8	355.3	322.2	337.6	364.7	404.9	462.1	487.9	487.0	440.9	383.5	313.5	303.2	404.1	289.9	133.4	106.2	108.1	177.2	885.8	3462	2982	50.78	5.353	3.017	2.102	1.821	1.417	1.207	1.155	0.972	1.005	0.885	0.947	0.816	1.030	0.786	0.923	0.914	1.105	1.206	1.284	1.517	1.937	1.982	1.809	1.653	2.055	1.846	1.671	1.530	1.589	1.734	1.625	1.713	1.544	1.619	1.907	1.937	2.087	2.259	2.197	2.271	2.424	2.403	2.467	2.443	2.430	2.625	2.266	2.071	1.859	1.913
350.0	475.5	597.2	653.8	585.8	494.3	426.3	379.6	382.1	398.2	435.4	477.5	496.2	493.8	461.0	406.5	340.5	299.1	315.1	358.7	264.3	147.0	115.0	107.9	248.4	997.6	2598	2829	765.0	15.57	3.221	2.155	1.647	1.376	1.214	1.080	0.913	1.033	0.953	0.885	0.916	0.825	0.935	0.989	1.077	1.099	1.294	1.486	1.772	1.906	1.838	1.786	2.128	2.004	1.935	1.723	1.772	1.810	1.882	1.811	1.684	1.925	1.879	2.081	2.188	2.286	2.256	2.360	2.472	2.478	2.380	2.366	2.537	2.475	2.307	2.252	2.093	2.101
355.0	487.2	574.3	680.8	623.6	558.1	494.8	451.7	445.3	452.4	478.1	516.2	522.6	520.8	488.6	431.9	376.7	331.6	306.0	302.9	365.2	268.4	159.6	126.9	135.2	275.3	636.9	1781	3348	373.4	15.48	3.037	1.994	1.641	1.389	1.099	1.055	1.008	0.987	0.905	0.909	0.934	1.004	1.034	0.989	1.166	1.383	1.641	1.717	1.989	1.873	1.888	2.260	2.176	2.215	1.979	1.922	2.150	2.136	2.142	2.063	2.076	2.099	2.460	2.499	2.475	2.607	2.546	2.681	2.657	2.481	2.571	2.710	2.677	2.659	2.355	2.376	2.422
360.0	487.6	598.3	684.6	646.3	600.8	543.9	502.4	496.7	502.3	519.1	537.1	540.7	538.1	503.0	458.3	400.7	362.5	327.1	302.0	338.7	370.8	231.1	156.7	132.6	139.8	193.3	485.0	2438	3061	300.7	7.083	2.890	2.070	1.602	1.252	1.148	0.928	1.064	0.838	0.941	0.870	1.013	1.086	0.977	1.321	1.432	1.512	1.844	1.903	1.905	1.896	2.240	2.293	2.299	2.181	2.200	2.361	2.306	2.279	2.266	2.226	2.371	2.526	2.634	2.503	2.635	2.582	2.606	2.706	2.563	2.777	2.888	2.821	2.658	2.470	2.608	2.712
365.0	484.5	631.6	673.1	672.0	635.5	587.4	549.4	549.5	544.7	556.5	563.9	568.2	549.6	521.7	479.8	426.1	392.6	358.7	324.9	315.9	377.1	338.1	203.4	155.0	130.1	115.8	156.7	720.9	2987	2643	46.96	4.333	2.507	1.883	1.462	1.330	0.970	0.982	0.933	0.974	0.921	0.980	0.933	0.999	1.166	1.409	1.567	1.856	1.964	1.889	2.053	2.298	2.292	2.357	2.395	2.332	2.586	2.519	2.620	2.437	2.517	2.544	2.582	2.903	2.899	2.753	2.782	2.812	2.740	2.542	2.828	2.903	2.707	2.692	2.638	2.811	2.588
370.0	484.1	603.3	689.0	713.3	698.3	647.6	609.2	599.4	592.4	608.0	608.6	597.7	576.1	550.2	506.3	461.2	426.8	397.0	368.4	344.9	349.6	384.6	326.0	216.7	165.2	129.4	109.7	213.4	870.6	2337	2531	658.6	13.61	2.717	1.838	1.427	1.150	1.039	1.017	0.925	0.977	1.033	1.025	1.149	1.249	1.489	1.484	1.890	2.187	1.931	2.054	2.481	2.674	2.588	2.696	2.620	2.696	2.838	2.680	2.662	2.748	2.793	2.849	2.891	3.074	3.029	2.979	2.887	2.750	2.717	2.939	2.929	2.906	2.723	2.692	2.972	2.914
375.0	514.3	618.0	715.2	767.1	762.2	711.7	677.2	664.0	651.6	649.1	660.6	635.9	604.2	567.9	536.6	489.4	462.9	435.5	413.1	387.7	370.3	363.9	394.9	331.4	218.5	167.7	129.8	124.5	243.0	575.2	1660	2970	317.7	13.27	2.650	1.781	1.442	1.110	1.145	1.031	0.966	1.070	0.979	1.292	1.189	1.536	1.567	2.019	2.051	1.991	2.280	2.696	2.711	2.784	2.964	2.858	3.018	3.017	2.777	2.988	3.000	2.951	3.029	3.137	3.198	3.129	2.959	3.057	2.910	3.012	3.183	3.255	3.137	2.849	2.824	2.793	3.228
380.0	521.8	631.5	739.3	768.7	779.2	758.6	713.8	707.1	693.3	694.0	681.5	654.7	624.5	588.7	547.2	507.9	481.7	457.8	441.0	418.2	394.3	376.0	379.0	403.5	288.7	203.5	156.5	123.2	124.5	175.1	458.6	2216	2555	244.3	5.778	2.111	1.904	1.337	1.144	1.129	0.977	1.021	1.023	1.188	1.213	1.549	1.635	2.082	2.150	2.103	2.311	2.922	2.783	3.088	3.063	2.905	3.173	3.166	2.931	3.200	3.416	3.049	3.178	3.416	3.327	3.258	3.216	3.043	3.309	3.113	3.371	3.178	3.140	3.065	3.215	3.100	3.263
385.0	505.6	638.9	769.8	801.6	825.4	795.3	753.0	730.8	718.4	716.9	698.7	677.8	644.7	604.6	560.7	521.7	498.6	479.1	464.7	442.5	420.5	396.0	375.4	399.7	370.0	249.1	188.1	142.8	115.0	100.4	144.7	660.3	2469	2054	37.77	3.478	2.211	1.522	1.281	1.115	1.204	1.081	1.141	1.274	1.312	1.453	1.887	1.996	2.089	2.150	2.280	2.816	2.939	3.313	3.076	2.639	3.155	3.378	3.397	3.393	3.380	3.264	3.384	3.307	3.213	3.234	3.203	3.219	3.326	3.136	3.158	3.290	3.253	3.304	3.213	3.063	3.369
390.0	548.7	673.6	779.4	822.1	832.5	822.1	802.6	771.1	749.2	739.3	727.7	696.4	661.2	620.1	578.2	544.6	521.9	500.2	489.5	469.2	448.7	426.2	398.8	385.5	395.1	339.9	241.4	181.0	143.4	110.8	95.38	188.2	727.4	1828	1823	157.7	11.10	2.262	1.661	1.357	1.281	1.201	1.246	1.225	1.329	1.639	1.899	1.986	2.231	2.173	2.262	2.926	2.916	3.249	3.246	3.049	3.449	3.427	3.329	3.372	3.326	3.501	3.529	3.643	3.584	3.402	3.302	3.273	3.363	3.108	3.103	3.240	3.258	3.497	3.285	3.317	3.455
395.0	566.1	698.1	803.7	848.0	884.2	860.3	824.7	810.6	769.6	776.2	759.2	717.5	676.1	640.2	589.2	559.9	539.3	524.0	507.4	482.3	473.4	449.5	425.1	398.2	378.7	387.6	332.3	228.6	182.1	141.8	108.9	103.3	202.7	453.1	1289	2152	256.1	9.196	2.306	1.569	1.260	1.315	1.390	1.326	1.450	1.667	1.628	2.146	2.162	2.158	2.389	3.140	2.850	3.327	3.280	3.466	3.395	3.623	3.452	3.696	3.676	3.648	3.504	3.513	3.603	3.567	3.590	3.710	3.162	3.431	3.310	3.469	3.346	3.590	3.332	3.488	3.554
400.0	580.2	707.0	782.8	873.1	873.8	879.0	862.9	826.4	806.1	792.4	769.6	731.1	692.5	645.3	599.7	564.9	546.8	529.8	517.1	499.9	485.6	465.4	444.2	419.7	386.2	374.3	379.0	289.2	213.3	168.7	130.2	98.98	98.93	138.4	366.2	1681	1847	187.9	4.572	2.082	1.563	1.455	1.338	1.392	1.592	1.689	1.668	1.992	2.184	2.122	2.529	3.021	3.228	3.217	3.394	3.655	3.610	3.475	3.685	3.776	3.635	3.807	3.662	3.541	3.436	3.383	3.401	3.599	3.321	3.343	3.124	3.581	3.474	3.509	3.418	3.448	3.498
405.0	550.1	703.7	797.3	891.5	880.8	882.3	862.9	845.1	818.0	802.6	793.7	744.3	705.4	650.0	603.3	564.8	546.7	528.3	518.2	507.1	493.5	476.9	461.4	436.5	402.5	377.5	377.4	352.4	252.8	194.2	154.6	115.1	89.14	78.09	114.1	511.0	1845	1463	32.42	3.000	2.013	1.580	1.637	1.376	1.547	1.639	1.703	2.204	2.083	2.205	2.351	3.018	3.242	3.264	3.441	3.506	3.496	3.672	3.635	3.698	3.638	3.857	3.693	3.783	3.516	3.538	3.305	3.606	3.565	3.458	3.253	3.484	3.599	3.390	3.358	3.670	3.565
410.0	568.3	713.6	815.8	868.0	891.0	887.5	878.2	855.4	836.6	827.1	800.1	752.4	706.3	655.5	603.2	561.6	544.0	529.8	519.5	508.2	493.6	481.2	466.3	449.2	418.6	387.6	365.7	363.3	322.0	241.5	185.5	141.3	106.8	78.59	68.65	144.9	550.1	1368	1341	144.0	8.973	2.204	1.807	1.612	1.637	1.785	1.855	2.034	2.224	2.194	2.385	2.937	3.172	3.419	3.323	3.385	3.629	3.765	3.834	3.633	3.810	3.667	3.937	3.926	3.578	3.704	3.412	3.332	3.583	3.489	3.194	3.469	3.601	3.576	3.343	3.473	3.311
