Sample:	'1
File name:	G2025031101ÁªÍ¨Î÷.FD3
Run date:	'16:16:39, 03/11/2025
Operator:	Administrator
Comment:	'

Instrument
Model:	F-2700 FL Spectrophotometer
Serial number:	23B8-004
ROM Version:	4J14000 07

Instrument parameters
Measurement type:	3-D scan
Data mode:	Fluorescence
EX  Start WL:	220.0 nm
EX  End WL:	600.0 nm
EX Sampling interval:	5.0 nm
EM  Start WL:	230.0 nm
EM  End WL:	650.0 nm
EM Sampling interval:	5.0 nm
Scan speed:	12000 nm/min
EX Slit:	5.0 nm
EM Slit:	5.0 nm
PMT Voltage:	700 V
Response:	Auto 
Corrected spectra:	Off
Contour interval:	50.000

Peak integration
Integration method:	Rectangular
Sensitivity:	1
Threshold:	1.000

Peaks
No.	ApexEX/EM(nm)	Height(Data)
1	225.0/340.0	4849
2	225.0/490.0	286.7
3	225.0/580.0	48.02
4	230.0/500.0	243.1
5	235.0/510.0	183.2
6	240.0/265.0	434.2
7	240.0/525.0	172.6
8	245.0/270.0	410.7
9	245.0/445.0	326.5
10	245.0/535.0	148.8
11	250.0/275.0	529.8
12	250.0/450.0	332.0
13	250.0/550.0	124.7
14	255.0/280.0	623.3
15	255.0/565.0	111.4
16	260.0/575.0	104.8
17	265.0/585.0	96.62
18	270.0/600.0	101.3
19	275.0/325.0	2076
20	275.0/615.0	125.5
21	280.0/625.0	116.2
22	285.0/635.0	92.18
23	320.0/360.0	316.0
24	330.0/375.0	203.9
25	335.0/380.0	189.7
26	345.0/395.0	124.8
27	350.0/400.0	127.4
28	355.0/405.0	111.1
29	360.0/415.0	97.63
30	365.0/420.0	106.2
31	370.0/425.0	89.52
32	380.0/440.0	71.78
33	385.0/445.0	61.54
34	395.0/460.0	43.87
35	400.0/465.0	36.91
36	410.0/480.0	23.55
37	415.0/485.0	21.44
38	420.0/490.0	16.60
39	425.0/500.0	15.30
40	430.0/505.0	13.47
41	435.0/510.0	10.87
42	440.0/520.0	10.10
43	445.0/525.0	9.043
44	455.0/340.0	13.72
45	455.0/540.0	6.093
46	460.0/545.0	5.140
47	470.0/560.0	3.163
48	475.0/565.0	2.670
49	485.0/265.0	2.415
50	495.0/270.0	2.204
51	505.0/275.0	3.486
52	510.0/280.0	3.577
53	520.0/285.0	4.128
54	530.0/290.0	4.269
55	560.0/325.0	10.97
56	575.0/320.0	10.99
57	585.0/325.0	11.01

Data points
	220.0	225.0	230.0	235.0	240.0	245.0	250.0	255.0	260.0	265.0	270.0	275.0	280.0	285.0	290.0	295.0	300.0	305.0	310.0	315.0	320.0	325.0	330.0	335.0	340.0	345.0	350.0	355.0	360.0	365.0	370.0	375.0	380.0	385.0	390.0	395.0	400.0	405.0	410.0	415.0	420.0	425.0	430.0	435.0	440.0	445.0	450.0	455.0	460.0	465.0	470.0	475.0	480.0	485.0	490.0	495.0	500.0	505.0	510.0	515.0	520.0	525.0	530.0	535.0	540.0	545.0	550.0	555.0	560.0	565.0	570.0	575.0	580.0	585.0	590.0	595.0	600.0
230.0	120.9	1925	4160	668.3	20.78	4.632	3.628	3.074	2.527	2.383	2.492	2.783	1.915	1.476	1.433	1.370	0.908	0.697	0.648	0.510	0.501	0.488	0.511	0.488	0.413	0.407	0.365	0.271	0.378	0.349	0.324	0.266	0.233	0.188	0.191	0.250	0.214	0.153	0.186	0.212	0.409	0.707	0.680	0.290	0.207	0.296	2.405	9.177	11.87	7.028	1.883	0.425	0.125	0.107	0.145	0.119	0.120	0.116	0.090	0.073	0.090	0.090	0.102	0.102	0.076	0.102	0.094	0.096	0.095	0.101	0.085	0.096	0.111	0.096	0.089	0.073	0.087
235.0	216.6	546.4	3257	3113	497.9	32.22	4.579	3.225	3.061	2.470	2.809	3.058	2.176	1.840	1.675	1.291	1.035	0.772	0.760	0.467	0.524	0.502	0.499	0.383	0.456	0.428	0.371	0.193	0.324	0.277	0.349	0.270	0.201	0.170	0.224	0.252	0.194	0.154	0.225	0.237	0.209	0.363	0.489	0.798	0.460	0.317	0.642	2.452	5.156	8.622	11.10	12.84	3.754	0.628	0.135	0.132	0.183	0.167	0.125	0.088	0.102	0.093	0.129	0.077	0.108	0.106	0.084	0.087	0.124	0.091	0.070	0.083	0.135	0.046	0.101	0.083	0.078
240.0	289.1	237.8	1030	2966	2890	367.4	15.66	4.480	2.953	2.363	2.370	3.139	2.595	2.079	2.050	1.551	1.019	0.840	0.769	0.516	0.541	0.427	0.469	0.470	0.403	0.430	0.336	0.224	0.377	0.323	0.304	0.288	0.201	0.155	0.183	0.217	0.110	0.201	0.206	0.241	0.167	0.236	0.263	0.601	0.904	0.836	0.540	0.770	1.327	2.634	6.554	18.73	15.89	9.683	2.887	0.391	0.154	0.160	0.110	0.124	0.098	0.090	0.137	0.083	0.094	0.144	0.119	0.108	0.117	0.118	0.098	0.104	0.120	0.077	0.104	0.092	0.098
245.0	217.1	302.9	304.6	1074	3540	2756	263.9	8.826	4.420	3.951	3.119	3.265	2.364	1.991	1.833	1.383	1.290	0.975	0.776	0.514	0.538	0.420	0.477	0.568	0.450	0.544	0.330	0.415	0.394	0.324	0.313	0.342	0.182	0.203	0.245	0.243	0.156	0.185	0.234	0.203	0.136	0.202	0.313	0.287	0.553	0.877	1.082	0.842	0.565	0.743	1.689	6.793	12.55	19.97	18.24	7.900	1.680	0.200	0.158	0.133	0.113	0.084	0.114	0.113	0.105	0.157	0.081	0.115	0.147	0.131	0.110	0.116	0.100	0.066	0.068	0.111	0.097
250.0	75.57	230.4	338.4	338.0	1208	3240	3672	998.3	51.21	5.583	4.988	5.235	2.963	2.036	2.408	1.575	1.222	1.046	0.836	0.694	0.596	0.453	0.595	0.538	0.550	0.452	0.471	0.409	0.470	0.434	0.273	0.305	0.236	0.204	0.270	0.254	0.194	0.169	0.210	0.203	0.172	0.214	0.262	0.207	0.273	0.407	0.650	0.912	1.051	1.011	0.746	1.746	3.135	6.708	12.39	15.99	19.65	17.26	9.015	2.083	0.244	0.144	0.124	0.146	0.114	0.142	0.108	0.121	0.134	0.123	0.105	0.096	0.088	0.102	0.077	0.110	0.122
255.0	38.38	69.85	252.2	380.9	356.9	854.1	3376	5422	1390	49.17	8.187	7.687	3.717	2.509	2.703	1.754	1.410	1.049	0.771	0.653	0.634	0.454	0.659	0.532	0.523	0.616	0.524	0.538	0.472	0.468	0.476	0.308	0.214	0.195	0.272	0.349	0.224	0.205	0.244	0.219	0.241	0.251	0.249	0.180	0.230	0.244	0.279	0.346	0.577	0.977	1.536	1.573	1.170	1.708	2.932	3.986	7.689	18.73	33.07	25.63	12.75	2.411	0.189	0.184	0.143	0.139	0.114	0.102	0.188	0.134	0.143	0.079	0.137	0.139	0.101	0.110	0.079
260.0	28.37	28.26	101.8	340.2	361.5	245.5	1077	4779	5948	238.5	26.35	9.714	4.696	3.829	3.197	2.006	1.499	1.206	0.977	0.706	0.816	0.446	0.657	0.573	0.653	0.600	0.483	0.486	0.517	0.528	0.474	0.351	0.336	0.236	0.364	0.309	0.193	0.222	0.273	0.237	0.207	0.221	0.245	0.160	0.232	0.225	0.197	0.203	0.270	0.426	0.873	1.850	1.819	1.235	0.901	1.095	1.997	5.141	14.77	27.52	39.35	25.55	9.540	1.149	0.185	0.170	0.148	0.167	0.142	0.110	0.168	0.118	0.104	0.159	0.086	0.109	0.127
265.0	31.73	21.53	38.38	160.7	434.2	246.6	276.3	1658	6528	5968	196.2	19.08	5.912	4.947	3.632	2.284	1.807	1.540	1.079	0.852	0.833	0.605	0.685	0.627	0.525	0.559	0.493	0.450	0.682	0.594	0.446	0.387	0.358	0.305	0.259	0.406	0.228	0.299	0.214	0.213	0.203	0.168	0.246	0.144	0.244	0.262	0.199	0.144	0.183	0.231	0.354	1.028	1.840	2.415	1.507	0.675	0.620	1.344	3.595	8.332	22.05	43.96	43.28	21.24	5.264	0.523	0.248	0.173	0.174	0.177	0.148	0.145	0.147	0.123	0.165	0.159	0.129
270.0	56.56	38.89	38.04	56.43	209.9	410.7	286.4	421.9	2079	5961	7849	3384	46.48	7.039	5.643	3.156	2.417	1.812	1.410	0.986	0.946	0.751	0.773	0.800	0.770	0.621	0.588	0.496	0.607	0.631	0.519	0.435	0.419	0.359	0.428	0.516	0.243	0.303	0.295	0.342	0.228	0.276	0.381	0.253	0.264	0.289	0.256	0.220	0.235	0.184	0.204	0.433	0.666	1.208	1.873	2.204	1.912	1.130	1.120	2.083	5.359	12.59	20.92	32.62	31.77	34.49	15.02	6.651	0.562	0.213	0.222	0.153	0.182	0.134	0.122	0.158	0.117
275.0	121.7	99.48	73.41	39.40	65.53	188.6	529.8	343.5	515.8	1474	5146	9999.9	1113	51.01	8.897	5.026	3.365	2.222	2.107	1.138	1.234	1.078	0.955	0.846	0.884	0.626	0.615	0.588	0.711	0.621	0.607	0.531	0.507	0.667	0.556	0.665	0.515	0.392	0.437	0.544	0.360	0.466	0.456	0.430	0.461	0.497	0.406	0.447	0.287	0.301	0.218	0.334	0.311	0.447	0.695	1.021	2.283	3.486	2.584	1.100	1.491	3.041	4.981	7.727	9.818	22.86	51.49	83.10	23.45	7.501	0.601	0.238	0.194	0.172	0.162	0.124	0.154
280.0	217.2	168.7	105.7	50.31	37.59	74.70	336.0	623.3	293.3	408.9	1449	9999.9	9115	846.0	30.63	6.577	4.485	2.813	2.228	1.457	1.271	1.054	0.976	1.024	0.958	0.739	0.657	0.561	0.628	0.682	0.577	0.536	0.617	0.863	0.788	0.782	0.688	0.513	0.523	0.542	0.573	0.615	0.626	0.578	0.636	0.671	0.585	0.652	0.443	0.344	0.257	0.406	0.253	0.335	0.431	0.454	0.950	2.041	3.577	3.287	1.825	1.182	1.518	2.177	2.769	5.892	17.63	59.64	65.73	33.20	24.07	4.335	0.301	0.193	0.190	0.210	0.185
285.0	318.2	260.9	160.0	76.81	41.95	48.66	145.5	535.8	601.6	249.0	448.4	2957	8361	7652	120.1	12.52	5.539	3.925	2.483	1.610	1.518	1.321	1.340	1.040	0.988	0.754	0.765	0.518	0.662	0.843	0.539	0.579	0.828	0.978	1.201	1.075	0.951	0.855	0.721	0.670	0.736	0.709	0.850	0.722	0.873	0.888	0.829	0.749	0.626	0.436	0.379	0.498	0.235	0.379	0.332	0.315	0.484	0.832	1.749	3.351	4.128	2.976	1.347	1.181	1.271	1.960	4.676	15.18	26.91	74.08	89.66	32.33	12.96	1.106	0.314	0.184	0.213
290.0	435.7	371.3	243.4	116.4	67.23	63.75	103.3	262.8	630.2	671.1	388.0	872.5	2413	6234	8247	1873	31.56	5.345	3.636	2.276	1.894	1.490	1.446	1.301	1.129	0.876	0.892	0.527	0.845	0.850	0.711	0.696	0.973	1.272	1.581	1.564	1.259	1.002	1.014	0.890	0.797	0.827	1.049	1.101	1.062	1.127	1.086	0.974	0.841	0.620	0.485	0.566	0.372	0.411	0.463	0.386	0.469	0.616	0.967	1.536	2.403	3.748	4.269	3.616	2.171	1.662	2.221	4.550	7.099	19.61	29.75	45.49	53.13	38.26	19.63	8.936	1.388
295.0	589.1	517.0	343.5	192.7	127.0	132.6	175.0	257.2	421.9	818.1	941.8	586.9	785.6	1590	4453	8756	676.0	34.46	6.117	3.299	2.569	2.025	1.582	1.309	1.358	0.968	1.001	0.699	0.929	0.981	0.885	0.603	1.079	1.387	1.764	1.912	1.558	1.325	1.222	1.063	1.052	1.168	1.252	1.259	1.444	1.471	1.399	1.286	1.227	0.897	0.683	0.845	0.619	0.590	0.694	0.669	0.830	0.955	1.119	1.405	1.776	2.509	3.160	4.872	6.144	4.426	2.694	2.794	3.158	5.700	7.768	11.07	14.22	17.92	39.02	53.97	30.24
300.0	788.6	704.8	504.6	328.5	249.1	264.6	343.0	360.7	558.7	814.9	1329	1046	675.9	697.9	1339	5467	8109	533.5	20.54	4.852	3.433	2.409	1.969	1.755	1.805	1.371	1.075	0.925	1.011	1.072	0.817	0.735	0.997	1.530	1.961	2.185	1.760	1.571	1.520	1.401	1.335	1.289	1.510	1.425	1.775	2.076	1.799	1.855	1.685	1.201	1.109	1.351	1.089	1.030	1.222	1.314	1.588	1.795	2.095	2.085	2.552	2.780	3.490	4.382	6.014	7.419	6.842	4.870	3.801	3.958	4.104	4.665	4.774	5.579	11.74	26.85	50.89
305.0	1015	950.3	709.9	497.3	415.9	451.5	586.3	706.2	883.7	1123	1502	1847	1186	842.5	822.4	1831	7083	4854	76.74	8.887	4.342	2.978	2.518	1.835	2.225	1.408	1.303	1.005	1.163	1.188	0.953	0.810	1.156	1.544	2.025	2.480	1.988	1.975	1.918	1.922	1.767	1.774	2.025	1.900	2.449	2.496	2.460	2.456	2.388	1.740	1.545	1.930	1.809	1.740	1.995	2.130	2.550	2.982	3.261	3.415	3.921	4.483	5.319	5.908	6.755	7.855	9.649	9.748	8.145	5.990	5.240	4.738	4.118	4.492	5.458	8.728	18.49
310.0	1224	1263	1000	703.6	592.7	628.2	823.2	969.0	1113	1345	1587	1936	1883	1281	923.6	913.5	2288	4283	5252	1305	22.66	4.067	3.414	2.751	2.725	1.735	1.418	1.138	1.309	1.245	1.025	0.946	1.236	1.782	2.294	2.665	2.269	2.214	2.242	2.342	2.174	2.215	2.451	2.383	2.875	3.183	3.130	3.413	3.113	2.522	2.129	2.619	2.471	2.410	2.698	2.979	3.492	4.008	4.472	4.789	4.953	5.633	6.119	7.041	7.515	8.122	9.155	10.01	10.63	10.15	8.747	6.973	5.755	5.579	4.969	5.092	6.911
315.0	1563	1682	1380	937.6	762.3	802.8	1009	1141	1260	1489	1718	1918	1981	1872	1195	814.6	1005	1245	3062	5598	490.6	21.67	4.944	3.394	3.401	1.981	1.664	1.377	1.555	1.278	1.227	0.968	1.313	1.613	2.319	2.814	2.346	2.312	2.416	2.574	2.561	2.721	2.964	2.965	3.441	4.045	4.352	4.541	4.089	3.367	2.859	3.286	3.034	2.989	3.484	3.741	4.448	4.738	5.415	5.687	5.606	6.339	6.729	8.161	8.322	8.991	9.531	10.04	10.17	10.29	10.77	10.78	8.334	6.662	5.567	5.014	4.834
320.0	2219	2527	1957	1169	858.5	873.0	1092	1265	1361	1606	1841	2025	2000	1959	1554	884.6	754.5	568.0	850.9	3492	4068	398.7	13.00	4.785	4.432	2.499	1.731	1.491	1.709	1.461	1.470	1.076	1.295	1.535	2.029	2.650	2.671	2.465	2.732	2.856	3.012	3.194	3.620	3.885	4.639	5.852	5.959	7.374	6.216	4.581	3.420	3.862	3.438	3.517	3.781	4.010	4.778	5.532	5.841	6.194	6.210	7.010	7.396	8.688	8.689	9.572	10.01	10.32	10.36	10.23	10.30	10.99	10.87	9.229	6.758	5.442	4.818
325.0	2833	3498	2846	1506	948.9	916.2	1121	1304	1400	1636	1893	2076	2026	1850	1697	1052	703.5	424.8	298.5	997.1	4143	3550	57.91	8.064	6.254	3.009	1.902	1.959	1.944	1.855	1.637	1.118	1.293	1.685	1.983	2.634	2.710	2.649	2.847	3.269	3.298	3.303	4.063	4.705	6.074	7.442	8.582	9.536	8.833	6.723	4.615	4.560	3.913	3.778	3.882	4.031	5.296	5.611	5.854	6.410	6.613	7.063	7.431	8.453	9.121	9.556	9.758	10.32	10.97	10.59	9.872	10.04	10.21	11.01	8.743	6.424	4.873
330.0	3263	4082	3491	2115	1354	1061	1134	1294	1379	1585	1833	2007	1979	1750	1516	1215	829.3	429.3	219.7	314.5	1192	3103	4154	1218	23.61	4.433	2.752	2.049	2.634	2.087	1.636	1.187	1.470	1.631	2.045	2.663	2.603	2.678	3.013	3.292	3.410	3.769	4.545	5.520	6.787	8.574	9.686	11.49	10.84	8.500	6.513	6.369	5.578	4.987	4.602	4.282	5.055	5.555	5.964	6.275	6.374	6.808	7.286	8.073	8.595	9.174	9.864	10.16	10.42	10.30	10.01	9.551	9.064	9.395	8.454	7.774	6.718
335.0	3687	4683	4285	2984	2063	1373	1206	1291	1363	1552	1789	1983	1971	1788	1483	1146	1040	603.3	284.2	223.9	389.7	802.3	2605	6286	2465	19.87	3.908	2.519	3.409	2.485	1.644	1.438	1.622	1.529	2.023	2.809	2.754	2.860	2.873	3.378	3.473	4.186	4.957	5.956	7.776	9.897	11.24	13.29	12.59	10.67	9.132	9.208	8.579	7.569	6.266	5.413	5.413	5.767	6.018	6.093	6.498	6.617	7.395	8.038	8.787	8.904	9.840	10.50	10.60	10.39	10.28	9.891	8.945	8.804	8.080	7.278	6.998
340.0	3687	4849	4580	3197	2219	1435	1174	1226	1291	1457	1682	1876	1880	1724	1420	1051	942.8	738.4	345.3	219.2	222.5	278.2	733.2	4340	9999.9	336.1	8.685	3.294	4.021	2.837	2.026	1.509	1.466	1.653	2.068	2.970	2.590	2.569	2.770	3.203	3.497	4.067	4.904	6.073	7.675	10.05	11.27	13.72	13.22	11.36	9.878	10.04	9.258	7.948	6.323	5.516	5.115	5.680	5.830	5.803	6.042	6.228	7.241	7.833	8.032	8.868	9.224	9.816	9.649	9.910	9.764	9.368	8.606	8.190	7.580	6.704	5.983
345.0	3428	4442	4230	3045	2149	1344	1085	1114	1168	1303	1507	1652	1668	1540	1266	936.4	760.6	690.4	444.8	217.9	175.6	159.9	242.3	1241	8474	3045	48.82	4.499	5.112	3.492	2.038	1.411	1.462	1.619	1.929	2.763	2.402	2.600	2.682	2.874	3.251	3.773	4.643	5.431	7.280	9.174	10.36	12.66	12.67	11.04	9.539	9.575	8.685	7.769	6.169	4.735	4.675	5.068	5.335	5.052	5.436	5.856	6.204	6.841	7.338	7.471	7.804	8.441	8.652	9.008	8.986	8.550	7.726	7.512	6.525	6.079	5.295
350.0	3010	3840	3769	2869	2076	1279	954.5	969.0	1003	1108	1277	1408	1425	1328	1111	829.9	650.4	524.9	466.9	317.8	183.8	139.0	136.7	334.9	2293	3141	3454	850.4	18.04	4.583	2.652	1.780	1.653	1.631	1.787	2.457	2.193	2.250	2.463	2.604	2.752	3.401	4.121	4.843	6.218	7.755	9.047	11.17	11.28	9.674	8.609	9.310	8.347	7.612	6.223	4.422	4.392	4.326	4.447	4.603	4.774	4.855	5.426	5.665	6.187	6.614	6.893	7.203	7.479	7.657	7.681	7.656	7.253	6.567	5.664	5.404	4.877
355.0	2640	3279	3249	2595	1913	1199	824.2	829.7	849.8	931.5	1082	1182	1205	1136	963.1	729.6	568.0	431.8	344.1	371.1	259.2	140.8	114.1	134.0	539.5	741.6	2330	4017	382.6	21.84	3.518	2.195	1.883	1.712	1.632	2.232	2.004	2.197	2.254	2.248	2.534	2.986	3.463	3.971	5.389	6.632	7.559	9.722	9.566	8.412	7.538	8.717	7.808	7.392	5.554	3.972	3.861	3.671	3.838	3.815	3.996	4.274	4.398	5.069	5.223	5.701	5.805	6.021	6.474	6.432	6.543	6.495	6.053	5.524	5.303	4.541	4.480
360.0	2231	2744	2781	2267	1703	1043	728.5	716.3	730.9	795.0	912.3	996.7	1027	968.0	821.4	633.9	488.9	371.6	277.3	288.3	316.0	170.4	104.1	84.78	151.2	183.1	614.5	2919	7972	345.7	7.448	2.887	2.186	1.719	1.923	2.382	1.958	1.852	1.980	2.004	2.286	2.632	3.126	3.810	4.599	6.022	6.457	8.007	8.182	7.175	6.471	7.372	6.703	6.540	4.831	3.714	3.467	3.205	3.539	3.334	3.692	3.851	3.974	4.138	4.664	4.727	4.977	5.040	5.511	5.546	5.818	5.547	5.293	4.917	4.692	3.856	3.756
365.0	1856	2299	2322	1942	1471	910.8	631.7	620.6	631.5	681.9	772.2	849.7	877.2	822.3	707.8	547.6	432.3	327.4	241.6	213.8	278.8	237.5	112.5	72.14	64.24	60.01	151.7	850.7	8490	5551	44.89	4.318	2.636	1.779	1.937	2.611	1.786	1.893	1.753	1.964	1.867	2.373	2.543	3.237	3.897	4.986	5.378	6.664	7.028	6.003	5.771	6.424	5.693	5.509	4.156	3.245	3.009	2.830	2.930	2.867	2.894	3.058	3.391	3.423	3.918	4.084	4.409	4.161	4.694	4.714	4.709	4.601	4.593	4.127	4.131	3.445	3.273
370.0	1555	1845	1876	1594	1258	784.3	545.6	521.5	524.4	571.3	639.5	704.5	721.5	681.0	591.2	466.9	372.9	288.7	219.8	180.0	186.9	229.6	185.5	84.70	49.19	36.34	50.46	203.3	2450	5150	3709	718.7	12.30	2.133	2.077	2.890	1.681	1.601	1.678	1.773	1.787	2.022	2.383	2.658	3.301	4.037	4.503	5.403	5.466	4.961	4.773	5.610	4.998	4.748	3.851	2.837	2.500	2.449	2.460	2.447	2.517	2.626	2.872	3.047	3.311	3.484	3.593	3.630	3.816	3.817	3.862	3.955	3.906	3.459	3.397	2.943	2.903
375.0	1232	1460	1503	1307	1046	673.6	468.9	432.2	433.0	476.0	525.5	573.0	590.4	564.6	488.7	390.5	318.3	254.8	199.3	163.7	145.5	150.9	203.9	151.0	56.03	35.01	31.11	59.94	560.6	1219	2799	3688	304.2	9.042	2.640	3.087	1.640	1.638	1.623	1.731	1.569	1.865	2.007	2.250	2.697	3.336	3.490	4.422	4.200	4.008	4.034	4.587	4.102	3.830	3.315	2.479	2.141	2.092	2.018	2.070	2.133	2.012	2.234	2.473	2.445	2.791	2.864	3.207	3.282	3.156	3.133	3.173	3.327	2.816	2.975	2.575	2.431
380.0	1035	1229	1242	1101	860.5	576.9	406.1	380.2	371.2	409.3	449.2	493.5	498.9	476.7	418.3	336.3	278.4	228.6	185.0	153.8	133.1	120.0	148.0	189.7	92.94	38.17	28.90	30.00	140.3	284.3	755.2	2916	2586	220.9	4.701	3.671	1.746	1.610	1.700	1.559	1.420	1.662	1.626	2.043	2.576	2.925	3.072	3.551	3.470	3.284	3.224	3.609	3.571	3.402	2.825	2.084	1.897	2.092	1.887	1.787	2.023	1.773	2.078	2.092	2.124	2.331	2.539	2.731	2.677	2.656	2.828	2.997	2.610	2.467	2.522	2.169	2.224
385.0	855.9	1015	1031	922.5	743.0	507.9	362.9	341.4	331.8	356.9	394.8	429.9	430.6	416.7	363.0	299.3	253.4	211.7	173.4	146.6	127.6	108.8	109.0	156.5	146.7	53.59	31.81	25.55	48.22	77.14	179.1	888.1	3108	2020	35.39	5.032	2.092	1.615	1.565	1.484	1.485	1.487	1.801	1.975	2.230	2.451	2.565	3.006	3.035	2.951	2.704	3.389	3.169	2.859	2.509	1.824	1.787	1.696	1.710	1.715	1.735	1.616	1.931	1.834	2.113	2.053	2.244	2.276	2.421	2.321	2.472	2.500	2.328	2.304	2.066	2.052	1.823
390.0	749.0	831.3	845.7	759.1	628.7	442.4	326.9	298.8	290.0	310.6	333.3	364.1	370.9	355.2	314.8	260.5	224.0	194.4	164.4	142.8	123.7	106.4	97.55	102.1	135.5	115.4	46.30	28.87	30.43	33.18	51.25	207.7	920.7	1977	2470	802.8	9.439	1.933	1.612	1.661	1.431	1.387	1.642	1.675	1.951	2.085	2.067	2.409	2.489	2.357	2.282	3.024	2.698	2.444	2.133	1.689	1.675	1.443	1.584	1.434	1.570	1.563	1.691	1.674	1.820	1.839	2.046	1.901	2.021	1.961	2.180	2.082	2.015	1.929	1.812	1.899	1.669
395.0	626.6	671.3	702.0	633.1	539.6	392.6	299.6	270.9	263.4	269.6	290.0	307.6	313.9	301.6	271.4	234.2	202.6	178.4	155.9	138.9	121.3	106.1	96.29	84.71	88.19	124.8	104.9	42.95	30.01	27.00	25.15	56.52	213.5	472.0	1829	5825	244.2	7.054	1.948	1.828	1.333	1.449	1.572	1.388	1.711	1.818	1.809	1.918	1.843	1.953	1.886	2.457	2.357	2.097	1.950	1.535	1.456	1.264	1.386	1.204	1.294	1.308	1.348	1.482	1.540	1.462	1.742	1.742	1.720	1.694	1.645	1.823	1.898	1.820	1.486	1.595	1.625
400.0	570.7	616.6	619.1	547.7	477.0	363.9	286.8	254.2	243.4	245.1	260.6	275.9	280.2	269.5	247.3	212.6	187.1	170.0	152.6	135.4	119.2	107.1	95.29	81.36	74.53	90.16	127.4	72.86	35.28	31.30	20.98	24.27	56.45	112.2	501.5	4940	1987	35.58	3.248	2.064	1.400	1.487	1.387	1.313	1.668	1.693	1.572	1.861	1.683	1.716	1.748	2.196	1.925	1.897	1.753	1.359	1.306	1.280	1.343	1.214	1.272	1.289	1.225	1.309	1.401	1.269	1.556	1.534	1.525	1.548	1.648	1.566	1.605	1.632	1.426	1.469	1.660
405.0	502.5	533.8	549.1	502.8	436.2	336.7	269.0	245.8	231.6	229.4	241.1	259.0	258.0	247.7	226.7	197.9	179.1	162.9	147.5	133.4	117.5	105.2	95.43	84.04	72.62	69.40	103.7	111.1	51.35	37.52	22.42	19.30	23.49	32.95	121.4	1523	2070	1548	29.65	2.584	1.465	1.539	1.484	1.362	1.585	1.713	1.407	1.660	1.587	1.525	1.522	1.942	1.831	1.742	1.651	1.274	1.264	1.247	1.276	1.188	1.222	1.164	1.275	1.189	1.225	1.113	1.356	1.464	1.567	1.453	1.479	1.481	1.490	1.531	1.460	1.366	1.464
410.0	453.1	474.3	468.1	443.0	393.4	314.6	262.8	238.5	218.2	217.3	220.6	233.7	230.2	224.9	205.4	182.5	167.1	155.7	142.1	128.9	116.5	103.7	95.16	84.31	73.34	64.83	71.20	99.90	95.88	57.11	27.43	21.15	17.57	16.84	36.63	349.1	609.0	1433	1546	139.6	7.554	1.778	1.773	1.402	1.607	1.687	1.394	1.608	1.548	1.396	1.464	1.812	1.716	1.662	1.492	1.291	1.283	1.180	1.295	1.200	1.109	1.200	1.152	1.144	1.207	1.132	1.152	1.228	1.370	1.318	1.238	1.428	1.403	1.254	1.297	1.228	1.370
415.0	410.5	408.9	419.7	388.0	368.9	299.4	255.3	233.5	212.2	198.5	205.2	208.7	211.1	201.1	186.9	168.8	158.8	145.5	135.0	125.1	114.8	102.8	94.23	84.67	73.86	65.57	61.91	66.82	97.63	94.13	39.37	24.11	18.40	14.88	18.28	85.55	141.3	342.4	1169	2011	210.8	8.040	2.017	1.358	1.729	1.468	1.293	1.450	1.393	1.331	1.165	1.657	1.524	1.430	1.576	1.215	1.343	1.120	1.196	1.220	1.226	1.128	1.222	1.167	1.083	1.187	1.134	1.159	1.214	1.371	1.167	1.258	1.181	1.108	1.157	1.110	1.202
