Sample:	'1
File name:	Default_20230927_161703.FD3
Run date:	'16:10:42, 09/27/2023
Operator:	user
Comment:	'

Instrument
Model:	F-2700 FL Spectrophotometer
Serial number:	2190-003
ROM Version:	4J14000 07

Instrument parameters
Measurement type:	3-D scan
Data mode:	Fluorescence
EX  Start WL:	220.0 nm
EX  End WL:	600.0 nm
EX Sampling interval:	5.0 nm
EM  Start WL:	230.0 nm
EM  End WL:	650.0 nm
EM Sampling interval:	5.0 nm
Scan speed:	12000 nm/min
EX Slit:	5.0 nm
EM Slit:	5.0 nm
PMT Voltage:	700 V
Response:	Auto 
Corrected spectra:	Off
Contour interval:	50.000

Peak integration
Integration method:	Rectangular
Sensitivity:	1
Threshold:	1.000

Peaks
No.	ApexEX/EM(nm)	Height(Data)
1	225.0/265.0	114.3
2	225.0/295.0	167.7
3	225.0/540.0	148.9
4	225.0/565.0	127.3
5	225.0/575.0	123.9
6	225.0/605.0	137.4
7	225.0/640.0	109.8
8	230.0/275.0	111.4
9	235.0/570.0	110.8
10	240.0/260.0	158.8
11	240.0/560.0	120.3
12	240.0/635.0	88.04
13	245.0/265.0	141.9
14	245.0/595.0	94.16
15	250.0/270.0	155.3
16	250.0/365.0	 3606
17	250.0/540.0	193.0
18	255.0/275.0	235.8
19	260.0/285.0	301.1
20	265.0/580.0	128.7
21	265.0/605.0	107.7
22	270.0/240.0	32.02
23	270.0/315.0	 1386
24	270.0/325.0	 1368
25	270.0/590.0	113.6
26	270.0/630.0	102.3
27	275.0/320.0	 1354
28	275.0/605.0	122.3
29	275.0/640.0	88.48
30	280.0/235.0	26.12
31	280.0/310.0	 1360
32	295.0/255.0	12.49
33	305.0/235.0	11.91
34	305.0/340.0	543.4
35	310.0/240.0	9.314
36	320.0/240.0	7.598
37	320.0/280.0	8.296
38	335.0/275.0	6.806
39	350.0/245.0	5.208
40	350.0/285.0	5.116
41	360.0/275.0	5.008
42	365.0/285.0	5.258
43	365.0/615.0	10.04
44	375.0/325.0	5.110
45	380.0/260.0	3.837
46	390.0/300.0	3.748
47	430.0/340.0	2.994
48	500.0/365.0	10.52
49	505.0/370.0	10.37
50	535.0/325.0	4.809
51	550.0/315.0	5.258
52	580.0/325.0	4.244
53	580.0/520.0	2.751
54	595.0/400.0	4.553

Data points
	220.0	225.0	230.0	235.0	240.0	245.0	250.0	255.0	260.0	265.0	270.0	275.0	280.0	285.0	290.0	295.0	300.0	305.0	310.0	315.0	320.0	325.0	330.0	335.0	340.0	345.0	350.0	355.0	360.0	365.0	370.0	375.0	380.0	385.0	390.0	395.0	400.0	405.0	410.0	415.0	420.0	425.0	430.0	435.0	440.0	445.0	450.0	455.0	460.0	465.0	470.0	475.0	480.0	485.0	490.0	495.0	500.0	505.0	510.0	515.0	520.0	525.0	530.0	535.0	540.0	545.0	550.0	555.0	560.0	565.0	570.0	575.0	580.0	585.0	590.0	595.0	600.0
230.0	118.8	120.1	360.9	427.8	111.6	49.68	42.80	33.98	33.02	30.78	24.91	21.57	20.53	15.29	14.29	13.04	10.38	8.758	6.747	7.394	5.231	5.186	5.407	4.993	4.509	3.962	3.640	4.183	3.695	4.030	3.709	3.425	2.999	2.565	2.242	2.698	2.437	2.405	2.122	2.200	2.395	2.214	1.916	1.947	1.732	1.869	1.698	1.354	1.850	1.900	1.763	1.660	1.397	1.470	1.410	1.237	1.482	1.273	1.391	1.221	1.093	1.299	1.349	1.434	1.474	1.129	0.979	1.264	1.313	0.957	1.141	1.143	1.301	1.228	1.396	1.478	1.637
235.0	108.5	98.55	180.1	543.0	635.6	129.1	57.36	44.18	30.06	26.04	23.70	22.19	26.12	15.46	14.18	13.44	8.787	11.91	8.950	7.696	5.780	4.850	5.154	4.387	4.192	3.322	2.787	3.235	3.555	2.988	3.625	2.877	2.915	3.119	1.841	2.467	2.918	2.775	2.763	2.066	2.695	1.971	1.781	1.980	1.858	2.647	1.365	1.128	1.733	1.664	2.024	2.522	2.113	1.133	1.077	1.062	1.625	1.363	1.346	1.124	1.525	1.278	1.481	1.404	1.210	1.167	1.453	1.264	1.463	1.238	1.270	0.894	1.048	1.149	1.580	1.523	1.200
240.0	97.10	100.5	92.01	279.5	935.1	720.2	95.66	37.72	33.00	27.54	32.02	21.42	13.70	15.87	14.93	12.36	9.067	7.437	9.314	5.895	7.598	5.512	5.271	3.877	3.205	4.713	3.770	4.233	3.540	4.103	3.074	3.058	2.546	3.429	2.556	3.031	2.988	2.552	2.210	1.759	2.917	1.942	2.572	2.059	1.713	2.377	1.445	1.176	1.971	1.515	1.503	2.788	3.158	3.233	1.806	1.319	1.342	1.665	1.570	1.033	1.669	1.599	0.978	1.567	1.322	1.350	1.056	1.335	1.717	1.101	1.024	1.044	1.303	1.823	1.233	1.393	0.974
245.0	122.7	116.2	107.9	127.0	497.7	 1319	727.7	61.52	33.32	26.94	26.59	22.27	16.78	17.99	15.45	11.79	9.638	8.161	9.179	7.135	7.312	7.629	4.313	5.044	3.381	4.514	5.208	4.391	3.424	4.169	3.393	3.155	3.019	2.421	2.585	2.327	1.961	2.080	2.425	1.839	2.423	2.293	2.387	2.483	1.870	1.959	1.409	1.466	2.269	1.649	1.560	1.931	2.361	3.512	3.987	3.230	1.725	1.510	1.756	1.379	0.859	1.414	0.846	1.400	0.950	1.142	0.930	0.973	1.193	1.484	1.087	0.813	1.376	1.643	0.904	1.386	1.537
250.0	142.5	102.9	102.4	100.1	169.3	601.0	 1366	 1211	262.2	27.95	27.06	27.86	20.57	17.96	14.65	9.456	8.562	9.993	7.217	6.998	5.642	5.794	4.943	4.525	4.268	4.014	4.313	4.059	3.330	4.175	3.277	2.743	3.221	2.747	3.500	2.223	1.460	2.934	2.173	1.739	2.079	2.217	1.795	2.244	1.725	2.201	2.094	1.561	1.771	1.246	1.229	1.796	1.884	2.032	2.818	3.974	4.867	4.993	3.316	1.796	1.535	1.335	1.330	1.205	1.235	1.379	1.157	1.510	1.331	1.319	0.721	1.019	1.577	1.283	0.913	1.392	1.544
255.0	83.38	100.7	100.4	136.5	139.3	182.6	453.5	 1823	 1976	308.9	31.17	25.45	22.26	17.15	10.31	12.49	10.86	10.10	7.050	6.949	5.239	6.331	6.259	4.883	4.851	4.681	4.592	4.365	3.306	4.148	3.395	2.995	2.673	2.736	2.704	2.225	2.198	2.762	2.368	2.262	2.548	1.956	1.961	2.290	1.915	1.480	1.400	1.675	1.720	1.433	1.672	1.471	2.112	1.418	2.066	2.137	2.626	4.212	6.881	6.643	4.074	1.768	1.147	1.245	1.139	1.407	1.405	1.897	1.599	1.003	1.526	1.152	0.992	1.656	1.252	0.890	1.806
260.0	98.17	88.30	88.77	133.3	158.8	115.6	151.0	744.5	 2744	 1725	179.4	26.14	23.16	16.12	9.122	12.04	9.815	9.406	7.060	6.063	5.686	6.195	6.605	3.963	5.140	4.133	3.824	3.415	3.850	3.220	3.999	2.547	3.837	2.281	2.364	2.507	1.960	2.435	2.131	2.244	2.357	1.866	1.950	2.043	1.663	1.915	1.544	2.114	1.545	1.090	0.859	1.798	2.092	1.947	1.792	1.281	1.962	1.882	3.967	6.616	8.893	7.329	2.906	1.417	1.061	1.055	1.703	1.458	1.781	1.465	1.061	1.233	1.340	1.317	1.523	1.063	1.402
265.0	111.9	114.3	94.22	74.03	104.3	141.9	90.20	199.7	 1190	 3393	 1385	88.74	19.86	19.41	14.62	11.32	10.44	8.205	6.613	5.751	7.254	6.460	6.643	5.550	5.488	3.720	4.460	3.035	3.612	2.492	3.695	2.610	3.220	3.031	2.163	2.409	1.865	1.990	1.351	2.219	2.278	1.575	1.550	1.270	1.684	2.013	1.987	1.971	1.430	1.447	1.035	1.425	1.266	1.290	1.602	1.181	1.233	1.615	1.589	2.753	5.637	9.814	10.60	6.539	1.821	1.078	1.469	1.553	1.339	1.473	0.971	1.600	1.341	1.519	1.297	1.457	1.551
270.0	136.6	113.8	105.0	81.25	72.91	125.7	155.3	120.4	321.2	 1341	 3069	 2702	374.9	23.05	14.59	12.65	10.69	9.869	6.647	7.300	7.028	6.525	4.609	5.687	4.691	4.336	3.432	2.668	4.401	3.257	3.532	3.102	3.106	2.888	3.037	2.192	2.205	2.713	1.711	2.208	2.146	2.157	1.822	1.766	1.870	1.858	1.705	1.888	1.609	1.546	1.327	1.476	1.607	1.788	1.744	1.361	1.690	1.595	1.500	1.776	2.354	3.910	5.954	8.675	11.25	9.850	4.835	1.677	1.067	1.539	1.453	1.118	1.438	1.428	1.458	1.194	1.258
275.0	104.4	100.9	111.4	101.5	87.87	84.09	112.5	235.8	143.3	346.0	906.0	 3556	 4254	373.8	13.88	15.63	12.36	8.235	8.134	8.351	7.316	5.307	6.727	6.806	4.870	4.625	3.486	3.584	5.008	3.920	3.818	3.314	2.807	2.053	2.108	2.318	2.493	2.741	1.857	2.302	2.198	1.644	1.782	2.303	1.934	2.092	2.151	1.298	1.728	1.744	1.248	1.608	1.386	1.634	1.704	1.623	1.756	2.325	1.439	1.599	1.678	1.545	2.020	3.481	4.435	8.982	16.37	14.98	5.462	1.737	1.916	0.942	1.550	1.436	1.433	1.612	1.538
280.0	129.6	94.76	107.6	91.71	72.48	64.79	74.55	207.3	217.2	145.2	260.2	 1248	 5226	 3622	186.4	16.08	12.52	8.443	5.366	7.334	8.296	6.351	4.841	5.765	5.407	4.651	4.166	3.560	3.952	4.321	3.413	4.107	3.975	2.446	2.941	2.256	1.926	2.310	2.379	2.348	2.183	1.595	1.595	1.927	1.967	1.721	1.839	1.185	1.433	1.058	1.397	1.514	1.033	1.559	1.759	1.394	2.179	1.358	1.705	2.223	1.557	1.117	1.848	2.213	2.133	3.384	7.491	14.70	19.31	11.36	3.412	0.864	1.111	1.793	1.450	1.890	1.764
285.0	110.9	105.2	102.7	84.03	60.61	81.79	81.35	111.2	301.1	204.4	132.9	360.5	 2069	 6153	894.1	61.68	14.06	9.784	8.200	8.088	6.431	7.183	5.650	5.654	4.353	3.977	5.116	3.993	3.741	5.258	5.068	3.020	2.838	2.693	3.207	2.162	2.327	1.951	2.121	2.507	1.692	2.071	2.069	2.005	1.849	2.363	2.154	1.224	1.648	1.537	1.019	1.390	1.256	1.236	1.244	1.662	2.021	1.004	1.620	2.341	2.691	1.871	1.833	2.021	1.313	1.664	2.710	4.780	11.98	19.35	19.13	7.182	1.854	1.620	0.983	1.447	1.391
290.0	125.4	130.5	119.7	104.7	96.36	91.83	110.0	118.9	225.1	419.5	314.9	258.2	637.6	 2359	 4554	 2935	227.0	13.20	8.481	6.826	6.557	5.743	5.719	4.888	4.359	4.961	4.838	3.709	4.464	4.239	4.745	3.424	3.230	2.798	2.922	2.689	2.412	2.579	1.968	2.339	1.898	1.976	1.729	1.594	2.010	1.827	1.886	1.414	1.707	1.693	0.995	1.597	1.422	1.556	1.575	1.773	1.778	1.617	1.378	1.807	2.271	2.304	2.717	2.248	1.467	1.538	2.021	2.284	4.182	6.738	11.52	15.27	16.08	12.57	6.079	2.145	1.405
295.0	120.1	167.7	165.8	155.1	137.9	151.4	216.4	268.1	346.8	504.2	759.3	602.3	499.1	796.6	 1370	 4804	 4147	247.5	12.89	8.335	6.030	8.126	5.651	5.989	5.080	4.623	5.022	4.542	4.366	4.048	3.682	3.684	3.475	3.067	2.220	2.910	2.704	2.710	2.475	1.687	1.501	2.193	1.961	1.931	2.270	1.714	1.678	1.645	1.762	1.687	1.472	1.717	1.247	2.158	1.815	1.710	1.907	1.493	1.881	2.617	2.257	2.773	2.614	3.474	3.296	2.331	2.303	2.318	2.636	3.153	4.346	4.527	6.241	14.89	23.64	16.65	5.914
300.0	152.6	120.1	201.2	165.1	208.8	240.3	364.5	444.6	631.2	719.1	953.6	 1072	720.5	608.1	546.9	 1749	 6072	 3110	122.1	11.04	7.735	7.310	5.742	5.226	5.642	4.919	3.619	4.898	4.365	3.371	3.610	3.274	2.745	3.053	3.748	3.054	2.318	1.845	1.712	2.525	1.953	1.686	1.907	1.642	2.075	1.400	1.370	1.686	1.782	1.979	1.559	1.964	1.876	2.456	1.818	1.904	2.615	2.017	2.661	2.879	2.872	3.058	3.015	3.460	3.835	3.623	3.449	2.918	2.921	2.464	3.362	2.787	2.559	5.524	11.19	21.37	23.43
305.0	142.1	157.7	204.8	193.6	244.8	309.8	462.5	629.2	834.2	970.1	 1097	 1321	 1119	683.4	435.6	551.9	 2585	 6481	 2056	43.97	10.56	7.148	6.395	6.416	4.473	5.376	4.143	4.675	3.981	2.796	3.517	3.881	2.463	2.932	3.121	3.317	2.636	2.543	1.971	2.639	2.571	2.102	1.246	2.566	2.118	1.598	2.276	2.245	1.624	1.884	1.723	1.902	1.770	2.286	1.954	2.501	2.822	3.080	2.584	3.119	3.138	3.898	3.368	3.497	3.785	4.556	4.576	4.268	2.692	3.051	2.531	2.044	1.827	2.677	3.886	7.533	16.67
310.0	129.3	157.6	208.3	201.9	278.8	390.3	566.2	793.9	986.5	 1143	 1281	 1322	 1360	958.8	510.6	327.5	684.9	 2643	 4916	 1897	149.4	10.83	7.337	6.491	4.517	5.385	5.469	4.523	3.262	4.202	3.533	4.040	3.086	2.904	2.437	3.278	2.460	2.199	2.574	2.591	2.289	1.930	1.903	1.764	2.245	1.612	2.469	1.957	1.781	1.468	1.882	1.938	1.955	2.342	2.312	2.420	3.027	3.181	3.520	3.617	4.030	4.188	4.042	4.071	4.262	4.265	4.203	4.228	4.124	4.109	2.917	2.578	2.215	1.814	1.826	2.764	5.318
315.0	134.3	170.5	211.6	235.3	338.6	477.6	645.5	891.3	 1078	 1282	 1386	 1347	 1268	 1190	720.8	330.2	266.3	645.8	 1475	 4889	 2890	179.0	10.32	7.692	6.953	5.566	4.972	4.827	4.767	4.605	3.608	4.539	2.677	3.350	2.560	2.999	2.213	2.511	2.344	2.220	2.405	1.559	2.144	1.955	1.835	1.871	1.893	1.818	1.557	1.556	1.631	1.617	2.066	2.466	2.490	2.926	2.131	3.619	3.325	4.692	3.999	4.111	4.676	4.416	4.626	4.107	5.258	4.008	3.932	4.930	3.893	3.576	2.750	1.765	2.111	1.867	2.131
320.0	120.8	167.7	211.6	292.1	359.5	526.5	673.8	930.3	 1120	 1281	 1338	 1354	 1196	 1046	891.9	412.1	202.6	227.5	385.8	 1916	 5741	 2246	84.30	8.636	5.799	5.690	5.371	5.773	4.799	4.372	3.919	4.141	2.774	3.563	2.629	3.345	2.377	2.498	2.817	2.426	2.650	1.810	2.407	2.108	2.154	1.936	1.471	1.445	1.696	1.653	1.830	1.896	2.010	2.341	2.558	3.601	3.253	3.655	3.608	4.414	4.284	5.072	4.417	4.641	4.218	4.363	4.657	4.182	3.983	4.076	3.783	3.838	3.743	2.343	2.516	2.042	2.238
325.0	159.0	171.2	240.5	356.3	480.2	615.6	753.9	990.1	 1172	 1239	 1368	 1264	 1149	949.3	859.6	602.3	241.1	146.8	154.9	493.2	 2771	 5766	 1542	30.82	7.369	6.707	5.063	5.362	5.733	5.096	3.913	5.110	4.179	3.518	2.216	2.195	2.565	2.767	2.443	2.234	2.091	2.143	2.163	2.274	1.959	1.586	1.315	1.743	1.280	1.663	1.815	2.133	2.924	2.949	2.681	2.791	3.410	3.496	4.131	4.173	4.370	4.485	4.638	4.809	4.068	4.181	4.212	4.781	4.046	3.869	3.126	3.168	4.244	3.415	2.226	2.107	2.626
330.0	171.0	216.6	362.6	546.6	722.0	928.4	 1098	 1211	 1267	 1314	 1306	 1177	 1072	904.4	713.1	620.4	444.1	211.9	141.7	187.4	701.5	 2666	 4537	 1377	109.2	7.817	6.330	4.789	5.459	4.222	4.107	4.183	3.879	3.327	2.488	2.950	2.792	2.267	2.045	2.180	1.925	2.010	2.177	2.119	2.169	1.566	1.572	2.287	1.852	2.053	2.262	2.693	3.184	3.486	3.307	3.902	4.423	3.996	4.640	4.114	5.296	4.375	4.780	4.694	4.118	4.294	4.098	4.194	3.845	3.250	2.884	3.156	3.186	3.374	2.828	2.873	2.119
335.0	143.9	278.4	546.5	832.9	 1187	 1418	 1618	 1594	 1537	 1455	 1282	 1140	 1016	859.4	695.7	534.0	534.8	419.2	215.3	162.0	245.9	651.2	 1561	 4843	 2177	137.5	7.153	5.448	6.527	4.777	4.462	3.672	4.153	3.637	3.178	2.949	3.518	1.967	2.183	2.144	2.010	2.304	2.556	2.100	1.721	1.969	1.843	2.333	2.128	2.093	2.515	3.644	3.848	4.471	4.756	5.241	5.280	6.278	5.511	5.264	5.521	4.836	4.921	4.307	4.163	4.458	3.828	3.457	3.024	3.824	3.721	2.645	3.462	3.357	2.503	2.471	3.675
340.0	166.8	274.0	654.1	 1038	 1513	 1856	 2046	 1974	 1802	 1603	 1323	 1104	975.0	842.9	704.5	538.8	484.9	543.4	345.8	197.7	163.3	222.5	409.0	 2167	 5434	 1759	71.52	7.708	6.675	5.473	5.066	3.105	3.801	2.730	3.349	3.413	3.644	2.435	1.751	1.688	2.129	2.210	2.994	2.519	2.494	2.270	1.959	2.516	2.558	2.716	3.493	4.335	4.735	5.337	5.968	6.398	6.138	7.000	5.493	5.506	6.138	4.520	5.434	3.791	4.198	4.584	3.329	3.700	2.970	3.389	3.715	3.453	3.326	2.463	3.100	2.899	3.122
345.0	190.3	365.3	816.1	 1311	 1785	 2292	 2492	 2328	 2013	 1720	 1337	 1044	936.5	836.2	728.7	572.9	483.2	510.6	504.7	274.3	181.1	157.5	165.4	565.9	 3049	 5323	 1280	26.62	7.745	5.240	5.266	4.632	4.000	2.452	3.681	3.502	2.700	2.954	3.041	1.873	2.979	2.131	2.728	2.040	2.126	2.349	2.398	2.403	3.252	2.882	3.738	5.057	5.942	6.581	6.343	7.404	7.166	6.768	7.502	6.576	5.975	5.503	5.360	4.704	4.531	4.162	3.451	3.681	3.249	2.671	3.901	3.388	2.993	2.920	2.688	2.483	3.143
350.0	203.7	383.7	865.0	 1575	 2234	 2775	 3027	 2747	 2352	 1936	 1403	 1025	916.4	838.1	751.6	640.6	553.0	493.7	518.4	462.5	272.1	188.3	152.0	209.7	799.1	 2744	 4311	 1932	96.86	8.365	4.990	3.962	3.825	3.224	2.936	3.038	3.158	3.155	3.021	2.591	2.185	2.424	2.306	2.116	2.026	2.016	2.374	2.295	2.974	2.993	4.386	6.143	6.475	7.917	8.151	8.564	8.840	7.750	8.044	7.290	6.520	5.682	5.452	4.572	4.558	3.858	3.180	3.086	3.091	3.075	3.582	3.614	2.951	2.934	2.755	2.525	2.943
355.0	201.2	421.1	967.0	 1673	 2442	 3198	 3313	 3013	 2534	 2137	 1493	 1019	911.6	831.9	767.5	687.9	619.0	557.0	494.3	514.6	442.0	270.6	198.5	174.0	272.3	676.9	 1670	 4755	 1863	110.0	7.695	5.832	5.279	3.815	3.118	2.673	3.208	3.031	1.883	2.246	2.069	2.724	1.495	2.320	1.881	1.971	2.154	2.272	2.937	3.436	4.788	6.591	7.062	8.336	8.635	9.887	10.37	9.613	8.719	7.242	6.919	6.481	5.847	5.607	5.172	3.954	3.205	3.239	3.529	3.027	2.923	3.776	3.425	3.518	3.492	3.261	3.254
360.0	240.5	465.5	 1062	 1814	 2753	 3422	 3527	 3288	 2658	 2187	 1544	 1005	924.0	850.7	812.6	753.8	660.1	612.3	542.4	511.7	531.6	394.6	251.8	207.1	185.0	241.2	449.5	 2295	 5058	 1498	55.41	6.281	5.211	5.618	3.043	2.630	2.726	3.801	2.413	2.155	1.909	2.487	1.530	2.425	1.998	2.531	2.167	2.200	3.379	4.010	4.781	7.720	7.384	8.383	8.987	10.26	10.32	9.524	8.564	8.138	6.633	7.209	5.831	5.056	4.985	4.178	3.650	4.135	3.750	3.755	3.183	4.021	3.108	3.120	4.014	3.202	3.214
365.0	226.4	443.5	 1031	 1859	 2864	 3550	 3606	 3319	 2769	 2245	 1548	998.4	908.3	857.4	840.4	777.0	701.1	660.1	586.9	520.6	516.8	517.1	350.3	248.4	193.1	172.8	181.7	614.1	 3049	 4955	 1077	17.74	5.665	4.421	4.197	2.559	3.111	2.867	1.868	2.264	2.642	1.854	1.930	2.894	2.418	2.380	2.077	2.863	3.774	3.266	5.214	7.107	8.004	9.211	9.778	9.967	10.52	10.12	9.195	8.236	7.513	7.131	5.599	5.310	4.467	3.610	4.005	3.820	3.157	2.754	3.717	3.093	3.727	3.515	3.305	3.850	3.176
370.0	224.9	440.4	 1036	 1830	 2747	 3421	 3573	 3295	 2662	 2244	 1557	 1053	932.2	892.8	873.2	818.3	768.3	728.1	655.6	581.9	528.4	537.0	497.1	335.6	256.9	202.6	161.3	223.3	809.9	 2731	 4127	 1752	76.27	6.390	4.656	3.655	3.058	3.517	2.506	2.945	2.703	2.459	2.261	2.590	2.251	2.551	2.524	2.813	3.831	3.764	5.061	7.014	7.440	9.288	9.523	9.633	9.732	10.37	8.958	7.945	7.652	6.863	5.703	5.224	4.467	3.659	3.782	4.070	2.819	3.299	3.470	3.340	3.671	3.549	3.441	3.520	4.100
375.0	212.4	420.4	 1015	 1783	 2577	 3197	 3477	 3085	 2635	 2129	 1594	 1090	956.1	933.8	902.4	839.6	835.7	768.4	724.0	657.3	597.7	547.8	543.8	511.0	345.4	266.7	203.1	180.1	269.2	671.5	 1678	 4651	 1537	92.74	5.895	4.582	2.939	3.518	2.971	2.512	3.100	2.500	1.876	2.625	2.863	2.535	2.421	2.978	3.796	3.454	4.567	6.013	7.269	9.055	9.215	9.927	9.866	9.900	8.758	7.887	6.755	7.470	5.578	5.806	4.555	3.770	4.158	4.579	3.304	3.006	3.945	3.879	3.266	2.759	3.779	3.178	3.814
380.0	218.6	439.4	914.1	 1669	 2379	 3084	 3188	 3013	 2518	 2108	 1524	 1084	985.2	950.6	915.0	872.3	850.2	791.1	757.5	690.1	636.4	588.8	544.8	568.2	462.9	322.1	248.9	200.4	172.0	230.1	441.2	 2351	 4704	 1232	41.60	6.076	3.971	4.095	3.422	2.907	2.097	2.525	2.503	2.152	2.342	2.386	2.432	3.257	3.502	3.524	4.103	5.978	6.480	8.702	8.415	10.12	9.793	9.272	8.355	7.607	5.673	5.796	5.881	5.391	4.544	4.090	3.480	3.849	3.422	3.912	4.474	4.137	3.725	3.771	4.216	3.381	4.291
385.0	245.6	421.6	828.8	 1566	 2322	 2863	 3035	 2914	 2414	 2000	 1473	 1073	981.6	943.4	933.0	905.3	873.3	825.3	791.5	729.3	686.2	621.3	571.6	566.1	563.6	406.2	303.3	235.2	186.7	151.0	167.5	624.9	 2981	 4372	849.5	15.87	4.339	4.633	3.421	3.109	3.002	3.316	2.721	2.059	2.134	2.576	2.495	2.932	3.037	3.924	4.129	6.630	6.719	7.586	8.031	8.538	9.011	8.580	7.342	7.194	6.227	6.035	5.675	5.244	3.977	3.873	3.833	3.800	3.294	3.777	3.676	3.653	3.037	3.267	4.117	4.159	3.875
390.0	203.6	399.2	828.8	 1396	 2060	 2525	 2700	 2569	 2170	 1874	 1382	 1058	999.9	959.2	944.3	920.7	874.3	840.7	803.6	761.6	720.8	662.3	621.0	572.8	564.9	535.6	396.6	291.9	233.2	175.0	139.9	209.2	788.1	 2450	 3470	 1424	62.93	5.991	3.627	3.445	3.030	3.105	2.500	2.228	2.185	2.365	2.266	2.960	3.605	3.470	4.000	6.020	6.424	6.897	7.540	8.340	8.171	7.434	7.363	6.697	5.981	5.538	5.288	5.168	4.363	3.621	3.961	3.732	3.504	3.427	3.280	3.735	3.572	3.686	3.786	4.265	3.968
395.0	203.7	345.1	725.4	 1243	 1816	 2243	 2472	 2304	 1945	 1694	 1339	 1043	976.1	960.4	942.4	896.3	866.1	852.3	823.8	783.5	751.7	706.1	666.7	619.1	576.8	564.4	523.5	382.8	293.1	230.1	168.4	148.2	244.0	596.1	 1455	 3776	 1216	74.39	5.568	4.251	3.355	3.339	2.869	2.091	2.216	2.320	2.111	2.749	3.309	3.193	3.634	5.440	5.332	6.858	6.138	6.932	7.148	6.908	7.118	6.129	5.562	5.274	5.023	4.626	3.630	4.006	3.961	3.479	3.667	3.546	3.643	3.577	3.971	3.428	3.910	4.433	4.632
400.0	210.3	322.1	672.0	 1207	 1616	 2047	 2185	 2077	 1834	 1575	 1269	 1044	968.1	961.3	935.1	895.3	868.6	847.8	823.2	797.0	775.0	738.9	691.0	649.0	594.3	566.2	554.4	470.5	343.6	262.3	199.9	147.3	135.9	191.9	375.6	 1907	 3715	 1009	35.89	4.707	3.183	3.083	2.804	1.699	2.296	2.950	1.903	2.207	3.145	2.609	3.553	5.093	5.796	6.409	6.526	6.414	7.574	6.417	6.455	5.367	5.092	5.674	4.742	4.063	3.637	4.013	3.837	4.088	3.525	3.569	3.942	3.649	4.096	3.738	3.945	4.553	3.226
405.0	166.0	354.2	654.6	 1016	 1487	 1838	 2004	 1907	 1663	 1500	 1235	 1031	945.1	938.1	909.7	886.0	870.0	847.7	823.8	804.1	788.0	740.9	700.7	657.7	621.4	571.7	539.2	532.7	417.4	305.3	236.0	173.7	132.8	113.4	135.1	499.1	 2289	 3447	713.7	14.17	5.058	3.841	3.674	1.715	2.093	2.592	2.266	2.275	2.915	2.743	3.322	4.723	4.784	5.652	5.521	5.250	7.057	6.206	6.328	5.000	5.214	4.490	5.536	4.177	3.884	3.862	3.461	3.838	3.983	3.614	4.263	3.583	4.049	3.865	4.687	4.197	4.111
410.0	161.6	293.9	573.0	862.1	 1270	 1596	 1755	 1669	 1530	 1368	 1162	 1001	923.7	939.4	904.0	869.2	843.2	826.6	799.6	791.0	774.3	746.0	712.7	682.1	639.0	589.4	550.1	519.7	488.7	385.2	278.8	214.9	162.4	120.2	96.04	156.1	596.1	 1883	 2701	 1165	54.87	4.435	3.668	2.864	2.332	2.689	2.483	2.741	2.884	2.730	2.998	3.762	4.717	5.488	5.242	5.197	5.797	5.710	4.977	5.160	4.802	4.623	5.379	3.699	3.481	3.789	3.642	3.356	3.832	3.966	3.845	3.665	3.898	3.820	3.293	3.946	4.175
