Sample:	'1
File name:	t2025063008x037ÏØµÀÇÅ 2±¶.FD3
Run date:	'10:21:57, 07/01/2025
Operator:	Administrator
Comment:	'

Instrument
Model:	F-2700 FL Spectrophotometer
Serial number:	23B8-004
ROM Version:	4J14000 07

Instrument parameters
Measurement type:	3-D scan
Data mode:	Fluorescence
EX  Start WL:	220.0 nm
EX  End WL:	600.0 nm
EX Sampling interval:	5.0 nm
EM  Start WL:	230.0 nm
EM  End WL:	650.0 nm
EM Sampling interval:	5.0 nm
Scan speed:	12000 nm/min
EX Slit:	5.0 nm
EM Slit:	5.0 nm
PMT Voltage:	700 V
Response:	Auto 
Corrected spectra:	Off
Contour interval:	50.000

Peak integration
Integration method:	Rectangular
Sensitivity:	1
Threshold:	1.000

Peaks
No.	ApexEX/EM(nm)	Height(Data)
1	225.0/305.0	703.7
2	225.0/490.0	370.0
3	225.0/550.0	87.97
4	225.0/570.0	82.24
5	225.0/585.0	81.36
6	225.0/620.0	51.05
7	230.0/345.0	4678
8	230.0/500.0	349.0
9	235.0/510.0	287.2
10	240.0/265.0	404.3
11	240.0/525.0	247.4
12	245.0/270.0	389.2
13	245.0/535.0	202.3
14	250.0/275.0	483.2
15	250.0/550.0	161.8
16	255.0/280.0	601.0
17	255.0/560.0	142.8
18	260.0/285.0	593.3
19	260.0/575.0	117.3
20	265.0/290.0	622.5
21	265.0/585.0	106.4
22	270.0/300.0	906.9
23	270.0/595.0	92.06
24	275.0/305.0	1030
25	275.0/610.0	78.17
26	280.0/310.0	923.7
27	280.0/345.0	1442
28	280.0/625.0	66.77
29	285.0/320.0	897.4
30	285.0/635.0	52.93
31	325.0/370.0	387.3
32	330.0/375.0	352.3
33	335.0/380.0	340.4
34	340.0/390.0	303.8
35	345.0/395.0	285.1
36	350.0/400.0	273.9
37	360.0/415.0	219.1
38	365.0/420.0	211.5
39	415.0/485.0	41.49
40	430.0/505.0	26.40
41	445.0/525.0	16.48
42	455.0/540.0	10.84
43	460.0/345.0	14.10
44	460.0/545.0	9.088
45	485.0/265.0	2.312
46	495.0/270.0	2.291
47	505.0/275.0	3.494
48	515.0/280.0	3.734
49	520.0/285.0	4.372
50	530.0/290.0	3.990
51	540.0/295.0	5.739
52	545.0/300.0	5.709
53	550.0/305.0	5.712
54	560.0/310.0	5.289
55	565.0/345.0	7.566
56	570.0/315.0	5.613
57	570.0/340.0	7.317

Data points
	220.0	225.0	230.0	235.0	240.0	245.0	250.0	255.0	260.0	265.0	270.0	275.0	280.0	285.0	290.0	295.0	300.0	305.0	310.0	315.0	320.0	325.0	330.0	335.0	340.0	345.0	350.0	355.0	360.0	365.0	370.0	375.0	380.0	385.0	390.0	395.0	400.0	405.0	410.0	415.0	420.0	425.0	430.0	435.0	440.0	445.0	450.0	455.0	460.0	465.0	470.0	475.0	480.0	485.0	490.0	495.0	500.0	505.0	510.0	515.0	520.0	525.0	530.0	535.0	540.0	545.0	550.0	555.0	560.0	565.0	570.0	575.0	580.0	585.0	590.0	595.0	600.0
230.0	71.10	1246	2286	667.9	28.25	6.763	5.419	4.527	3.249	3.376	3.002	3.128	2.404	2.175	1.955	1.626	1.509	1.389	1.108	1.081	0.877	0.822	0.877	0.833	0.717	0.674	0.539	0.563	0.604	0.534	0.546	0.551	0.462	0.411	0.404	0.434	0.416	0.444	0.387	0.378	0.493	0.678	0.595	0.477	0.341	0.373	1.470	6.048	8.195	5.528	1.940	0.471	0.258	0.288	0.263	0.244	0.240	0.262	0.256	0.254	0.241	0.235	0.258	0.242	0.244	0.239	0.242	0.237	0.286	0.282	0.235	0.226	0.246	0.259	0.246	0.255	0.285
235.0	145.2	369.4	1423	2383	514.9	51.97	6.561	4.396	4.164	3.699	3.835	2.724	2.681	2.147	2.215	1.832	1.692	1.442	1.223	1.052	0.862	0.941	0.777	0.807	0.575	0.701	0.594	0.591	0.563	0.598	0.536	0.558	0.395	0.482	0.411	0.403	0.471	0.510	0.366	0.393	0.364	0.437	0.572	0.673	0.597	0.417	0.543	1.724	3.371	5.912	8.134	8.229	3.797	0.872	0.313	0.240	0.235	0.271	0.278	0.244	0.222	0.254	0.273	0.250	0.243	0.285	0.248	0.222	0.230	0.260	0.282	0.320	0.262	0.228	0.235	0.229	0.261
240.0	203.4	191.2	436.7	2039	2497	410.0	23.91	5.951	5.081	3.887	4.099	3.359	2.645	2.637	2.324	1.992	1.493	1.315	1.163	1.237	1.007	0.827	0.690	0.805	0.628	0.768	0.610	0.682	0.594	0.620	0.577	0.535	0.416	0.505	0.462	0.378	0.432	0.490	0.486	0.465	0.377	0.334	0.414	0.621	0.718	0.873	0.550	0.707	1.028	1.875	4.498	10.68	14.11	9.017	3.266	0.549	0.270	0.261	0.278	0.260	0.328	0.272	0.223	0.223	0.234	0.278	0.244	0.244	0.209	0.269	0.257	0.252	0.247	0.240	0.264	0.278	0.225
245.0	163.2	250.8	171.9	699.4	2737	2709	299.0	12.74	6.008	4.976	3.714	3.785	3.013	2.588	2.077	1.808	1.806	1.716	1.244	1.179	0.954	0.929	0.949	0.744	0.845	0.812	0.734	0.587	0.607	0.640	0.635	0.618	0.460	0.542	0.393	0.365	0.383	0.389	0.411	0.447	0.380	0.321	0.414	0.468	0.492	0.780	1.013	0.887	0.598	0.650	1.258	3.705	9.863	16.12	16.36	7.556	1.887	0.372	0.268	0.307	0.285	0.279	0.218	0.222	0.236	0.282	0.262	0.267	0.219	0.219	0.289	0.271	0.214	0.243	0.293	0.247	0.264
250.0	66.90	186.9	275.9	258.7	875.5	2661	3401	1110	70.73	6.116	5.014	4.170	3.374	2.857	2.560	1.851	1.749	1.699	1.251	1.330	1.043	0.924	0.865	0.872	0.821	0.791	0.696	0.653	0.621	0.600	0.557	0.594	0.479	0.497	0.403	0.400	0.406	0.384	0.403	0.438	0.451	0.349	0.382	0.382	0.389	0.493	0.618	0.952	1.184	0.940	0.808	1.162	2.562	5.325	10.31	14.02	17.91	16.16	9.288	2.111	0.447	0.253	0.244	0.303	0.275	0.280	0.268	0.321	0.254	0.251	0.266	0.292	0.327	0.270	0.288	0.251	0.283
255.0	39.57	68.67	201.5	346.3	298.3	674.6	2626	5203	1567	83.69	7.417	5.180	4.874	3.635	3.072	2.099	2.051	1.773	1.362	1.258	0.941	0.881	0.896	0.872	0.782	0.790	0.714	0.715	0.642	0.636	0.513	0.560	0.503	0.522	0.518	0.428	0.439	0.416	0.365	0.324	0.444	0.396	0.381	0.377	0.328	0.375	0.387	0.416	0.691	0.956	1.585	1.540	1.089	1.516	2.666	3.597	6.784	16.37	30.72	25.19	12.74	2.190	0.414	0.315	0.317	0.303	0.265	0.258	0.292	0.276	0.327	0.310	0.280	0.235	0.277	0.283	0.287
260.0	32.53	42.61	81.42	301.6	349.0	210.5	782.5	4029	5888	1262	36.91	7.514	5.300	4.047	3.534	2.406	2.107	1.536	1.597	1.470	1.096	0.948	1.061	0.823	0.725	0.771	0.737	0.810	0.670	0.667	0.637	0.623	0.534	0.514	0.451	0.470	0.394	0.433	0.386	0.354	0.429	0.370	0.409	0.428	0.336	0.430	0.312	0.351	0.439	0.450	1.036	2.106	1.993	1.257	0.991	1.108	1.910	4.586	13.22	26.19	36.63	24.26	9.651	1.254	0.304	0.290	0.270	0.284	0.285	0.341	0.304	0.284	0.277	0.261	0.290	0.312	0.282
265.0	29.93	39.32	37.34	139.9	404.3	250.2	211.4	1287	5715	6659	215.8	16.98	7.164	5.329	4.345	2.885	2.513	2.003	1.664	1.519	1.060	1.147	0.928	1.057	0.957	0.790	0.885	0.755	0.694	0.677	0.653	0.657	0.509	0.602	0.460	0.409	0.418	0.414	0.436	0.468	0.395	0.349	0.414	0.398	0.383	0.371	0.343	0.411	0.352	0.300	0.505	1.057	2.002	2.312	1.619	0.780	0.754	1.376	3.428	8.087	20.17	35.97	32.82	20.76	5.501	0.554	0.365	0.318	0.327	0.354	0.296	0.263	0.268	0.344	0.258	0.268	0.279
270.0	64.20	72.51	54.94	59.74	187.1	389.2	289.0	345.5	1722	5656	6834	2322	59.55	7.177	5.496	3.731	3.177	2.194	1.854	1.664	1.167	1.235	1.002	1.118	0.942	0.777	0.865	0.820	0.786	0.756	0.678	0.625	0.689	0.689	0.612	0.543	0.505	0.462	0.455	0.462	0.476	0.451	0.472	0.525	0.419	0.500	0.444	0.452	0.396	0.359	0.366	0.506	0.827	1.281	2.007	2.291	1.973	1.261	1.234	2.149	5.056	10.56	18.00	30.61	32.69	32.11	15.22	5.376	0.694	0.322	0.326	0.299	0.344	0.313	0.278	0.317	0.317
275.0	166.8	196.2	141.0	74.01	73.14	174.9	483.2	343.6	442.6	1371	3897	9794	1245	66.91	9.594	5.113	4.292	3.001	2.423	1.794	1.433	1.350	1.394	1.139	1.127	0.854	0.971	0.846	0.833	0.695	0.772	0.764	0.728	0.692	0.761	0.815	0.753	0.616	0.667	0.477	0.545	0.573	0.545	0.618	0.672	0.765	0.660	0.836	0.717	0.585	0.430	0.441	0.583	0.594	0.830	1.122	2.446	3.494	2.683	1.415	1.639	2.769	4.476	7.398	10.00	21.85	48.05	54.29	23.81	6.084	0.656	0.365	0.392	0.276	0.302	0.335	0.355
280.0	303.8	348.8	239.7	124.1	62.28	80.51	289.5	601.0	290.9	383.7	1073	5883	9623	926.1	39.69	6.950	5.016	3.717	2.629	1.995	1.665	1.557	1.363	1.242	1.155	1.014	0.939	0.968	0.915	0.772	0.712	0.732	0.901	0.882	1.053	0.910	0.907	0.734	0.773	0.735	0.702	0.717	0.891	0.845	0.922	1.042	0.995	1.169	0.965	0.775	0.620	0.520	0.475	0.478	0.541	0.631	1.124	2.160	3.594	3.734	1.908	1.308	1.664	2.257	2.822	5.832	15.98	36.27	56.24	33.42	19.43	3.198	0.448	0.346	0.402	0.374	0.338
285.0	423.7	470.3	337.3	177.3	79.67	66.99	131.2	477.9	593.3	241.7	349.3	1660	7564	8012	678.4	15.21	6.864	4.540	3.020	2.506	1.879	1.681	1.335	1.260	1.100	1.163	0.937	1.094	0.901	0.751	0.845	0.826	0.916	0.996	1.213	1.253	0.990	0.986	0.815	0.803	0.827	0.820	0.946	1.002	1.343	1.501	1.259	1.601	1.455	1.014	0.818	0.714	0.520	0.471	0.552	0.523	0.667	1.012	1.957	3.541	4.372	2.905	1.473	1.288	1.421	2.122	4.309	9.534	21.59	40.21	62.72	31.02	13.44	1.564	0.481	0.464	0.327
290.0	523.8	593.4	463.4	251.3	126.0	90.61	105.0	221.1	543.1	622.5	334.6	525.8	2095	5753	8188	2233	39.87	6.481	3.930	3.307	2.457	2.015	1.603	1.627	1.277	1.249	1.119	1.101	0.909	0.923	0.850	0.847	0.970	1.175	1.308	1.336	1.206	1.166	1.046	1.015	0.990	1.000	1.102	1.318	1.424	1.641	1.700	1.843	1.697	1.317	0.993	0.927	0.757	0.670	0.617	0.658	0.714	0.774	1.071	1.603	2.635	3.786	3.990	3.421	2.044	1.591	1.934	3.089	5.766	10.66	22.62	31.23	41.96	40.55	36.13	11.49	2.137
295.0	585.8	655.1	537.2	326.6	185.4	142.3	143.5	177.6	289.3	609.9	804.1	400.4	653.3	1423	3914	9468	3087	43.98	5.751	4.394	2.871	2.409	2.147	1.951	1.342	1.226	1.195	1.143	0.995	0.925	0.843	0.875	0.839	1.220	1.554	1.361	1.386	1.172	1.228	1.160	1.239	1.169	1.240	1.457	1.637	1.877	1.807	2.060	1.832	1.504	1.154	1.205	1.035	0.910	0.819	0.947	0.964	0.962	1.069	1.301	1.588	1.898	2.435	4.137	5.739	3.994	2.210	2.132	2.644	3.363	6.083	7.919	10.66	17.50	45.48	75.65	33.67
300.0	603.4	698.8	564.9	373.2	242.6	190.4	183.9	200.7	255.7	413.8	906.9	696.9	402.2	477.7	1046	5406	9999.9	603.5	20.82	6.023	3.549	3.071	2.589	2.164	1.570	1.256	1.383	1.114	1.172	0.952	0.966	0.806	0.905	1.319	1.514	1.618	1.333	1.400	1.418	1.253	1.237	1.307	1.243	1.411	1.675	1.770	1.877	2.095	2.044	1.725	1.309	1.357	1.164	1.124	1.126	1.156	1.101	1.114	1.254	1.496	1.367	1.616	1.825	2.712	4.186	5.709	4.844	2.881	2.187	2.106	2.669	2.828	3.245	4.737	12.78	33.75	50.81
305.0	599.0	703.7	592.2	409.9	291.5	243.5	233.9	253.6	291.6	373.6	657.8	1030	545.1	325.8	370.9	1480	7555	5340	81.00	10.67	4.812	3.542	2.707	2.308	1.816	1.514	1.466	1.351	1.168	1.125	1.008	0.847	0.987	1.380	1.426	1.529	1.542	1.560	1.583	1.255	1.172	1.242	1.330	1.495	1.515	2.033	1.978	2.042	2.045	1.684	1.448	1.559	1.424	1.253	1.447	1.267	1.305	1.401	1.416	1.778	1.663	1.773	1.847	2.222	2.890	4.065	5.712	5.663	3.990	2.435	2.114	1.957	1.864	2.062	3.721	8.602	15.72
310.0	584.6	671.9	605.6	450.5	343.6	310.1	300.7	311.3	341.1	407.8	542.6	804.4	923.7	525.3	290.5	446.2	2035	4806	5366	1628	25.87	4.990	3.539	2.963	2.380	1.777	1.539	1.505	1.193	1.272	1.118	0.918	1.039	1.306	1.496	1.579	1.617	1.449	1.502	1.329	1.303	1.329	1.309	1.484	1.628	2.015	1.971	2.195	2.172	1.820	1.556	1.658	1.611	1.572	1.636	1.477	1.537	1.634	1.601	1.795	1.888	2.023	2.213	2.358	2.703	3.054	3.593	4.356	5.289	4.822	3.887	2.635	1.867	1.725	1.878	2.797	4.423
315.0	629.9	708.5	655.1	494.8	398.5	364.3	364.2	364.9	385.3	452.4	545.5	652.3	792.3	896.3	435.4	263.8	557.5	1157	2834	7295	522.4	28.54	5.432	4.056	2.785	2.126	1.795	1.675	1.277	1.372	1.083	1.105	1.179	1.238	1.440	1.451	1.585	1.455	1.378	1.375	1.301	1.387	1.396	1.717	1.767	2.026	2.010	2.328	2.338	1.950	1.569	1.754	1.874	1.800	1.863	1.722	1.707	1.783	1.901	1.849	1.967	2.183	2.471	2.656	2.653	2.849	3.173	3.535	3.838	3.826	5.613	4.960	3.481	2.226	1.671	1.778	2.096
320.0	847.5	1012	928.0	683.4	489.6	426.5	412.3	413.9	438.3	519.3	611.7	691.5	747.3	897.4	743.6	313.1	269.9	352.9	749.8	4345	5834	441.7	15.18	5.813	3.256	2.529	2.008	1.794	1.393	1.402	1.240	1.024	1.096	1.199	1.448	1.501	1.717	1.487	1.331	1.220	1.390	1.646	1.565	2.121	2.248	2.400	3.056	3.253	3.141	2.739	2.125	2.389	2.366	2.129	2.016	1.936	1.960	1.965	2.213	2.068	2.186	2.445	2.684	2.908	2.952	3.148	3.566	3.521	4.042	3.584	4.363	4.901	5.500	4.450	2.669	2.065	1.901
325.0	1321	1668	1804	1301	673.8	546.1	476.4	511.9	552.5	645.7	769.6	871.3	899.8	893.1	956.0	581.4	287.3	226.4	264.5	1206	4857	3896	62.60	9.968	4.114	3.315	2.165	2.170	1.832	1.571	1.394	1.068	1.134	1.222	1.486	1.414	1.595	1.671	1.437	1.496	1.721	1.801	2.118	2.521	3.208	3.961	4.588	5.713	5.628	5.032	4.176	4.343	3.604	2.743	2.526	2.319	2.444	2.374	2.702	2.616	2.746	3.124	3.238	3.590	3.829	4.091	4.376	4.546	4.793	4.246	4.491	4.519	5.316	5.764	5.084	3.575	2.418
330.0	1992	2893	3176	2460	1397	834.4	660.3	658.2	711.6	830.8	1003	1126	1171	1093	1003	902.3	565.1	307.3	234.3	395.1	1382	3681	4542	1320	20.30	4.731	3.160	2.453	1.816	1.715	1.575	1.342	1.242	1.269	1.537	1.562	1.731	1.790	1.700	1.763	2.064	2.324	2.966	3.415	4.582	6.094	7.222	9.192	9.570	8.688	7.754	7.567	6.237	4.616	3.702	3.061	3.185	3.097	3.189	3.234	3.441	3.751	3.833	4.421	4.892	5.067	5.735	5.503	5.881	5.760	5.868	5.599	5.766	5.770	5.996	5.909	5.369
335.0	2460	3568	4036	3258	1928	1092	792.2	758.4	811.1	958.4	1142	1279	1344	1262	1081	906.2	821.8	497.9	292.8	259.6	439.2	948.2	2761	6675	427.5	22.59	4.539	3.557	2.308	2.165	1.741	1.422	1.323	1.523	1.656	1.405	1.768	1.781	1.652	1.918	2.345	2.563	3.336	3.978	5.299	7.723	8.767	11.06	12.06	11.17	10.12	10.27	8.481	5.865	4.924	3.702	3.693	3.503	3.770	3.691	3.843	4.381	4.561	4.852	5.654	5.667	6.295	6.133	6.804	6.803	6.592	6.747	6.279	6.191	5.945	5.621	5.972
340.0	2723	3943	4467	3671	2198	1225	863.6	816.2	860.3	1021	1213	1354	1429	1336	1152	916.6	793.7	680.9	374.9	253.1	250.8	337.4	756.9	4392	5136	366.4	11.11	4.428	3.024	2.385	1.941	1.716	1.415	1.478	1.531	1.525	2.055	1.986	1.722	1.942	2.394	2.784	3.525	4.535	5.701	8.132	9.698	12.13	13.34	12.58	11.40	11.51	9.048	6.752	5.391	4.225	3.880	3.897	3.645	4.126	4.347	4.473	5.158	5.474	6.090	6.471	6.735	6.873	7.104	7.300	7.317	6.995	6.822	6.815	6.300	5.810	5.486
345.0	2770	4130	4678	3856	2326	1299	916.0	836.2	892.6	1050	1230	1373	1442	1362	1175	938.0	735.7	697.8	506.0	285.0	223.7	216.8	253.4	1234	4701	3267	52.70	6.477	3.679	2.813	2.209	1.659	1.426	1.671	1.573	1.543	1.885	1.965	1.672	1.946	2.390	2.905	3.645	4.399	6.160	8.055	9.728	12.51	14.10	12.69	11.78	11.92	9.640	7.183	5.859	4.175	4.361	3.911	3.999	4.297	4.171	4.777	4.950	5.562	6.294	5.882	6.676	6.999	7.190	7.566	7.252	7.261	7.059	6.765	6.610	6.087	5.447
350.0	2599	3847	4394	3742	2326	1351	944.4	863.4	909.0	1034	1189	1319	1367	1308	1135	928.3	704.6	583.9	556.8	409.0	249.9	208.3	159.9	334.4	1334	3256	3553	1034	16.65	3.803	2.614	2.064	1.767	1.685	1.591	1.592	1.684	1.769	1.719	1.965	2.293	2.600	3.313	4.206	5.624	7.429	9.232	11.56	12.81	11.96	11.19	11.72	9.870	7.482	5.778	4.590	4.450	4.109	4.238	4.273	4.352	4.571	5.078	5.491	6.039	5.857	6.186	6.546	6.626	6.992	7.030	6.917	6.774	6.532	6.495	6.185	5.472
355.0	2316	3460	3912	3398	2235	1346	970.6	879.2	928.3	1016	1135	1226	1264	1205	1084	885.8	689.5	540.8	467.0	484.0	351.4	230.0	159.1	151.7	346.1	782.8	2361	5167	383.4	17.52	3.887	2.658	2.118	1.667	1.654	1.471	1.741	1.815	1.653	1.850	2.113	2.488	3.025	3.862	5.063	6.966	8.397	10.55	11.44	10.76	10.31	11.02	9.277	7.150	5.657	4.781	4.648	4.380	4.692	4.501	4.219	4.705	5.061	5.268	5.393	5.766	5.852	6.037	6.329	6.607	6.281	6.437	6.629	6.166	6.128	5.687	5.288
360.0	2079	3091	3530	3098	2132	1327	991.3	909.8	938.2	1018	1109	1170	1195	1145	1033	854.5	675.2	529.9	438.6	424.8	435.5	279.1	174.4	126.4	140.3	217.5	636.9	3792	3225	321.3	7.866	3.091	2.618	1.871	1.878	1.628	1.680	1.638	1.660	1.866	2.011	2.306	2.948	3.555	4.550	6.407	7.662	9.494	10.38	9.509	9.341	10.20	8.834	7.310	5.859	5.099	4.670	4.343	4.500	4.311	4.534	4.619	5.013	5.499	5.407	5.740	5.838	5.928	6.152	6.092	6.582	6.262	5.898	5.893	5.765	5.632	5.253
365.0	1868	2795	3196	2811	1987	1295	984.9	916.8	932.9	999.0	1070	1114	1118	1070	958.9	821.0	661.3	529.1	432.3	380.4	422.3	369.7	205.0	135.3	107.3	100.2	182.0	1117	4083	3027	47.10	5.176	3.250	2.252	1.971	1.829	1.783	1.634	1.699	1.653	1.874	2.063	2.700	3.422	4.391	5.702	6.334	8.619	9.464	8.537	8.344	9.371	7.981	6.430	5.794	4.721	4.721	4.373	4.407	4.350	4.778	4.712	5.045	5.157	5.538	5.274	5.564	5.816	5.590	5.843	5.996	5.909	5.829	5.927	5.413	5.037	4.886
370.0	1652	2347	2715	2449	1797	1237	980.5	917.2	920.4	964.2	1025	1049	1028	977.6	882.2	761.4	634.2	519.6	433.8	373.3	358.5	387.3	306.3	178.6	124.9	98.25	95.41	288.2	1211	3466	3493	860.0	14.90	3.197	2.433	1.939	1.801	1.614	1.734	1.589	1.749	2.026	2.361	2.897	3.881	4.822	5.640	7.142	7.954	7.483	7.197	8.214	7.375	6.411	5.377	4.548	4.530	4.418	4.423	4.423	4.702	4.709	4.938	5.136	5.091	5.045	5.191	5.403	5.417	5.516	5.653	5.478	5.482	5.758	5.169	4.971	4.583
375.0	1412	1992	2316	2120	1606	1195	965.9	913.7	915.2	940.5	978.6	985.4	953.8	894.8	810.5	710.0	608.2	507.3	438.2	379.3	342.3	334.0	352.3	275.1	163.4	123.4	96.41	118.1	307.4	832.1	2560	4103	336.0	14.43	3.270	2.293	2.062	1.739	1.810	1.512	1.738	1.996	2.161	2.728	3.295	4.109	4.945	5.969	6.594	6.518	6.021	7.273	6.572	5.588	5.483	4.483	4.553	4.483	4.288	4.307	4.415	4.629	4.749	4.874	4.941	5.052	5.045	5.040	5.080	5.044	5.050	5.013	5.048	5.155	4.723	4.622	4.481
380.0	1280	1720	2001	1894	1500	1157	965.9	892.3	893.1	928.8	937.8	943.3	909.9	843.2	759.0	670.2	580.9	498.4	441.2	387.8	349.9	325.7	322.0	340.4	225.1	149.6	114.3	94.09	116.6	220.3	693.4	3001	2821	261.9	6.831	2.839	2.460	1.843	1.805	1.579	1.738	1.978	2.066	2.558	3.140	3.805	4.127	5.390	5.909	5.671	5.453	6.463	5.956	5.297	5.278	4.361	4.521	4.368	4.281	4.472	4.293	4.491	4.789	4.601	4.728	4.625	4.822	4.657	4.696	4.864	4.710	4.818	4.702	4.716	4.711	4.353	4.431
385.0	1128	1556	1782	1737	1399	1115	948.6	872.0	866.5	896.4	901.3	891.4	857.1	789.3	720.4	638.3	558.3	486.1	436.2	391.4	355.6	329.6	304.2	324.5	296.3	183.9	132.9	102.7	85.49	91.24	185.4	883.2	3703	2455	38.63	4.478	2.741	2.052	1.801	1.640	1.669	1.889	1.919	2.371	2.924	3.566	3.753	4.963	5.440	5.112	4.999	5.827	5.730	5.236	4.650	4.122	4.316	4.405	4.371	4.148	4.129	4.680	4.609	4.551	4.721	4.685	4.604	4.620	4.604	4.737	4.369	4.502	4.659	4.580	4.361	4.323	4.060
390.0	1008	1391	1567	1520	1261	1043	906.6	846.6	836.1	849.0	851.8	831.7	799.8	733.9	671.2	597.0	530.0	473.7	428.2	389.7	362.9	335.6	304.0	289.3	303.8	262.9	170.8	122.8	94.74	78.48	81.62	224.6	1098	2648	2471	692.2	12.48	2.679	2.004	1.790	1.639	1.901	2.001	2.160	2.526	3.260	3.595	4.174	4.816	4.683	4.432	5.283	5.079	4.761	4.543	3.981	4.217	4.127	4.274	4.240	4.130	4.190	4.296	4.402	4.236	4.340	4.348	4.351	4.321	4.297	4.111	4.240	4.135	4.240	4.035	3.981	3.929
395.0	937.0	1213	1359	1339	1157	970.4	872.8	823.5	798.7	799.4	803.3	783.5	750.0	687.3	629.3	562.2	504.8	463.6	422.6	386.4	364.0	344.6	314.0	281.8	271.0	285.1	241.3	154.4	113.2	90.17	70.56	86.77	269.4	634.1	1723	3404	279.4	13.02	2.599	2.057	1.935	2.130	1.857	2.110	2.214	2.766	3.294	3.776	4.032	4.169	3.975	4.846	4.418	4.283	4.223	3.918	4.151	4.168	4.058	4.030	3.830	3.996	4.121	4.267	4.235	4.306	4.019	4.109	3.924	4.053	3.857	4.034	3.695	3.974	3.559	3.727	3.999
400.0	866.7	1126	1249	1238	1080	933.6	846.9	801.3	772.5	761.5	770.9	748.0	713.1	657.7	593.0	532.9	489.3	445.0	411.3	381.0	360.1	341.2	316.0	289.5	265.7	262.4	273.9	196.5	129.1	100.5	76.46	62.72	90.10	162.5	463.4	2487	3176	230.1	6.324	2.415	2.092	2.081	1.942	2.002	2.260	2.923	3.000	3.599	3.690	3.780	3.640	4.216	4.456	3.909	3.962	4.037	4.022	3.786	3.722	3.737	3.921	3.872	3.788	4.044	4.504	4.011	3.637	3.895	3.783	3.508	4.014	3.569	3.853	3.639	3.404	3.630	3.788
405.0	831.1	1070	1166	1142	1032	912.3	817.6	769.4	747.6	739.5	741.2	715.0	673.3	624.4	562.6	513.0	465.4	432.4	403.2	374.3	358.2	339.4	317.0	292.8	265.6	246.0	259.1	241.0	160.4	115.3	86.86	65.24	56.61	62.00	121.9	719.5	3045	2037	34.72	3.653	2.045	2.101	1.921	2.150	2.157	2.617	2.755	3.354	3.562	3.402	3.467	3.841	4.235	3.653	3.832	3.666	3.986	3.943	3.716	3.759	3.628	3.850	3.721	3.607	3.900	3.759	3.798	3.653	3.477	3.770	3.618	3.585	3.754	3.416	3.362	3.233	3.630
410.0	742.4	969.8	1076	1052	954.7	854.9	782.5	738.1	719.7	704.1	700.6	673.2	634.4	591.2	534.3	481.9	442.9	410.2	384.9	361.6	344.6	332.4	313.3	293.5	269.0	245.5	233.3	239.3	213.2	143.4	102.6	76.52	58.33	46.53	50.28	177.3	864.2	1871	1986	504.0	10.49	2.441	2.128	2.215	2.000	2.570	2.573	3.067	3.304	3.054	3.351	3.777	3.869	3.681	3.744	3.546	3.661	3.789	3.722	3.583	3.536	3.631	3.709	3.553	3.768	3.430	3.419	3.352	3.430	3.538	3.267	3.650	3.506	3.255	3.198	3.214	3.459
