Sample:	'1
File name:	Default_20230214_150948.FD3
Run date:	'15:03:27, 02/14/2023
Operator:	dsjg
Comment:	'

Instrument
Model:	F-2700 FL Spectrophotometer
Serial number:	2198-001
ROM Version:	4J14000 07

Instrument parameters
Measurement type:	3-D scan
Data mode:	Fluorescence
EX  Start WL:	220.0 nm
EX  End WL:	600.0 nm
EX Sampling interval:	5.0 nm
EM  Start WL:	230.0 nm
EM  End WL:	650.0 nm
EM Sampling interval:	5.0 nm
Scan speed:	12000 nm/min
EX Slit:	5.0 nm
EM Slit:	5.0 nm
PMT Voltage:	700 V
Response:	Auto 
Corrected spectra:	Off
Contour interval:	50.000

Peak integration
Integration method:	Rectangular
Sensitivity:	1
Threshold:	1.000

Peaks
No.	ApexEX/EM(nm)	Height(Data)
1	230.0/345.0	115.5
2	230.0/360.0	114.6
3	230.0/505.0	58.04
4	235.0/260.0	124.7
5	235.0/515.0	58.33
6	240.0/265.0	147.6
7	240.0/400.0	143.6
8	240.0/530.0	53.72
9	245.0/270.0	141.8
10	245.0/540.0	51.31
11	250.0/275.0	167.0
12	250.0/420.0	136.2
13	250.0/550.0	41.66
14	255.0/280.0	181.4
15	255.0/560.0	34.00
16	260.0/575.0	26.89
17	265.0/585.0	24.85
18	270.0/300.0	234.5
19	270.0/405.0	131.3
20	270.0/595.0	21.88
21	275.0/305.0	249.8
22	275.0/605.0	18.10
23	280.0/310.0	220.4
24	280.0/385.0	141.8
25	280.0/405.0	138.8
26	280.0/620.0	15.45
27	285.0/315.0	209.4
28	285.0/630.0	11.69
29	290.0/325.0	198.8
30	295.0/330.0	162.3
31	300.0/335.0	170.8
32	305.0/340.0	161.8
33	310.0/350.0	141.1
34	315.0/355.0	137.4
35	320.0/360.0	145.9
36	325.0/370.0	123.4
37	330.0/375.0	120.0
38	335.0/380.0	136.0
39	340.0/385.0	124.2
40	350.0/400.0	110.4
41	355.0/405.0	107.8
42	360.0/410.0	88.25
43	365.0/415.0	82.96
44	370.0/425.0	80.48
45	375.0/430.0	66.67
46	380.0/435.0	59.91
47	385.0/445.0	54.25
48	390.0/450.0	44.40
49	395.0/455.0	39.37
50	400.0/465.0	35.16
51	405.0/470.0	27.40
52	410.0/475.0	23.89
53	415.0/485.0	21.30
54	420.0/490.0	17.79
55	425.0/495.0	14.79
56	430.0/505.0	13.58
57	435.0/510.0	10.71
58	440.0/520.0	9.194
59	445.0/525.0	8.272
60	450.0/530.0	6.676
61	460.0/545.0	4.891
62	470.0/560.0	3.188
63	475.0/565.0	2.531
64	540.0/295.0	1.476
65	545.0/300.0	1.623
66	550.0/305.0	1.504
67	570.0/315.0	1.329
68	580.0/320.0	1.350
69	585.0/325.0	1.286

Data points
	220.0	225.0	230.0	235.0	240.0	245.0	250.0	255.0	260.0	265.0	270.0	275.0	280.0	285.0	290.0	295.0	300.0	305.0	310.0	315.0	320.0	325.0	330.0	335.0	340.0	345.0	350.0	355.0	360.0	365.0	370.0	375.0	380.0	385.0	390.0	395.0	400.0	405.0	410.0	415.0	420.0	425.0	430.0	435.0	440.0	445.0	450.0	455.0	460.0	465.0	470.0	475.0	480.0	485.0	490.0	495.0	500.0	505.0	510.0	515.0	520.0	525.0	530.0	535.0	540.0	545.0	550.0	555.0	560.0	565.0	570.0	575.0	580.0	585.0	590.0	595.0	600.0
230.0	15.11	195.7	435.1	111.7	3.665	1.671	1.285	0.904	0.580	0.927	0.670	0.570	0.549	0.446	0.408	0.319	0.347	0.244	0.249	0.238	0.215	0.221	0.251	0.191	0.205	0.169	0.149	0.185	0.161	0.167	0.159	0.138	0.127	0.128	0.165	0.253	0.243	0.224	0.255	0.222	0.196	0.198	0.185	0.165	0.159	0.128	0.154	0.470	1.150	1.458	0.783	0.224	0.097	0.096	0.099	0.075	0.076	0.088	0.095	0.066	0.071	0.066	0.061	0.049	0.064	0.053	0.066	0.058	0.057	0.040	0.050	0.043	0.040	0.042	0.036	0.053	0.057
235.0	13.03	60.69	366.4	543.3	189.6	6.631	1.295	1.123	1.107	1.105	0.895	0.548	0.519	0.488	0.359	0.364	0.438	0.351	0.340	0.269	0.206	0.166	0.191	0.203	0.228	0.209	0.170	0.141	0.205	0.207	0.167	0.122	0.174	0.150	0.131	0.129	0.221	0.238	0.235	0.201	0.182	0.171	0.226	0.234	0.213	0.170	0.136	0.249	0.434	0.946	1.551	2.173	1.548	0.435	0.102	0.076	0.093	0.064	0.086	0.079	0.077	0.067	0.064	0.056	0.093	0.071	0.051	0.046	0.064	0.021	0.046	0.019	0.050	0.026	0.036	0.050	0.054
240.0	24.55	27.35	133.3	571.8	493.4	153.5	4.008	1.374	0.878	1.081	0.822	0.652	0.582	0.478	0.424	0.341	0.309	0.244	0.272	0.293	0.247	0.210	0.232	0.151	0.185	0.177	0.158	0.154	0.220	0.157	0.137	0.128	0.154	0.123	0.106	0.155	0.154	0.233	0.259	0.260	0.231	0.199	0.165	0.158	0.202	0.209	0.179	0.161	0.210	0.338	0.758	2.041	3.472	2.795	1.374	0.267	0.097	0.065	0.081	0.094	0.057	0.062	0.061	0.053	0.075	0.063	0.052	0.105	0.044	0.074	0.030	0.014	0.031	0.042	0.065	0.071	0.058
245.0	29.22	45.96	41.92	244.6	846.4	760.9	88.76	2.557	1.275	1.194	0.774	0.794	0.513	0.544	0.589	0.501	0.303	0.313	0.311	0.249	0.303	0.213	0.239	0.289	0.209	0.161	0.212	0.135	0.159	0.160	0.219	0.161	0.136	0.145	0.116	0.098	0.118	0.200	0.235	0.272	0.186	0.223	0.165	0.147	0.160	0.223	0.262	0.291	0.228	0.176	0.274	0.700	1.950	3.636	4.413	2.921	1.014	0.191	0.098	0.081	0.068	0.070	0.065	0.079	0.072	0.049	0.056	0.081	0.059	0.055	0.073	0.054	0.046	0.039	0.056	0.063	0.075
250.0	15.16	48.71	71.57	81.02	326.3	918.2	747.5	162.1	13.86	1.457	1.073	1.148	0.770	0.512	0.515	0.448	0.439	0.315	0.319	0.299	0.324	0.231	0.287	0.253	0.218	0.199	0.180	0.222	0.157	0.188	0.224	0.170	0.160	0.131	0.125	0.119	0.120	0.132	0.183	0.214	0.201	0.254	0.183	0.172	0.177	0.180	0.197	0.298	0.348	0.363	0.263	0.280	0.550	1.146	2.231	3.625	4.870	4.502	2.504	0.788	0.171	0.076	0.064	0.087	0.045	0.052	0.071	0.067	0.066	0.055	0.057	0.057	0.065	0.050	0.052	0.039	0.058
255.0	6.451	15.75	73.30	111.9	95.79	260.5	793.5	 1216	215.9	14.02	1.964	0.978	0.904	0.624	0.583	0.387	0.574	0.422	0.407	0.287	0.262	0.254	0.221	0.287	0.237	0.208	0.162	0.190	0.183	0.221	0.215	0.192	0.164	0.137	0.152	0.131	0.163	0.146	0.120	0.153	0.231	0.253	0.220	0.155	0.196	0.213	0.205	0.169	0.184	0.306	0.518	0.578	0.378	0.400	0.608	0.941	1.689	3.727	6.402	7.134	4.135	1.023	0.107	0.094	0.064	0.064	0.071	0.086	0.053	0.038	0.076	0.070	0.092	0.082	0.042	0.049	0.047
260.0	6.048	7.052	34.87	124.7	104.2	74.35	279.3	 1104	 1239	174.2	6.263	1.643	1.160	0.893	0.779	0.456	0.620	0.448	0.374	0.337	0.374	0.281	0.233	0.222	0.254	0.207	0.176	0.221	0.228	0.205	0.165	0.154	0.123	0.138	0.163	0.137	0.162	0.110	0.096	0.107	0.140	0.199	0.215	0.147	0.235	0.206	0.196	0.149	0.158	0.179	0.312	0.647	0.767	0.574	0.313	0.340	0.511	1.095	2.723	6.192	8.559	7.102	2.895	0.453	0.093	0.057	0.087	0.083	0.092	0.075	0.066	0.066	0.072	0.063	0.028	0.030	0.058
265.0	4.948	4.462	10.62	70.32	147.6	78.23	75.44	425.1	 1350	 1204	130.7	3.080	1.700	1.135	1.014	0.768	0.601	0.506	0.396	0.362	0.276	0.271	0.332	0.300	0.242	0.235	0.214	0.254	0.247	0.159	0.147	0.146	0.153	0.140	0.126	0.101	0.157	0.117	0.161	0.125	0.118	0.165	0.202	0.217	0.260	0.215	0.211	0.173	0.168	0.106	0.158	0.332	0.674	0.767	0.723	0.275	0.242	0.361	0.745	1.897	4.445	8.358	9.565	5.803	1.469	0.137	0.066	0.092	0.045	0.063	0.068	0.060	0.048	0.065	0.055	0.015	0.034
270.0	5.778	5.037	6.045	20.99	82.90	141.8	95.25	112.8	457.2	 1167	 1342	485.1	30.40	1.618	1.167	0.792	0.821	0.560	0.463	0.419	0.347	0.329	0.345	0.325	0.253	0.260	0.246	0.256	0.229	0.182	0.180	0.186	0.204	0.143	0.134	0.140	0.115	0.112	0.101	0.152	0.230	0.139	0.170	0.182	0.225	0.245	0.195	0.154	0.145	0.143	0.133	0.209	0.296	0.420	0.725	0.757	0.825	0.546	0.338	0.514	1.121	2.507	4.594	6.693	7.892	7.423	4.106	1.250	0.156	0.076	0.067	0.072	0.066	0.062	0.054	0.041	0.043
275.0	5.243	5.050	4.935	6.987	22.89	78.39	167.0	120.8	115.2	307.2	954.3	 1606	710.5	29.63	1.581	1.125	0.883	0.631	0.482	0.544	0.466	0.416	0.456	0.323	0.304	0.232	0.240	0.204	0.223	0.246	0.252	0.180	0.174	0.203	0.212	0.131	0.128	0.161	0.119	0.156	0.125	0.117	0.105	0.146	0.261	0.220	0.177	0.181	0.157	0.195	0.182	0.167	0.163	0.167	0.273	0.362	0.711	1.040	0.919	0.487	0.387	0.723	1.146	1.657	2.633	5.428	8.960	9.845	5.333	1.043	0.096	0.067	0.065	0.054	0.074	0.054	0.069
280.0	7.403	8.455	6.734	4.328	9.053	29.23	121.4	181.4	84.69	82.25	303.7	 1151	 1680	517.4	10.18	1.376	0.890	0.905	0.551	0.523	0.527	0.452	0.360	0.312	0.315	0.281	0.261	0.280	0.278	0.201	0.202	0.205	0.191	0.179	0.166	0.166	0.145	0.137	0.117	0.152	0.127	0.109	0.081	0.131	0.192	0.230	0.189	0.203	0.156	0.173	0.180	0.156	0.153	0.176	0.179	0.205	0.333	0.599	1.103	1.132	0.747	0.356	0.384	0.485	0.715	1.527	3.713	7.374	10.53	9.167	3.314	0.382	0.073	0.077	0.063	0.050	0.031
285.0	9.112	9.764	8.513	6.343	6.339	11.58	50.94	167.8	161.2	55.19	87.45	397.7	 1360	 1519	95.93	3.492	1.395	1.135	0.762	0.621	0.568	0.519	0.376	0.390	0.283	0.278	0.290	0.272	0.267	0.235	0.218	0.182	0.192	0.212	0.207	0.183	0.150	0.169	0.121	0.145	0.105	0.114	0.116	0.091	0.115	0.215	0.258	0.219	0.178	0.217	0.207	0.211	0.193	0.212	0.127	0.144	0.204	0.263	0.547	1.063	1.266	0.883	0.368	0.290	0.257	0.445	1.058	2.267	5.303	10.71	11.41	6.915	1.505	0.121	0.079	0.080	0.064
290.0	12.37	13.82	13.26	9.432	8.392	8.944	19.60	71.94	160.0	161.8	81.36	116.6	436.2	 1048	 1262	361.3	22.41	1.563	0.993	0.760	0.615	0.572	0.459	0.437	0.327	0.390	0.251	0.316	0.319	0.232	0.233	0.193	0.187	0.177	0.203	0.165	0.150	0.158	0.157	0.136	0.105	0.173	0.109	0.109	0.096	0.162	0.192	0.229	0.229	0.197	0.193	0.210	0.175	0.177	0.165	0.136	0.187	0.185	0.255	0.431	0.693	0.983	1.119	0.977	0.519	0.335	0.441	0.682	1.417	3.375	5.268	7.505	8.343	7.279	4.297	1.077	0.120
295.0	17.73	20.13	18.33	14.68	11.80	11.10	16.30	30.95	72.85	179.7	190.8	89.03	129.6	277.7	720.9	 1460	544.5	23.22	1.369	1.034	0.745	0.690	0.558	0.448	0.451	0.369	0.331	0.322	0.278	0.247	0.232	0.248	0.184	0.176	0.168	0.177	0.193	0.207	0.148	0.116	0.123	0.174	0.143	0.101	0.142	0.176	0.163	0.198	0.268	0.210	0.208	0.182	0.229	0.180	0.158	0.188	0.139	0.179	0.169	0.226	0.319	0.425	0.666	1.165	1.476	1.058	0.467	0.338	0.503	0.914	1.388	1.917	2.897	5.667	10.54	11.22	4.964
300.0	22.92	25.92	21.68	18.37	14.12	14.64	16.35	24.66	42.79	110.8	234.5	162.5	74.37	89.99	223.6	932.6	 1636	405.5	7.962	1.365	1.039	0.878	0.649	0.588	0.497	0.422	0.403	0.358	0.263	0.218	0.255	0.207	0.223	0.227	0.155	0.195	0.159	0.205	0.162	0.152	0.164	0.198	0.114	0.116	0.130	0.175	0.155	0.144	0.227	0.238	0.228	0.206	0.225	0.223	0.178	0.193	0.192	0.208	0.169	0.216	0.273	0.276	0.359	0.581	1.168	1.623	1.174	0.544	0.401	0.427	0.426	0.578	0.817	1.692	4.417	9.584	11.88
305.0	20.82	26.09	27.46	20.69	17.29	15.65	18.57	25.09	37.68	66.15	168.3	249.8	119.9	53.25	71.93	306.6	 1182	 1587	61.91	2.858	1.274	1.010	0.774	0.630	0.542	0.523	0.492	0.436	0.296	0.379	0.268	0.260	0.242	0.209	0.190	0.212	0.166	0.215	0.168	0.159	0.141	0.171	0.126	0.121	0.123	0.169	0.146	0.147	0.190	0.209	0.256	0.191	0.231	0.261	0.195	0.190	0.264	0.229	0.222	0.255	0.260	0.250	0.262	0.367	0.619	1.058	1.504	1.338	0.778	0.351	0.325	0.345	0.379	0.533	1.216	3.008	6.689
310.0	23.77	25.60	30.45	23.52	19.09	20.13	22.28	27.07	37.67	52.33	92.52	178.2	220.4	95.59	43.15	85.65	356.3	 1002	 1374	582.8	16.27	1.358	0.997	0.799	0.711	0.548	0.466	0.401	0.324	0.363	0.295	0.239	0.248	0.241	0.236	0.207	0.177	0.200	0.189	0.142	0.149	0.181	0.156	0.164	0.126	0.147	0.138	0.151	0.181	0.195	0.196	0.255	0.272	0.264	0.195	0.206	0.227	0.248	0.235	0.269	0.255	0.269	0.308	0.345	0.399	0.583	0.763	1.082	1.289	1.193	0.683	0.360	0.286	0.253	0.457	0.840	1.709
315.0	23.62	27.21	30.15	25.54	21.82	21.34	26.50	32.01	41.54	51.53	69.31	94.20	161.1	209.4	85.45	39.01	93.81	249.7	671.7	 1614	408.1	16.68	1.261	1.120	0.783	0.643	0.619	0.487	0.402	0.440	0.380	0.252	0.248	0.212	0.197	0.196	0.235	0.215	0.215	0.190	0.187	0.195	0.227	0.149	0.162	0.165	0.173	0.120	0.175	0.177	0.141	0.232	0.232	0.281	0.167	0.237	0.234	0.245	0.266	0.279	0.277	0.280	0.296	0.304	0.334	0.429	0.471	0.635	0.683	1.027	1.329	1.130	0.581	0.299	0.253	0.367	0.538
320.0	28.12	33.93	42.51	29.33	25.72	24.20	30.74	37.01	45.63	55.74	68.29	79.38	104.6	187.5	177.2	49.90	38.82	69.23	190.7	897.8	 1722	319.6	6.008	1.406	1.046	0.738	0.574	0.544	0.552	0.429	0.387	0.246	0.244	0.210	0.169	0.192	0.196	0.224	0.214	0.203	0.200	0.196	0.229	0.161	0.157	0.164	0.192	0.215	0.225	0.213	0.142	0.202	0.257	0.288	0.229	0.249	0.245	0.244	0.306	0.287	0.294	0.303	0.372	0.303	0.356	0.407	0.404	0.456	0.502	0.523	0.900	1.285	1.350	0.622	0.303	0.234	0.274
325.0	35.59	51.87	57.15	39.68	30.87	29.73	34.01	40.10	50.87	59.23	75.33	79.14	86.71	122.4	198.8	93.98	34.53	31.91	55.25	266.7	 1183	 1654	48.40	2.511	1.282	0.931	0.832	0.649	0.520	0.442	0.445	0.301	0.348	0.253	0.226	0.292	0.205	0.231	0.159	0.240	0.185	0.171	0.219	0.156	0.175	0.184	0.243	0.250	0.285	0.253	0.258	0.220	0.234	0.279	0.266	0.275	0.337	0.240	0.271	0.364	0.299	0.286	0.402	0.384	0.410	0.419	0.420	0.539	0.492	0.512	0.565	0.775	1.133	1.286	0.789	0.319	0.217
330.0	41.88	64.62	75.60	49.25	39.77	36.21	38.52	44.73	54.17	65.40	80.10	86.30	87.48	89.70	124.3	162.3	102.4	35.70	28.65	72.43	333.8	 1036	 1333	542.9	13.65	1.388	1.001	0.789	0.649	0.488	0.471	0.409	0.348	0.300	0.310	0.337	0.218	0.234	0.236	0.237	0.193	0.171	0.184	0.149	0.160	0.210	0.251	0.264	0.345	0.343	0.276	0.242	0.219	0.229	0.269	0.312	0.347	0.308	0.350	0.360	0.353	0.339	0.405	0.443	0.439	0.511	0.433	0.546	0.540	0.493	0.484	0.490	0.638	0.828	1.024	1.024	0.715
335.0	43.04	77.84	94.48	65.69	52.03	48.35	49.09	55.73	61.17	75.38	88.11	95.38	97.62	92.87	89.63	108.2	170.8	74.11	32.04	34.11	87.84	251.6	644.1	 1676	339.2	14.61	1.435	0.903	0.814	0.613	0.528	0.459	0.424	0.336	0.312	0.310	0.230	0.194	0.259	0.255	0.170	0.164	0.191	0.205	0.212	0.272	0.249	0.323	0.393	0.409	0.291	0.342	0.296	0.272	0.279	0.356	0.363	0.362	0.408	0.378	0.359	0.389	0.431	0.481	0.487	0.544	0.461	0.510	0.559	0.447	0.452	0.568	0.570	0.514	0.601	0.805	1.115
340.0	53.86	87.50	111.2	79.74	68.48	57.57	61.01	65.61	70.42	82.50	95.29	107.4	108.4	105.7	93.89	84.17	131.4	161.8	57.47	30.27	38.31	71.01	176.6	937.6	 1752	272.6	5.514	1.355	1.024	0.796	0.576	0.442	0.404	0.412	0.285	0.297	0.273	0.285	0.288	0.264	0.208	0.217	0.175	0.189	0.231	0.297	0.286	0.304	0.403	0.419	0.348	0.430	0.366	0.275	0.315	0.358	0.389	0.506	0.404	0.477	0.474	0.409	0.510	0.455	0.492	0.551	0.566	0.579	0.647	0.580	0.510	0.627	0.540	0.527	0.474	0.495	0.746
345.0	48.82	89.07	115.5	87.97	74.69	67.74	66.81	72.58	77.11	87.91	99.79	111.4	114.3	112.7	98.73	82.22	90.20	155.7	124.8	41.49	31.31	34.49	54.26	273.1	 1296	 1597	42.13	2.464	1.050	0.896	0.642	0.548	0.457	0.400	0.422	0.369	0.307	0.223	0.271	0.296	0.204	0.186	0.193	0.199	0.264	0.255	0.286	0.327	0.392	0.419	0.374	0.443	0.335	0.350	0.390	0.347	0.344	0.497	0.498	0.490	0.546	0.455	0.442	0.517	0.530	0.512	0.571	0.590	0.694	0.616	0.645	0.592	0.606	0.552	0.522	0.386	0.513
350.0	51.31	86.22	113.8	97.25	85.81	77.62	73.43	78.09	79.70	90.38	103.7	111.6	119.2	117.8	104.9	87.77	77.37	97.89	141.1	99.72	44.23	31.75	31.04	75.99	359.6	 1072	 1440	538.0	11.93	1.285	0.960	0.652	0.524	0.453	0.447	0.376	0.318	0.264	0.214	0.262	0.217	0.217	0.187	0.226	0.238	0.276	0.273	0.311	0.402	0.429	0.394	0.445	0.398	0.377	0.462	0.362	0.398	0.455	0.474	0.568	0.573	0.455	0.538	0.520	0.573	0.545	0.577	0.606	0.673	0.654	0.629	0.632	0.625	0.610	0.535	0.459	0.495
355.0	54.32	85.56	112.6	103.7	95.22	91.08	86.39	87.84	87.86	93.04	105.3	115.0	121.1	122.2	112.9	92.78	79.52	78.74	90.71	137.4	108.0	44.10	32.19	37.50	94.94	256.2	694.5	 1828	309.2	13.49	1.365	0.949	0.633	0.486	0.487	0.454	0.330	0.280	0.213	0.275	0.219	0.167	0.208	0.255	0.201	0.293	0.262	0.333	0.435	0.426	0.410	0.463	0.417	0.412	0.416	0.453	0.404	0.355	0.405	0.551	0.531	0.507	0.570	0.618	0.511	0.583	0.553	0.622	0.616	0.665	0.713	0.750	0.618	0.602	0.554	0.549	0.624
360.0	52.23	82.76	114.6	106.8	104.4	98.27	92.74	95.13	92.26	97.61	108.2	119.1	122.6	125.7	116.9	97.75	84.99	78.71	76.99	103.6	145.9	60.04	37.73	33.00	39.70	70.38	182.6	 1065	 1610	250.7	4.526	1.041	0.891	0.563	0.486	0.496	0.337	0.340	0.256	0.327	0.287	0.207	0.181	0.234	0.207	0.280	0.275	0.333	0.380	0.381	0.406	0.437	0.446	0.459	0.493	0.466	0.499	0.393	0.458	0.522	0.603	0.564	0.622	0.606	0.523	0.525	0.672	0.705	0.670	0.643	0.728	0.707	0.684	0.649	0.561	0.556	0.627
365.0	50.64	79.08	110.3	112.7	107.0	105.6	97.95	99.03	97.54	99.56	110.8	118.9	123.8	125.6	119.3	101.8	89.17	81.34	75.94	81.77	127.3	123.4	52.25	35.85	30.69	32.34	52.60	296.0	 1245	 1477	39.27	2.219	0.992	0.693	0.560	0.450	0.414	0.361	0.326	0.284	0.275	0.190	0.216	0.216	0.299	0.272	0.278	0.322	0.388	0.407	0.385	0.460	0.451	0.578	0.528	0.513	0.425	0.489	0.491	0.562	0.533	0.663	0.603	0.589	0.585	0.620	0.638	0.668	0.635	0.718	0.698	0.678	0.593	0.677	0.595	0.654	0.546
370.0	47.06	75.79	108.0	114.5	114.0	111.8	104.1	103.9	101.4	103.4	114.5	120.2	124.1	125.7	120.7	106.1	97.00	90.18	83.30	79.74	90.62	123.4	112.0	57.33	36.32	29.37	28.71	78.42	344.0	 1033	 1299	452.9	10.93	1.154	0.775	0.552	0.408	0.400	0.349	0.312	0.295	0.256	0.256	0.251	0.246	0.248	0.284	0.344	0.398	0.456	0.426	0.484	0.501	0.537	0.553	0.502	0.502	0.493	0.524	0.476	0.540	0.624	0.611	0.633	0.625	0.591	0.660	0.692	0.704	0.757	0.642	0.722	0.652	0.623	0.632	0.575	0.592
375.0	47.44	76.04	105.5	123.3	121.8	116.8	111.9	108.2	105.8	109.0	119.9	124.2	131.6	129.8	123.7	113.5	103.6	98.68	92.25	86.79	83.46	89.01	120.0	114.5	50.96	36.64	30.70	38.33	90.81	247.9	667.4	 1577	270.0	12.32	1.077	0.682	0.519	0.523	0.365	0.286	0.273	0.244	0.294	0.247	0.245	0.294	0.294	0.385	0.417	0.408	0.433	0.517	0.532	0.517	0.545	0.517	0.509	0.578	0.587	0.480	0.546	0.621	0.570	0.614	0.660	0.621	0.668	0.701	0.701	0.732	0.641	0.782	0.701	0.611	0.692	0.621	0.644
380.0	46.65	82.43	107.6	125.2	132.0	125.4	118.6	114.8	111.6	113.5	125.4	131.1	138.5	135.8	126.1	116.6	110.7	104.4	98.27	92.98	86.81	83.04	95.36	136.0	87.24	45.41	37.44	33.94	39.20	69.38	180.1	923.3	 1470	221.5	4.198	0.955	0.735	0.521	0.482	0.297	0.295	0.277	0.317	0.242	0.315	0.311	0.291	0.306	0.394	0.401	0.399	0.484	0.588	0.608	0.592	0.566	0.583	0.569	0.613	0.509	0.557	0.648	0.598	0.643	0.736	0.639	0.657	0.686	0.705	0.755	0.763	0.735	0.770	0.745	0.677	0.650	0.662
385.0	46.75	82.19	110.4	125.8	138.0	134.1	122.7	117.8	116.5	118.3	124.3	131.0	141.8	141.3	130.3	120.0	116.0	109.7	103.1	95.63	90.63	84.66	84.07	112.4	124.2	64.33	43.45	38.06	31.17	32.43	57.19	267.7	 1146	 1322	32.69	1.785	0.860	0.613	0.601	0.400	0.347	0.282	0.276	0.249	0.296	0.252	0.322	0.313	0.401	0.390	0.434	0.532	0.597	0.648	0.636	0.558	0.645	0.653	0.617	0.544	0.521	0.655	0.565	0.590	0.760	0.659	0.673	0.708	0.732	0.744	0.805	0.839	0.743	0.724	0.736	0.732	0.633
390.0	46.63	76.75	103.3	130.9	140.2	134.1	124.6	119.2	118.5	120.0	126.4	130.1	139.3	138.3	130.3	123.9	119.6	116.1	107.6	101.0	94.98	88.58	82.68	88.47	109.7	106.0	62.03	42.59	32.09	26.69	30.58	75.79	316.1	923.4	 1060	379.0	9.195	0.848	0.674	0.501	0.409	0.278	0.290	0.325	0.272	0.265	0.311	0.334	0.411	0.403	0.468	0.496	0.590	0.658	0.640	0.593	0.650	0.622	0.629	0.641	0.597	0.686	0.692	0.636	0.689	0.656	0.670	0.725	0.717	0.766	0.746	0.712	0.747	0.754	0.757	0.745	0.693
395.0	48.91	73.48	105.1	129.9	140.2	132.6	130.5	126.6	123.8	123.4	129.8	129.7	136.1	135.3	130.9	126.6	121.9	118.7	111.3	104.6	97.58	91.29	85.78	81.98	83.09	100.9	104.0	57.30	37.23	30.22	27.50	34.88	81.02	217.3	540.9	 1308	227.4	11.25	0.844	0.666	0.450	0.351	0.312	0.316	0.275	0.331	0.305	0.343	0.401	0.436	0.407	0.532	0.616	0.625	0.618	0.587	0.621	0.563	0.604	0.601	0.586	0.605	0.665	0.668	0.645	0.641	0.691	0.655	0.775	0.715	0.791	0.669	0.717	0.781	0.693	0.753	0.770
400.0	49.20	74.93	106.7	129.3	143.6	142.3	130.9	126.3	126.6	124.9	130.4	130.8	136.0	134.3	130.8	128.0	122.9	119.3	111.6	104.3	98.51	92.91	87.25	83.20	77.27	81.27	110.4	86.25	45.63	33.90	30.84	29.20	30.85	56.29	138.7	756.9	 1176	189.6	3.873	0.728	0.504	0.417	0.338	0.352	0.300	0.302	0.318	0.348	0.390	0.453	0.462	0.616	0.637	0.618	0.594	0.668	0.707	0.611	0.630	0.625	0.667	0.620	0.636	0.645	0.598	0.644	0.603	0.741	0.782	0.747	0.758	0.771	0.789	0.801	0.756	0.776	0.765
405.0	47.69	69.29	111.4	128.2	140.4	137.7	133.0	128.4	127.2	127.0	131.3	129.0	138.8	132.5	126.4	124.7	122.8	118.9	112.1	104.5	99.28	93.29	89.56	84.15	76.52	73.45	89.65	107.8	62.10	38.07	33.36	30.01	22.02	21.09	37.23	205.8	866.1	 1062	29.52	1.574	0.678	0.533	0.431	0.302	0.323	0.255	0.343	0.400	0.438	0.409	0.512	0.570	0.635	0.662	0.608	0.650	0.739	0.700	0.627	0.663	0.680	0.602	0.676	0.603	0.595	0.675	0.581	0.693	0.660	0.718	0.718	0.673	0.754	0.774	0.774	0.774	0.782
