Sample:	'1
File name:	5.1å§Ñô101ºÅ1200±¶.FD3
Run date:	'16:19:37, 05/15/2024
Operator:	horiz
Comment:	'

Instrument
Model:	F-2700 FL Spectrophotometer
Serial number:	23B8-004
ROM Version:	4J14000 07

Instrument parameters
Measurement type:	3-D scan
Data mode:	Fluorescence
EX  Start WL:	220.0 nm
EX  End WL:	600.0 nm
EX Sampling interval:	5.0 nm
EM  Start WL:	230.0 nm
EM  End WL:	650.0 nm
EM Sampling interval:	5.0 nm
Scan speed:	12000 nm/min
EX Slit:	5.0 nm
EM Slit:	5.0 nm
PMT Voltage:	700 V
Response:	Auto 
Corrected spectra:	Off
Contour interval:	50.000

Peak integration
Integration method:	Rectangular
Sensitivity:	1
Threshold:	1.000

Peaks
No.	ApexEX/EM(nm)	Height(Data)
1	230.0/500.0	137.4
2	235.0/510.0	117.2
3	240.0/260.0	416.2
4	240.0/525.0	131.0
5	245.0/270.0	430.8
6	245.0/425.0	154.3
7	245.0/435.0	148.7
8	245.0/535.0	123.4
9	250.0/275.0	511.4
10	250.0/445.0	148.5
11	250.0/550.0	116.1
12	255.0/280.0	861.9
13	255.0/560.0	136.1
14	260.0/285.0	1172
15	260.0/575.0	147.9
16	265.0/290.0	1437
17	265.0/585.0	167.0
18	270.0/300.0	1694
19	270.0/595.0	142.9
20	275.0/305.0	1585
21	275.0/325.0	2070
22	275.0/610.0	101.4
23	280.0/625.0	68.45
24	285.0/640.0	70.80
25	310.0/350.0	336.3
26	315.0/355.0	289.0
27	320.0/360.0	270.5
28	330.0/375.0	187.8
29	335.0/380.0	193.2
30	345.0/395.0	119.0
31	350.0/400.0	124.6
32	355.0/405.0	103.0
33	365.0/420.0	86.95
34	370.0/425.0	77.09
35	375.0/430.0	58.15
36	380.0/440.0	53.35
37	385.0/445.0	46.99
38	390.0/290.0	8.258
39	390.0/450.0	38.10
40	395.0/455.0	37.09
41	400.0/465.0	32.67
42	405.0/470.0	24.99
43	410.0/475.0	22.10
44	415.0/485.0	20.04
45	420.0/490.0	15.85
46	425.0/495.0	14.59
47	430.0/505.0	13.26
48	435.0/510.0	10.53
49	440.0/520.0	9.018
50	445.0/295.0	3.477
51	445.0/335.0	18.31
52	445.0/525.0	8.254
53	450.0/530.0	6.571
54	455.0/540.0	5.479
55	460.0/545.0	4.547
56	470.0/560.0	2.559
57	480.0/260.0	1.215
58	480.0/575.0	0.778
59	485.0/265.0	1.644
60	485.0/580.0	0.636
61	495.0/270.0	1.653
62	505.0/275.0	3.033
63	515.0/280.0	4.392
64	520.0/285.0	5.516
65	530.0/290.0	6.380
66	540.0/295.0	8.254
67	545.0/300.0	8.089
68	550.0/305.0	6.962
69	550.0/325.0	9.062
70	560.0/335.0	8.018

Wavelength data
No.	EX/EM(nm)	Height(Data)	

Data points
	220.0	225.0	230.0	235.0	240.0	245.0	250.0	255.0	260.0	265.0	270.0	275.0	280.0	285.0	290.0	295.0	300.0	305.0	310.0	315.0	320.0	325.0	330.0	335.0	340.0	345.0	350.0	355.0	360.0	365.0	370.0	375.0	380.0	385.0	390.0	395.0	400.0	405.0	410.0	415.0	420.0	425.0	430.0	435.0	440.0	445.0	450.0	455.0	460.0	465.0	470.0	475.0	480.0	485.0	490.0	495.0	500.0	505.0	510.0	515.0	520.0	525.0	530.0	535.0	540.0	545.0	550.0	555.0	560.0	565.0	570.0	575.0	580.0	585.0	590.0	595.0	600.0
230.0	-30.20	1305	4547	1458	35.95	-12.95	-11.26	-9.577	-8.547	-7.706	-6.581	-5.845	-5.421	-4.465	-3.915	-3.390	-3.025	-2.671	-2.428	-2.155	-2.098	-2.068	-1.910	-1.856	-1.742	-1.755	-1.711	-1.704	-1.657	-1.651	-1.590	-1.576	-1.467	-1.421	-1.278	-1.158	-1.154	-1.114	-1.148	-1.146	-0.952	-0.619	-0.642	-0.845	-1.015	-1.021	0.337	7.442	13.99	10.10	2.928	-0.446	-0.949	-0.925	-0.950	-0.969	-1.014	-1.053	-1.052	-1.082	-1.073	-1.087	-1.106	-1.112	-1.106	-1.086	-1.155	-1.158	-1.119	-1.167	-1.177	-1.218	-1.180	-1.224	-1.249	-1.265	-1.264
235.0	95.62	314.3	1962	3792	637.3	71.18	-9.941	-9.448	-7.465	-7.477	-6.165	-5.602	-4.851	-4.243	-3.828	-3.291	-3.144	-2.687	-2.499	-2.254	-1.835	-2.076	-1.911	-1.864	-1.745	-1.762	-1.741	-1.700	-1.689	-1.596	-1.595	-1.449	-1.422	-1.382	-1.339	-1.181	-1.196	-1.145	-1.178	-1.150	-1.027	-1.008	-0.820	-0.524	-0.646	-0.880	-0.599	1.071	4.080	7.694	11.59	11.71	4.620	0.197	-0.902	-0.944	-1.041	-1.076	-1.018	-1.067	-1.054	-1.115	-1.111	-1.109	-1.084	-1.153	-1.113	-1.142	-1.121	-1.170	-1.200	-1.242	-1.200	-1.242	-1.223	-1.234	-1.249
240.0	125.4	166.2	500.5	2368	3679	503.9	24.31	-6.853	-7.405	-6.017	-5.461	-5.471	-4.992	-4.033	-3.599	-3.085	-2.817	-2.613	-2.343	-2.109	-2.062	-2.008	-1.931	-1.769	-1.711	-1.711	-1.754	-1.524	-1.603	-1.587	-1.574	-1.522	-1.359	-1.408	-1.386	-1.247	-1.162	-1.150	-1.167	-0.991	-1.068	-1.092	-0.986	-0.727	-0.548	-0.204	-0.329	-0.322	0.308	1.468	5.067	12.89	15.97	11.32	3.083	-0.543	-1.020	-1.006	-1.058	-1.067	-1.044	-1.071	-1.106	-1.120	-1.097	-1.136	-1.160	-1.133	-1.163	-1.176	-1.180	-1.156	-1.191	-1.259	-1.212	-1.267	-1.232
245.0	43.68	233.9	190.0	671.5	3018	3525	381.7	6.357	-5.714	-5.655	-6.159	-4.970	-4.736	-4.283	-3.558	-3.283	-2.622	-2.498	-2.423	-2.101	-2.023	-1.845	-1.827	-1.723	-1.685	-1.607	-1.715	-1.660	-1.743	-1.736	-1.609	-1.523	-1.421	-1.378	-1.295	-1.245	-1.232	-1.148	-1.149	-1.068	-1.064	-1.092	-1.097	-0.959	-0.891	-0.387	-0.074	-0.024	-0.450	-0.194	0.619	3.169	9.296	17.28	16.83	8.867	1.270	-0.793	-1.018	-1.045	-0.960	-1.102	-1.118	-1.094	-1.066	-1.131	-1.182	-1.155	-1.149	-1.100	-1.209	-1.199	-1.194	-1.180	-1.183	-1.262	-1.274
250.0	-40.76	109.9	279.6	271.7	793.8	2462	3291	1365	86.16	-2.903	-4.446	-4.205	-3.826	-4.053	-3.128	-2.994	-2.450	-2.350	-2.194	-2.163	-2.000	-1.773	-1.864	-1.686	-1.729	-1.652	-1.656	-1.614	-1.692	-1.711	-1.563	-1.483	-1.493	-1.332	-1.282	-1.251	-1.219	-1.244	-1.193	-1.005	-1.039	-1.085	-1.050	-1.019	-0.995	-0.878	-0.526	-0.179	0.083	0.209	-0.016	0.233	1.484	4.418	8.341	12.55	15.70	14.24	7.070	1.222	-0.835	-1.035	-1.118	-1.069	-1.058	-1.076	-1.078	-1.146	-1.113	-1.141	-1.191	-1.208	-1.157	-1.225	-1.236	-1.220	-1.270
255.0	-70.55	-15.44	136.2	388.8	310.0	580.7	1736	5306	1846	89.75	-2.240	-2.955	-2.353	-3.123	-3.087	-3.207	-2.508	-2.318	-1.993	-2.098	-1.841	-2.054	-1.846	-1.668	-1.658	-1.661	-1.665	-1.622	-1.669	-1.619	-1.452	-1.539	-1.345	-1.366	-1.328	-1.225	-1.173	-1.235	-1.173	-1.138	-1.083	-1.074	-1.116	-0.999	-1.012	-0.972	-0.803	-0.767	-0.549	0.051	0.663	1.004	0.183	0.412	1.190	2.300	4.260	11.53	19.86	21.52	10.58	1.382	-0.945	-1.095	-1.029	-1.097	-1.084	-1.145	-1.134	-1.136	-1.178	-1.208	-1.180	-1.206	-1.247	-1.260	-1.261
260.0	-68.86	-40.20	17.49	255.1	416.2	203.3	460.4	3260	5111	1349	40.43	-1.127	-2.126	-2.350	-2.574	-2.768	-2.249	-2.339	-2.070	-2.043	-1.796	-1.839	-1.761	-1.642	-1.613	-1.623	-1.640	-1.539	-1.638	-1.529	-1.466	-1.525	-1.341	-1.342	-1.275	-1.210	-1.243	-1.202	-1.218	-1.201	-1.048	-1.051	-1.004	-1.017	-0.960	-0.966	-0.888	-0.875	-0.759	-0.528	0.029	1.119	1.215	0.444	-0.174	-0.117	0.297	2.248	6.957	16.73	24.32	20.58	7.591	0.088	-1.014	-1.096	-1.063	-1.128	-1.081	-1.141	-1.129	-1.211	-1.198	-1.174	-1.229	-1.208	-1.276
265.0	-65.03	-48.03	-18.32	78.32	402.6	327.8	140.6	867.7	3829	4654	251.5	10.16	0.196	-1.729	-1.791	-2.250	-2.148	-2.019	-2.026	-1.809	-1.794	-1.687	-1.565	-1.552	-1.626	-1.584	-1.608	-1.486	-1.543	-1.451	-1.408	-1.441	-1.331	-1.295	-1.255	-1.183	-1.133	-1.162	-1.232	-1.141	-1.047	-1.047	-0.913	-1.070	-0.987	-1.014	-0.843	-0.927	-0.848	-0.714	-0.540	-0.114	0.794	1.644	1.112	-0.147	-0.584	-0.227	0.900	3.862	11.18	22.46	27.16	17.12	3.720	-0.669	-1.063	-1.081	-1.152	-1.128	-1.126	-1.193	-1.153	-1.156	-1.216	-1.172	-1.255
270.0	114.8	28.33	-2.752	15.65	149.6	430.8	342.8	307.1	1102	3201	4589	911.7	59.82	0.863	-0.244	-1.616	-1.540	-1.905	-1.841	-1.542	-1.721	-1.623	-1.491	-1.514	-1.633	-1.490	-1.436	-1.532	-1.489	-1.474	-1.380	-1.133	-0.562	-0.129	-0.294	-0.328	-0.579	-0.732	-0.761	-0.684	-0.648	-0.665	-0.568	-0.534	-0.584	-0.727	-0.672	-0.843	-0.768	-0.656	-0.635	-0.660	-0.360	0.302	0.873	1.653	1.350	0.280	-0.172	0.436	2.166	5.590	11.14	15.42	19.20	20.82	12.75	3.113	-0.687	-1.072	-1.086	-1.117	-1.072	-1.112	-1.159	-1.164	-1.203
275.0	684.3	339.0	94.47	28.52	54.01	187.4	511.4	433.4	526.4	1019	2501	6130	1311	67.86	2.559	0.013	-0.923	-1.210	-1.829	-1.537	-1.604	-1.515	-1.387	-1.353	-1.500	-1.438	-1.410	-1.482	-1.485	-1.423	-1.220	-0.310	1.083	2.515	2.368	1.820	1.362	0.555	0.501	0.480	0.567	0.662	0.746	0.859	0.605	0.313	-0.008	-0.290	-0.484	-0.531	-0.635	-0.753	-0.646	-0.426	-0.260	0.296	1.624	3.033	2.469	0.860	0.797	1.658	3.173	4.080	5.746	12.57	19.61	30.51	18.50	3.822	-0.694	-1.000	-0.909	-0.951	-1.036	-1.018	-1.095
280.0	1271	646.6	213.5	63.57	51.78	118.5	379.3	861.9	690.7	707.4	1081	3736	5856	977.9	30.15	1.173	-0.256	-0.797	-1.200	-1.296	-1.506	-1.314	-1.180	-1.316	-1.523	-1.370	-1.374	-1.352	-1.465	-1.481	-1.118	0.353	2.646	4.935	4.999	4.123	3.088	1.995	1.752	1.521	1.712	1.899	2.008	2.027	1.804	1.442	0.821	0.347	-0.100	-0.443	-0.505	-0.631	-0.684	-0.509	-0.447	-0.206	0.260	1.800	4.047	4.392	2.485	1.652	2.287	2.383	2.633	4.184	7.411	18.41	24.42	29.64	13.71	1.539	-0.834	-0.900	-0.888	-0.864	-0.914
285.0	1679	971.6	365.6	97.59	66.47	116.1	276.3	717.3	1172	876.3	880.2	1397	4329	6053	652.6	8.486	1.301	-0.313	-0.759	-0.943	-1.065	-1.318	-1.181	-1.451	-1.483	-1.355	-1.377	-1.437	-1.398	-1.540	-0.974	0.635	3.761	6.611	7.245	5.737	4.059	3.217	2.410	2.217	2.409	2.654	2.804	3.165	2.448	2.582	1.605	0.842	0.334	-0.286	-0.411	-0.592	-0.753	-0.551	-0.515	-0.242	0.025	0.775	2.130	4.152	5.516	4.880	3.103	2.841	2.604	3.083	3.298	5.340	9.406	16.71	33.10	25.33	8.491	0.402	-0.846	-0.731	-0.949
290.0	1930	1223	506.8	158.1	88.27	139.6	266.1	474.9	1074	1437	1095	891.8	1362	4029	5192	1395	33.90	1.491	0.171	-0.547	-0.659	-1.207	-1.011	-1.311	-1.395	-1.214	-1.273	-1.312	-1.364	-1.315	-0.912	0.914	4.100	7.334	8.258	6.953	5.204	3.906	2.840	2.722	2.702	3.094	3.380	3.648	3.268	3.206	2.226	1.450	0.781	0.167	-0.209	-0.410	-0.554	-0.444	-0.390	-0.137	0.143	0.562	1.287	2.202	3.764	5.465	6.380	6.067	4.441	3.599	3.302	2.704	3.201	4.532	10.62	13.59	21.79	20.41	16.26	7.035	0.706
295.0	1911	1284	612.7	217.6	126.4	168.0	288.9	426.8	761.6	1347	1684	943.1	642.8	1028	2360	5258	751.9	34.99	1.462	0.123	-0.203	-0.726	-0.849	-0.918	-1.098	-1.199	-1.225	-1.257	-1.216	-1.352	-1.033	0.609	3.677	6.934	8.035	6.661	5.216	3.731	2.813	2.695	2.365	2.972	3.372	3.289	3.299	3.477	2.449	1.924	0.963	0.323	-0.069	-0.371	-0.371	-0.316	-0.232	-0.094	0.220	0.732	1.047	1.729	2.552	3.194	4.646	6.824	8.254	6.489	4.042	2.862	2.212	1.826	2.648	2.911	4.640	7.205	17.03	30.45	26.33
300.0	1743	1216	637.0	253.5	152.5	202.4	321.8	428.4	692.0	1045	1694	1306	535.9	381.9	621.5	2980	4719	564.5	13.68	1.389	0.369	-0.263	-0.784	-0.785	-1.041	-1.036	-1.081	-1.210	-1.318	-1.224	-0.905	0.671	3.154	5.666	6.821	6.062	4.854	3.263	2.404	2.105	1.936	2.452	2.811	2.787	2.895	3.141	2.483	2.073	0.980	0.447	0.082	-0.192	-0.219	-0.162	-0.008	0.066	0.390	0.745	1.221	1.620	2.231	2.793	3.794	4.303	6.188	8.089	6.855	3.857	2.338	1.372	0.965	0.758	0.792	1.366	3.978	12.04	25.30
305.0	1529	1136	614.6	247.5	166.3	222.8	340.2	423.6	641.9	876.1	1227	1585	692.5	259.7	228.6	807.0	3493	3957	84.94	5.143	1.766	0.141	-0.395	-0.606	-1.131	-1.071	-0.866	-1.145	-1.313	-1.108	-0.833	0.319	2.671	4.696	5.662	5.154	3.822	2.597	1.962	1.673	1.691	2.199	2.294	2.482	2.370	2.429	2.156	1.871	1.013	0.573	0.127	-0.167	-0.164	-0.115	-0.061	0.146	0.613	0.710	1.194	1.889	2.167	2.503	3.263	3.558	4.230	5.266	6.962	6.421	4.241	1.793	0.509	0.179	-0.052	-0.046	0.520	2.297	6.624
310.0	1594	1251	631.4	263.5	184.0	236.8	356.4	416.9	606.1	806.1	971.7	1174	1096	483.8	185.1	269.5	948.9	2677	3436	992.1	23.24	1.239	0.246	-0.326	-0.637	-0.705	-0.903	-1.089	-1.164	-1.187	-0.927	-0.114	1.629	3.293	4.262	3.527	3.002	2.160	1.405	1.223	1.456	1.695	2.157	2.289	2.646	2.588	2.287	1.824	1.147	0.703	0.174	-0.132	-0.082	-0.029	0.121	0.357	0.546	0.783	1.137	1.717	2.229	2.502	3.014	3.361	3.349	3.815	4.133	4.643	5.000	4.322	2.862	1.187	0.164	-0.177	-0.097	0.224	1.225
315.0	2866	2032	1168	434.7	270.5	327.5	464.7	577.6	816.8	1056	1267	1320	1259	1222	559.6	277.3	331.7	676.4	1738	3897	526.0	24.51	1.350	0.539	-0.221	-0.466	-0.759	-0.810	-0.947	-0.981	-0.908	-0.426	0.893	2.370	2.910	2.671	2.165	1.926	1.358	1.592	2.001	2.827	4.061	5.174	6.875	7.764	6.337	4.787	2.935	1.480	0.583	0.240	0.300	0.215	0.482	0.751	1.177	1.680	1.884	2.407	3.059	3.646	4.068	4.628	4.783	5.030	5.328	4.860	5.068	4.710	5.512	5.311	3.428	1.668	0.927	0.575	0.395
320.0	5087	4548	2099	740.0	399.6	433.4	531.6	786.5	1121	1487	1774	1862	1642	1622	1129	507.2	297.9	295.6	511.7	2327	4401	414.0	8.866	1.197	0.347	-0.338	-0.446	-0.836	-0.811	-0.911	-0.873	-0.531	0.525	1.535	2.373	2.128	2.172	1.947	1.625	2.363	3.354	4.334	6.535	9.090	12.27	14.37	12.07	9.845	5.855	2.948	1.511	0.925	0.935	0.735	0.861	1.241	1.752	2.387	2.820	3.794	4.341	5.244	5.659	6.618	6.751	7.307	7.787	7.229	7.062	6.458	6.460	6.566	7.015	5.804	2.992	1.753	1.209
325.0	5759	5699	2690	982.5	484.0	488.6	562.0	847.3	1208	1609	1963	2070	1859	1617	1455	803.1	337.9	234.7	224.6	692.3	3871	3093	62.00	3.557	1.046	0.106	-0.190	-0.608	-0.742	-0.820	-0.965	-0.505	0.217	1.134	1.501	1.761	1.850	1.727	2.038	2.715	3.301	4.807	7.348	10.52	14.74	17.54	15.37	12.85	8.295	4.172	2.074	1.387	1.178	0.972	0.962	1.407	1.953	2.520	2.809	4.124	4.699	5.574	6.537	7.355	7.689	8.245	9.062	8.342	7.682	7.188	6.943	6.445	6.325	7.217	5.412	3.363	1.809
330.0	6108	5998	2866	907.6	509.0	484.1	548.2	830.3	1181	1568	1922	2061	1877	1558	1236	964.7	510.7	235.5	167.4	243.7	1077	2254	2628	854.8	16.49	1.191	0.220	-0.317	-0.499	-0.823	-0.789	-0.474	0.063	0.626	1.174	1.384	1.469	1.606	1.869	2.695	3.345	4.968	7.730	10.60	14.89	18.22	16.04	13.62	8.401	4.629	2.386	1.732	1.193	0.937	1.037	1.360	1.950	2.406	2.865	3.923	4.670	5.542	6.364	6.963	7.508	8.052	8.553	8.395	7.885	7.526	6.998	6.364	5.600	5.001	4.905	4.086	3.283
335.0	6149	6084	2982	921.8	531.1	485.0	518.8	809.1	1138	1521	1857	2019	1867	1542	1117	774.8	684.8	365.8	170.8	151.3	311.0	538.8	1472	3500	406.0	17.47	1.237	0.225	-0.204	-0.535	-0.515	-0.552	-0.009	0.372	0.641	0.814	1.120	1.314	1.817	2.585	3.202	5.053	7.269	10.73	14.80	18.31	16.34	14.32	8.954	5.117	2.507	1.897	1.323	0.971	1.046	1.268	1.776	2.269	2.762	3.408	4.161	5.012	5.939	6.491	7.170	7.564	7.961	7.981	8.018	7.243	6.879	6.206	5.729	4.476	3.882	2.906	2.817
340.0	5376	5469	2748	878.7	510.0	443.8	462.1	691.8	980.6	1320	1615	1757	1652	1377	981.5	624.6	530.6	510.4	207.9	123.5	137.1	159.3	379.0	2219	2864	332.6	5.971	0.679	0.224	-0.109	-0.222	-0.562	-0.123	0.249	0.555	0.517	0.913	1.061	1.178	2.104	2.861	4.396	6.475	9.409	12.70	15.92	15.15	13.07	8.188	4.638	2.347	1.578	1.128	0.908	0.852	1.127	1.538	1.957	2.517	3.204	3.631	4.250	4.811	5.756	6.052	6.443	6.775	7.257	6.760	6.550	6.204	5.556	4.956	3.979	3.111	2.268	1.577
345.0	4247	4403	2285	767.3	454.1	403.2	471.6	576.4	806.2	1076	1321	1448	1357	1125	816.7	501.1	348.9	452.3	326.6	120.1	92.62	78.40	112.6	615.9	2464	2496	52.47	2.253	0.620	0.203	-0.225	-0.397	-0.409	-0.084	-0.024	0.303	0.526	0.692	0.888	1.633	2.133	3.441	5.136	7.301	10.28	13.18	12.32	10.73	6.883	3.676	2.071	1.646	0.919	0.838	0.871	1.129	1.190	1.587	1.735	2.497	2.987	3.357	3.961	4.683	5.277	5.395	5.182	5.729	5.365	5.229	4.818	4.292	3.844	3.244	2.357	1.636	0.981
350.0	3157	3367	1764	769.5	412.6	354.8	407.5	449.7	633.7	837.6	1018	1115	1049	885.8	642.7	397.0	247.3	252.5	336.3	229.2	95.79	63.30	57.55	164.5	693.3	1941	1992	219.6	13.87	0.720	-0.085	-0.255	-0.376	-0.277	-0.057	0.114	0.214	0.376	0.589	1.066	1.486	2.477	3.704	5.599	7.825	10.28	9.290	8.311	5.227	2.934	1.662	1.205	0.872	0.662	0.544	0.700	0.782	1.160	1.247	1.629	2.136	2.355	2.994	3.412	3.652	3.838	3.955	4.225	4.011	3.659	3.572	3.158	2.736	2.241	1.644	1.117	0.534
355.0	2621	2374	1263	659.1	372.8	306.8	338.1	339.0	464.5	602.4	740.6	809.4	769.3	655.3	485.6	307.6	186.0	150.6	179.9	289.0	185.2	71.43	51.28	68.93	177.8	452.4	1223	2454	354.8	14.97	0.530	0.058	-0.263	-0.245	-0.140	-0.190	-0.089	0.102	0.250	0.362	1.096	1.461	2.547	3.608	5.486	7.129	6.539	5.890	3.996	2.210	1.363	0.858	0.513	0.500	0.435	0.466	0.463	0.790	0.843	1.042	1.497	1.688	1.894	2.224	2.321	2.572	2.736	2.791	2.735	2.663	2.513	2.177	2.037	1.628	1.043	0.731	0.208
360.0	2023	1751	1203	557.4	336.3	280.5	286.8	334.1	362.6	461.2	562.5	605.1	579.6	499.5	380.5	238.3	150.7	115.2	112.8	194.5	270.5	107.7	54.92	51.86	66.83	119.6	317.1	1739	2267	301.1	5.236	0.663	-0.147	-0.172	-0.336	-0.244	-0.235	-0.101	-0.093	0.131	0.664	0.948	1.777	2.346	3.858	5.084	4.820	4.455	3.014	1.694	1.138	0.728	0.574	0.384	0.277	0.182	0.400	0.380	0.453	0.589	0.961	0.943	1.540	1.517	1.609	1.763	1.778	1.979	1.791	1.699	1.701	1.520	1.428	1.065	0.569	0.368	-0.075
365.0	1508	1541	969.3	494.6	322.5	259.6	251.0	297.4	276.8	364.6	438.3	470.5	449.7	383.3	293.8	194.8	125.0	98.95	90.82	113.5	231.7	198.4	70.77	51.43	45.82	48.15	85.78	496.0	2082	2303	48.33	1.774	0.231	-0.142	-0.221	-0.388	-0.352	-0.299	-0.322	-0.010	0.124	0.381	0.980	1.639	2.715	3.602	3.669	3.124	2.326	1.507	0.794	0.621	0.566	0.308	0.119	0.144	0.273	0.192	0.310	0.347	0.497	0.635	0.768	0.921	1.171	1.203	1.275	1.429	1.110	0.926	1.080	0.894	0.733	0.445	0.163	0.018	-0.299
370.0	1057	1168	762.6	429.0	296.5	241.0	227.0	241.9	262.5	292.4	319.1	343.9	330.3	286.3	224.2	153.7	105.1	94.56	94.20	88.20	123.8	197.0	158.6	66.87	44.37	35.09	35.65	123.1	591.8	1866	1974	198.5	11.90	0.444	0.034	-0.128	-0.326	-0.288	-0.331	-0.238	-0.133	0.064	0.531	0.957	1.647	2.250	2.335	2.106	1.579	1.019	0.596	0.541	0.418	0.170	0.190	0.108	0.066	0.051	0.080	0.126	0.224	0.295	0.434	0.513	0.710	0.656	0.774	0.701	0.735	0.536	0.546	0.390	0.298	0.087	-0.017	-0.232	-0.278
375.0	711.3	816.9	583.0	374.2	273.0	220.8	196.2	200.9	221.1	241.3	271.1	242.6	235.0	205.3	168.6	121.4	107.3	90.70	90.80	85.39	93.37	103.8	187.8	143.6	55.42	34.95	26.73	39.86	140.6	430.9	1249	2265	308.4	12.32	0.334	-0.069	-0.192	-0.260	-0.351	-0.350	-0.239	-0.085	-0.036	0.392	0.906	1.479	1.461	1.344	0.866	0.672	0.414	0.389	0.451	0.243	0.133	0.079	-0.187	-0.161	-0.207	-0.221	-0.138	0.070	0.156	0.087	0.116	0.216	0.182	0.234	0.284	0.066	0.238	0.052	0.011	-0.195	-0.255	-0.410	-0.513
380.0	521.1	604.7	484.2	334.3	258.8	208.1	179.4	174.8	183.8	205.6	224.7	223.5	180.8	161.0	133.2	119.6	100.6	87.48	85.65	82.67	84.38	82.05	123.1	193.2	87.23	37.77	25.50	23.36	40.92	104.1	321.5	1606	1986	236.9	3.621	0.287	0.039	-0.297	-0.358	-0.445	-0.423	-0.338	-0.127	0.229	0.530	0.881	0.876	0.773	0.727	0.402	0.354	0.272	0.236	0.194	-0.037	-0.071	-0.302	-0.323	-0.101	-0.302	-0.219	-0.078	-0.042	-0.112	-0.069	-0.013	-0.055	-0.068	0.020	-0.055	-0.140	-0.169	-0.206	-0.352	-0.374	-0.484	-0.586
385.0	391.8	484.3	394.1	303.2	254.6	197.7	159.6	152.9	158.2	176.2	185.5	194.6	175.5	158.2	131.9	109.2	90.94	82.60	81.44	79.56	81.42	72.42	74.44	153.9	149.9	55.31	25.58	19.64	19.36	30.38	79.26	454.2	1817	1666	39.33	1.446	0.144	-0.156	-0.163	-0.488	-0.297	-0.296	-0.261	-0.035	0.118	0.383	0.490	0.494	0.522	0.348	0.211	0.127	0.156	0.094	-0.034	-0.114	-0.224	-0.338	-0.278	-0.321	-0.306	-0.185	-0.174	-0.289	-0.142	-0.244	-0.243	-0.244	-0.172	-0.201	-0.206	-0.291	-0.284	-0.417	-0.541	-0.578	-0.698
390.0	275.5	366.0	316.9	266.3	232.4	186.8	153.9	138.8	136.2	142.4	151.4	158.3	150.3	134.3	113.9	96.86	83.47	78.21	77.19	75.47	76.57	68.25	67.32	81.48	136.2	114.3	42.12	20.18	15.13	15.25	24.05	106.8	510.8	1373	1461	160.5	10.81	0.226	-0.031	-0.393	-0.427	-0.426	-0.398	-0.260	-0.106	0.140	0.212	0.216	0.246	0.190	0.197	0.060	0.152	-0.042	0.003	-0.110	-0.259	-0.383	-0.411	-0.416	-0.415	-0.417	-0.369	-0.357	-0.346	-0.406	-0.397	-0.396	-0.388	-0.394	-0.419	-0.478	-0.499	-0.524	-0.346	-0.577	-0.774
395.0	182.9	257.0	247.1	226.5	212.4	179.1	137.6	125.0	115.8	116.1	120.5	127.1	120.8	107.4	95.65	84.86	76.52	72.38	74.02	70.18	71.47	65.37	62.25	62.83	67.09	119.0	96.72	31.33	14.98	12.45	11.98	28.77	118.4	315.9	935.9	1797	267.3	10.14	0.171	-0.170	-0.346	-0.354	-0.447	-0.330	-0.344	-0.113	-0.016	0.005	0.033	0.032	0.004	0.069	-0.047	-0.181	0.002	-0.179	-0.262	-0.476	-0.464	-0.328	-0.499	-0.581	-0.461	-0.504	-0.507	-0.541	-0.528	-0.457	-0.492	-0.573	-0.539	-0.517	-0.625	-0.638	-0.571	-0.469	-0.596
400.0	121.7	216.0	212.5	208.4	206.4	168.8	130.9	114.8	101.2	99.36	103.9	107.8	103.4	94.47	85.78	78.96	70.34	68.03	70.83	69.45	68.77	63.33	58.67	56.63	53.09	72.20	124.6	57.71	19.18	12.71	10.59	12.37	30.81	74.91	239.0	1257	1739	206.0	3.501	0.202	-0.191	-0.198	-0.488	-0.377	-0.414	-0.188	-0.205	-0.125	-0.177	0.022	-0.039	0.023	-0.065	-0.191	-0.048	-0.215	-0.271	-0.470	-0.428	-0.544	-0.539	-0.591	-0.565	-0.598	-0.543	-0.662	-0.713	-0.587	-0.588	-0.672	-0.521	-0.632	-0.692	-0.842	-0.737	-0.688	-0.528
