Sample:	'1
File name:	c2025052206¹ù¾®×Ó´å±±.FD3
Run date:	'13:01:34, 05/23/2025
Operator:	Administrator
Comment:	'

Instrument
Model:	F-2700 FL Spectrophotometer
Serial number:	23B8-004
ROM Version:	4J14000 07

Instrument parameters
Measurement type:	3-D scan
Data mode:	Fluorescence
EX  Start WL:	220.0 nm
EX  End WL:	600.0 nm
EX Sampling interval:	5.0 nm
EM  Start WL:	230.0 nm
EM  End WL:	650.0 nm
EM Sampling interval:	5.0 nm
Scan speed:	12000 nm/min
EX Slit:	5.0 nm
EM Slit:	5.0 nm
PMT Voltage:	700 V
Response:	Auto 
Corrected spectra:	Off
Contour interval:	50.000

Peak integration
Integration method:	Rectangular
Sensitivity:	1
Threshold:	1.000

Peaks
No.	ApexEX/EM(nm)	Height(Data)
1	225.0/340.0	2426
2	225.0/640.0	85.81
3	255.0/280.0	558.9
4	255.0/555.0	190.5
5	260.0/570.0	156.5
6	265.0/585.0	152.5
7	270.0/300.0	1606
8	270.0/375.0	1589
9	270.0/410.0	1619
10	270.0/600.0	146.7
11	275.0/305.0	1934
12	275.0/330.0	1808
13	275.0/610.0	139.4
14	280.0/625.0	114.0
15	460.0/340.0	6.983
16	545.0/300.0	8.556
17	555.0/305.0	9.832
18	560.0/310.0	9.345

Data points
	220.0	225.0	230.0	235.0	240.0	245.0	250.0	255.0	260.0	265.0	270.0	275.0	280.0	285.0	290.0	295.0	300.0	305.0	310.0	315.0	320.0	325.0	330.0	335.0	340.0	345.0	350.0	355.0	360.0	365.0	370.0	375.0	380.0	385.0	390.0	395.0	400.0	405.0	410.0	415.0	420.0	425.0	430.0	435.0	440.0	445.0	450.0	455.0	460.0	465.0	470.0	475.0	480.0	485.0	490.0	495.0	500.0	505.0	510.0	515.0	520.0	525.0	530.0	535.0	540.0	545.0	550.0	555.0	560.0	565.0	570.0	575.0	580.0	585.0	590.0	595.0	600.0
230.0	80.48	1522	3696	1290	52.37	8.930	7.215	6.264	5.906	5.204	5.139	5.116	4.331	3.733	3.331	2.713	2.455	2.542	1.897	1.825	1.728	1.622	1.438	1.358	1.327	1.336	1.127	1.160	1.041	1.063	0.943	0.909	0.847	0.798	0.685	0.698	0.622	0.581	0.584	0.562	0.606	0.694	0.694	0.542	0.478	0.502	2.034	8.274	12.98	9.166	3.277	0.714	0.403	0.324	0.337	0.321	0.315	0.361	0.348	0.316	0.304	0.318	0.288	0.295	0.364	0.307	0.318	0.315	0.331	0.305	0.321	0.322	0.297	0.313	0.297	0.311	0.304
235.0	137.8	423.4	2184	3638	625.0	84.09	9.971	7.540	6.004	5.648	4.951	4.590	4.655	4.151	3.151	2.591	2.641	2.383	1.834	2.019	1.713	1.625	1.552	1.386	1.324	1.213	1.196	1.245	1.043	1.041	0.919	0.930	0.815	0.806	0.700	0.679	0.683	0.597	0.598	0.591	0.563	0.639	0.614	0.721	0.664	0.519	0.791	2.264	5.127	8.699	11.66	12.28	5.880	1.275	0.434	0.331	0.350	0.374	0.367	0.339	0.356	0.348	0.367	0.345	0.341	0.339	0.296	0.272	0.374	0.302	0.300	0.303	0.266	0.334	0.302	0.323	0.310
240.0	158.0	190.0	635.5	2885	3809	510.8	42.54	9.860	6.965	7.085	6.199	5.393	4.949	4.459	3.292	2.996	2.799	2.303	2.305	2.174	1.936	1.613	1.665	1.552	1.535	1.118	1.117	1.155	1.201	0.973	0.982	1.027	0.797	0.815	0.662	0.754	0.614	0.630	0.586	0.573	0.543	0.567	0.558	0.610	0.790	0.786	0.682	0.815	1.494	2.653	6.591	15.21	18.74	12.66	4.654	0.828	0.403	0.358	0.338	0.311	0.366	0.310	0.301	0.325	0.361	0.307	0.306	0.397	0.337	0.371	0.372	0.332	0.317	0.273	0.282	0.305	0.285
245.0	119.5	201.4	207.2	952.8	3914	3725	379.4	21.55	8.800	7.410	7.113	6.111	5.408	4.404	3.894	3.284	2.406	2.425	2.457	1.996	1.747	1.633	1.709	1.539	1.741	1.198	1.160	1.192	1.170	1.086	1.163	1.059	0.938	0.750	0.736	0.722	0.591	0.643	0.623	0.526	0.512	0.503	0.465	0.549	0.590	0.703	0.871	0.769	0.753	0.881	1.753	5.062	13.05	22.08	21.40	11.55	3.247	0.633	0.438	0.325	0.327	0.378	0.334	0.372	0.324	0.337	0.333	0.373	0.355	0.296	0.312	0.344	0.310	0.301	0.336	0.291	0.327
250.0	60.56	135.1	205.2	291.1	1221	3633	4541	1423	97.02	9.795	8.623	6.869	5.997	5.316	4.372	3.543	2.912	2.781	2.292	2.088	1.955	1.766	1.672	1.576	1.772	1.306	1.331	1.272	1.322	1.110	1.090	0.989	0.825	0.855	0.746	0.745	0.704	0.635	0.611	0.649	0.528	0.566	0.624	0.588	0.520	0.566	0.594	0.826	0.944	0.819	0.854	1.517	3.360	7.117	13.16	19.75	25.75	19.93	11.74	3.474	0.595	0.392	0.353	0.349	0.319	0.381	0.368	0.324	0.353	0.283	0.327	0.319	0.322	0.317	0.338	0.384	0.319
255.0	45.66	56.77	138.1	252.5	351.4	903.6	3488	7745	2026	118.8	12.48	10.06	7.410	5.796	4.928	4.247	3.549	3.230	2.568	2.423	2.097	1.894	1.992	1.921	1.650	1.608	1.636	1.360	1.293	1.194	1.112	1.052	0.903	0.838	0.990	0.735	0.659	0.726	0.678	0.599	0.535	0.590	0.602	0.520	0.466	0.652	0.454	0.519	0.661	0.810	0.992	1.270	1.330	1.953	3.340	4.987	9.466	22.63	41.56	30.29	18.23	3.805	0.480	0.388	0.356	0.368	0.385	0.380	0.348	0.422	0.360	0.401	0.359	0.419	0.359	0.398	0.327
260.0	41.81	38.63	66.16	195.4	265.5	264.9	1021	5969	9171	1588	62.36	13.55	9.613	7.947	5.638	4.461	3.980	3.279	2.907	2.840	2.261	2.020	1.819	2.139	1.644	1.526	1.412	1.281	1.493	1.107	1.152	1.012	1.052	0.842	0.787	0.823	0.685	0.704	0.657	0.655	0.580	0.628	0.617	0.555	0.598	0.547	0.516	0.471	0.547	0.475	0.749	1.423	1.600	1.244	1.220	1.536	2.591	6.268	17.56	37.96	55.97	28.79	14.23	1.849	0.456	0.398	0.380	0.354	0.359	0.425	0.401	0.368	0.366	0.446	0.402	0.453	0.335
265.0	52.55	39.00	40.48	98.13	289.3	237.4	287.0	1898	9006	9870	1161	30.12	12.58	9.316	6.446	5.410	4.273	3.885	2.912	2.902	2.190	2.125	1.784	2.078	1.704	1.627	1.756	1.316	1.288	1.132	1.370	1.068	1.004	0.848	0.770	0.888	0.717	0.723	0.723	0.629	0.624	0.600	0.679	0.553	0.577	0.589	0.442	0.510	0.503	0.423	0.485	0.883	1.398	1.707	1.391	0.963	1.047	1.869	4.535	11.37	31.12	57.17	67.14	26.18	9.138	0.970	0.455	0.409	0.376	0.452	0.441	0.429	0.420	0.396	0.469	0.406	0.453
270.0	69.88	53.67	42.53	56.03	159.9	319.9	283.1	499.5	2689	8688	9999.9	3927	77.27	14.35	9.555	7.106	5.323	4.435	3.730	3.023	2.736	2.318	2.147	2.010	1.963	1.675	1.833	1.572	1.380	1.387	1.553	1.224	1.171	0.972	0.825	0.869	0.853	0.738	0.682	0.687	0.702	0.650	0.694	0.659	0.592	0.580	0.510	0.516	0.525	0.427	0.461	0.590	0.753	1.071	1.689	1.834	1.701	1.329	1.635	3.139	7.684	16.48	33.51	49.79	66.09	55.99	17.60	8.010	1.157	0.506	0.464	0.533	0.445	0.418	0.418	0.405	0.441
275.0	151.9	113.5	89.42	85.04	121.8	220.0	435.7	369.5	697.2	2122	6967	9999.9	1366	91.29	15.42	10.57	7.354	6.062	4.791	3.781	3.106	2.757	2.331	2.136	1.967	2.072	1.667	1.802	1.558	1.342	1.495	1.332	1.279	1.128	0.966	0.923	0.928	0.957	0.832	0.824	0.859	0.865	0.902	0.845	0.715	0.777	0.723	0.627	0.628	0.543	0.551	0.630	0.733	0.819	1.126	1.378	2.182	2.748	2.200	1.670	2.409	4.434	8.178	12.11	19.78	42.12	84.74	99.77	28.24	10.16	0.982	0.598	0.466	0.453	0.421	0.466	0.508
280.0	257.1	221.6	192.4	172.6	206.8	248.4	384.4	558.9	403.7	692.5	2060	9999.9	9999.9	1110	57.28	13.99	9.367	7.777	5.427	4.246	3.522	3.138	2.667	2.309	2.406	1.991	1.835	1.750	1.764	1.564	1.415	1.281	1.356	1.126	1.155	1.125	1.275	1.363	1.179	1.266	1.042	1.044	1.021	1.159	0.906	0.901	0.902	0.969	0.866	0.802	0.769	0.923	1.015	1.056	1.369	1.402	1.792	2.375	3.155	3.218	2.012	2.185	3.128	4.130	6.001	11.55	29.55	71.15	106.0	96.74	23.76	5.451	0.623	0.543	0.562	0.529	0.561
285.0	404.7	351.0	314.0	255.3	284.3	320.1	335.8	520.9	630.2	520.5	877.8	3169	9999.9	9999.9	801.9	29.05	13.32	8.625	6.488	5.276	4.399	3.501	3.001	2.761	2.449	2.311	2.126	1.805	1.735	1.579	1.426	1.342	1.312	1.317	1.490	1.258	1.319	1.500	1.424	1.475	1.373	1.253	1.304	1.217	1.196	1.302	1.235	1.392	1.266	1.045	1.060	1.272	1.395	1.367	1.567	1.622	1.685	1.942	2.240	3.377	3.753	3.210	2.552	2.745	3.303	4.935	8.604	19.59	42.83	90.52	119.1	34.16	18.30	2.581	0.656	0.619	0.577
290.0	609.8	591.6	506.8	405.0	402.6	408.7	389.7	423.7	710.2	911.6	887.3	1347	3309	9999.9	9999.9	3032	51.82	13.59	9.006	6.693	5.442	4.646	3.369	3.115	2.615	2.345	2.172	1.997	1.891	1.790	1.572	1.516	1.309	1.298	1.422	1.333	1.693	1.885	1.788	1.893	1.704	1.598	1.742	1.708	1.677	1.789	1.720	1.894	1.787	1.532	1.477	1.703	1.778	1.718	1.856	1.961	2.030	1.959	2.022	2.272	3.102	4.343	4.672	4.711	4.025	4.393	4.936	7.495	12.66	24.05	44.54	60.29	89.39	73.46	61.18	13.54	3.381
295.0	785.2	806.4	718.1	544.4	491.3	476.4	440.2	438.4	616.4	1048	1366	1180	1378	2589	6694	9999.9	4417	60.03	13.88	9.302	7.306	5.779	3.946	3.732	3.067	2.941	2.420	2.493	2.137	2.035	1.745	1.690	1.548	1.395	1.450	1.530	1.833	2.211	2.181	2.413	1.954	1.813	2.154	2.002	2.295	2.476	2.401	2.318	2.342	1.997	1.932	2.161	2.035	2.118	2.064	2.283	2.415	2.215	2.144	2.204	2.890	3.484	4.177	5.810	7.224	6.621	5.146	5.770	6.905	8.382	12.31	15.27	22.81	34.77	86.76	130.4	36.67
300.0	967.9	1011	854.1	645.1	557.2	502.2	482.5	500.0	663.0	1003	1606	1480	1122	1029	1886	9645	9999.9	676.3	39.59	12.57	8.545	6.824	4.873	4.170	3.614	3.200	2.878	2.446	2.084	1.929	1.777	1.686	1.636	1.427	1.469	1.669	1.922	2.321	2.317	2.523	2.199	2.218	2.417	2.227	2.365	2.689	2.700	2.713	2.647	2.229	2.198	2.370	2.241	2.292	2.480	2.119	2.338	2.514	2.463	2.662	3.249	3.437	4.205	5.166	6.818	8.556	7.461	6.792	6.170	5.693	5.726	5.854	6.922	9.569	24.62	62.46	106.8
305.0	1136	1155	1012	733.9	589.7	540.5	557.4	599.3	775.0	1086	1562	1934	1354	871.3	799.4	2789	9999.9	9999.9	534.6	22.96	11.18	8.218	5.801	4.819	3.894	3.636	3.055	2.450	2.392	2.100	2.118	1.793	1.680	1.542	1.449	1.692	1.947	2.433	2.463	2.660	2.258	2.492	2.660	2.419	2.703	2.950	2.927	3.254	3.108	2.705	2.372	2.634	2.407	2.395	2.535	2.232	2.581	2.855	2.702	3.171	3.617	3.860	4.761	5.680	6.490	7.778	8.900	9.832	7.807	6.034	5.240	4.548	4.180	4.396	7.122	15.87	34.30
310.0	1289	1302	1125	813.6	618.6	557.2	602.8	666.3	868.4	1179	1520	1863	1784	1124	715.5	933.9	2984	9999.9	9999.9	2201	37.01	11.41	7.891	6.130	4.805	4.043	3.327	2.866	2.690	2.378	2.261	1.909	1.754	1.691	1.702	1.712	1.913	2.452	2.718	2.603	2.485	2.840	2.856	2.828	2.935	3.389	3.233	3.576	3.519	2.771	2.476	2.645	2.616	2.413	2.503	2.512	2.660	2.865	3.027	3.402	3.973	4.548	5.058	5.998	6.685	7.263	7.863	9.093	9.345	8.803	7.050	5.656	4.623	3.900	4.102	5.554	9.378
315.0	1384	1472	1306	888.7	650.5	586.4	640.9	740.5	941.2	1230	1542	1753	1754	1546	907.9	613.2	928.8	2427	6475	9999.9	3323	42.14	11.25	8.360	5.589	4.719	3.647	3.294	3.152	2.777	2.646	2.196	2.101	1.731	1.766	1.750	1.905	2.549	2.453	2.666	2.650	2.801	3.054	3.154	3.310	3.814	3.825	4.151	3.895	3.321	2.766	2.774	2.758	2.610	2.586	2.531	2.820	2.995	3.304	3.788	4.012	4.775	5.573	6.265	6.501	7.256	7.736	8.156	8.573	7.994	8.567	8.524	6.369	4.902	4.068	3.836	4.254
320.0	1568	1709	1485	983.4	694.2	615.0	666.4	789.0	994.2	1271	1576	1764	1723	1588	1168	641.0	524.6	728.6	1680	8987	9999.9	508.1	27.69	10.42	7.565	5.837	4.617	4.037	3.284	2.865	2.788	2.494	2.111	1.868	1.830	1.780	1.987	2.296	2.525	2.652	2.880	2.996	3.153	3.244	3.705	4.029	4.300	4.712	4.268	3.724	3.112	2.963	2.946	2.540	2.564	2.650	3.022	3.256	3.610	3.803	4.337	5.249	5.798	6.464	6.805	7.403	7.568	7.961	8.327	7.797	8.559	8.437	8.131	6.828	4.615	3.916	3.419
325.0	1738	2018	1796	1166	755.8	629.9	695.2	817.0	1030	1309	1598	1793	1743	1532	1353	817.4	480.7	385.0	495.1	2528	9999.9	9999.9	406.3	17.85	9.355	7.240	5.099	4.135	3.453	3.058	2.799	2.587	2.090	1.958	1.794	1.800	2.047	2.302	2.731	2.785	2.796	3.034	3.380	3.529	4.029	4.665	4.980	5.499	5.115	4.359	3.572	3.519	3.144	2.625	2.893	2.746	3.239	3.544	3.723	4.164	4.494	5.320	5.837	6.482	7.103	7.531	8.193	7.722	8.172	8.011	8.020	7.629	7.620	8.059	6.562	4.774	3.787
330.0	1919	2222	2110	1399	893.1	716.9	742.1	859.1	1068	1332	1609	1808	1766	1538	1281	1008	651.9	377.9	282.1	674.8	2880	9517	9999.9	1757	29.94	9.632	6.728	5.420	4.110	3.821	3.269	2.879	2.477	1.900	2.023	1.892	2.101	2.364	2.719	2.799	2.845	3.231	3.434	3.776	4.490	5.069	5.420	6.162	5.992	5.167	4.124	4.117	3.640	3.185	3.163	3.017	3.348	3.534	4.010	4.505	4.714	5.268	5.807	6.472	7.075	7.789	8.168	8.241	8.506	8.419	8.196	7.666	7.363	7.249	6.578	6.292	5.694
335.0	2000	2388	2272	1588	1049	824.8	800.6	908.9	1102	1355	1612	1799	1784	1560	1277	974.7	845.3	526.5	299.2	309.9	750.3	2245	6574	9999.9	2735	34.23	10.08	7.072	5.265	4.338	3.697	3.274	2.805	2.318	1.958	2.132	2.092	2.416	2.533	2.763	2.929	3.509	3.484	4.249	4.856	5.280	5.567	6.672	6.400	5.652	4.823	4.607	4.119	3.689	3.370	3.267	3.804	3.741	4.151	4.408	4.811	5.236	5.866	6.721	7.312	7.367	8.224	8.199	8.403	8.332	8.064	7.674	7.396	6.997	6.383	5.740	5.639
340.0	2029	2426	2377	1705	1171	905.0	857.6	946.5	1137	1364	1607	1767	1767	1575	1295	965.7	826.2	697.4	383.3	270.7	312.9	603.3	1722	9042	9999.9	428.0	22.52	9.053	6.509	5.045	4.036	3.531	2.823	2.615	2.156	2.034	2.242	2.268	2.550	2.849	2.885	3.398	3.798	4.080	4.592	5.310	5.896	6.615	6.983	5.890	5.038	4.899	4.478	4.093	3.791	3.457	3.669	3.866	4.420	4.603	5.017	5.273	6.265	6.654	7.428	7.559	7.833	8.113	8.588	8.319	8.140	7.869	7.727	6.993	6.301	5.500	5.482
345.0	2063	2373	2362	1785	1249	967.3	914.4	995.6	1155	1373	1592	1709	1721	1564	1307	996.1	790.9	736.7	541.9	321.4	255.8	274.4	485.5	2614	9999.9	9999.9	350.8	14.32	8.495	5.979	4.745	3.664	3.215	2.677	2.384	2.046	2.231	2.340	2.526	2.736	3.060	3.271	3.716	4.167	4.798	5.414	5.645	6.726	6.932	5.976	5.242	5.276	4.742	4.482	4.277	3.689	3.939	4.191	4.451	4.945	5.039	5.339	6.373	6.773	7.180	7.278	7.912	7.683	8.084	8.332	7.996	8.061	7.396	7.356	6.189	5.872	5.477
350.0	1981	2324	2296	1799	1354	1094	1022	1064	1188	1374	1552	1653	1666	1532	1313	1039	833.3	708.3	654.1	498.9	331.5	267.9	264.0	696.8	2986	9101	7854	1503	25.63	8.334	5.847	4.504	3.579	2.769	2.473	2.162	2.315	2.383	2.429	2.772	2.969	3.266	3.522	3.954	4.391	5.206	5.609	6.202	6.513	5.708	5.107	5.639	5.233	4.922	4.665	4.108	4.615	4.573	4.745	5.012	5.271	5.667	6.246	6.636	6.866	7.144	7.467	7.701	7.824	8.211	7.894	7.575	7.324	7.330	6.598	5.967	5.674
355.0	1863	2211	2169	1813	1457	1232	1156	1165	1266	1402	1542	1617	1622	1501	1312	1083	903.1	763.3	667.3	650.7	504.5	347.4	285.7	327.0	785.8	2175	6089	9999.9	2272	28.83	8.208	6.129	4.349	3.634	2.616	2.375	2.471	2.371	2.570	2.789	2.806	3.260	3.394	3.890	4.358	5.083	5.282	5.907	6.342	5.607	5.104	5.782	5.640	4.851	5.025	4.649	4.806	5.076	5.013	5.420	5.700	6.057	6.343	6.802	7.378	7.095	7.509	7.503	7.617	7.661	7.721	7.768	7.833	6.928	6.588	6.208	6.068
360.0	1842	2122	2130	1822	1521	1322	1269	1252	1327	1425	1553	1604	1592	1488	1332	1120	957.5	822.6	711.6	670.4	645.4	455.0	341.2	286.9	333.6	595.2	1663	8765	9999.9	392.0	18.03	8.089	4.963	3.757	2.801	2.398	2.385	2.446	2.635	2.602	2.968	3.256	3.405	3.821	4.295	4.847	5.088	5.762	6.071	5.615	5.159	5.728	5.653	5.368	5.086	5.089	5.164	5.414	5.465	5.546	5.968	5.955	6.470	6.976	7.080	7.141	7.393	7.618	7.469	7.774	7.366	7.333	7.626	7.012	6.606	6.670	6.275
365.0	1827	2060	2062	1842	1567	1395	1321	1310	1374	1468	1574	1605	1565	1478	1336	1150	1006	883.2	778.6	701.2	692.6	593.4	424.0	328.6	272.7	275.9	473.2	2632	9999.9	9360	306.3	11.64	6.444	4.464	3.358	2.764	2.605	2.687	2.621	2.697	3.057	3.124	3.275	3.765	4.204	4.858	4.851	5.598	5.807	5.369	5.258	5.767	5.988	5.593	5.728	5.324	5.532	5.602	5.925	5.952	6.371	6.381	6.916	7.020	7.328	7.311	7.094	7.435	7.023	7.740	7.474	7.323	7.752	7.516	6.862	6.693	6.510
370.0	1728	1992	2016	1819	1643	1484	1411	1397	1435	1510	1585	1591	1546	1465	1339	1185	1063	955.1	861.1	773.9	717.8	688.9	584.4	424.9	324.3	261.4	249.5	685.1	3028	8730	7222	1311	21.27	6.742	4.596	3.565	2.822	2.822	2.820	2.808	2.995	3.204	3.459	3.771	4.118	4.698	4.729	5.540	5.691	5.363	4.966	5.869	6.188	5.886	6.080	5.748	5.776	5.885	6.060	6.140	6.340	6.709	6.816	7.122	7.252	7.503	7.213	6.972	7.304	7.265	7.197	7.329	7.401	7.421	7.216	6.926	6.923
375.0	1689	1953	1990	1831	1674	1554	1499	1468	1490	1523	1589	1581	1527	1470	1341	1214	1118	1021	940.7	859.8	781.8	717.8	700.9	581.3	412.4	323.5	254.2	293.4	766.9	2090	5986	9999.9	1906	23.95	6.531	4.452	3.433	3.105	2.993	3.156	3.068	3.384	3.381	3.815	4.138	4.605	4.803	5.286	5.576	5.118	4.793	5.737	6.284	6.276	6.286	5.910	6.260	6.143	6.381	6.458	6.328	6.680	6.964	7.267	7.307	7.061	7.043	7.027	6.971	6.873	7.410	7.596	7.190	7.491	6.741	6.758	7.101
380.0	1677	1896	1932	1810	1710	1594	1531	1501	1510	1549	1587	1572	1524	1448	1329	1230	1142	1062	986.0	915.3	840.4	763.4	720.7	682.1	507.0	384.4	297.6	243.3	293.7	550.2	1650	8203	9401	324.9	14.19	6.136	4.319	3.573	3.305	3.218	3.219	3.531	3.632	3.941	4.319	4.468	4.550	5.182	5.456	5.080	4.939	6.228	6.228	6.418	6.242	6.125	6.437	6.484	6.322	6.725	6.487	6.901	6.971	6.842	7.289	7.349	7.214	6.946	6.756	7.063	6.957	7.254	6.975	7.648	6.886	7.064	7.113
385.0	1689	1876	1878	1796	1727	1638	1570	1526	1527	1555	1570	1542	1519	1427	1325	1234	1156	1094	1021	955.7	887.4	811.6	741.8	706.3	617.2	451.4	345.9	269.5	219.0	232.2	447.2	2467	9303	7054	244.6	9.166	5.348	4.337	3.579	3.344	3.258	3.366	3.552	3.912	4.150	4.305	4.577	5.110	5.129	5.134	4.902	5.912	6.208	6.439	6.217	6.349	6.758	6.782	6.543	6.699	7.149	6.982	7.182	7.241	7.256	7.493	7.173	7.042	7.189	7.238	6.955	7.041	7.292	7.333	7.020	7.297	7.125
390.0	1648	1833	1853	1791	1748	1653	1594	1550	1543	1550	1551	1534	1486	1419	1320	1229	1160	1110	1058	996.6	929.0	858.0	792.6	722.5	674.8	576.7	430.7	332.1	254.6	205.8	211.3	628.9	2714	6506	5294	1031	17.90	5.848	4.465	3.854	3.518	3.640	3.822	4.123	4.222	4.476	4.765	5.084	5.246	5.194	5.065	5.874	6.244	6.499	6.368	6.356	6.910	6.818	6.547	6.907	6.806	7.026	7.022	6.948	7.065	7.057	6.961	6.963	7.054	7.090	7.030	7.052	7.187	7.000	7.006	7.127	7.194
395.0	1645	1788	1800	1772	1711	1691	1611	1593	1557	1559	1546	1528	1476	1410	1316	1239	1166	1123	1076	1033	972.4	907.7	848.6	781.0	708.4	663.0	569.6	422.9	328.9	257.8	209.7	253.3	680.2	1564	4235	7698	1561	21.47	6.323	5.021	4.255	4.122	3.888	4.129	4.252	4.586	4.610	5.195	5.079	5.089	4.836	5.898	6.120	6.229	6.574	6.237	6.754	6.696	6.967	6.970	6.813	6.793	7.144	6.902	6.825	7.465	6.946	6.748	7.001	7.229	7.025	6.838	7.248	7.351	7.038	7.310	7.332
400.0	1572	1773	1809	1771	1734	1655	1617	1601	1576	1581	1575	1546	1497	1415	1329	1243	1179	1136	1090	1047	1002	947.5	893.0	826.2	755.6	696.0	654.6	523.1	402.1	322.6	252.5	207.3	254.2	420.6	1168	5745	6733	281.0	14.20	5.758	4.555	4.334	4.131	4.232	4.435	4.770	4.270	5.139	5.032	5.174	4.938	6.041	6.154	6.587	6.669	6.194	6.817	7.141	6.886	7.178	7.363	7.233	7.284	7.003	7.090	7.330	7.037	6.915	6.718	6.882	7.298	7.270	7.229	7.329	7.291	7.244	7.394
405.0	1598	1749	1767	1764	1719	1664	1643	1617	1599	1595	1612	1566	1518	1428	1338	1247	1182	1138	1105	1062	1021	974.5	933.3	876.3	808.0	741.1	697.8	630.2	482.9	391.2	312.9	238.4	191.3	187.9	331.2	1698	6334	5148	220.9	8.850	5.461	4.812	4.406	4.194	4.536	4.712	4.401	5.132	5.030	5.157	4.991	6.090	6.183	6.447	6.715	6.495	7.020	7.243	6.774	7.040	6.933	6.860	7.051	6.935	7.193	7.137	6.887	6.743	6.951	7.056	7.179	7.374	7.324	7.285	7.102	7.094	7.331
410.0	1598	1724	1739	1723	1692	1668	1642	1618	1603	1606	1619	1572	1513	1436	1329	1238	1168	1121	1091	1056	1023	987.5	958.0	916.4	857.9	791.8	732.4	686.4	598.3	476.3	379.5	291.3	218.2	168.9	166.0	446.3	1820	4501	3939	947.3	17.08	5.718	5.366	4.725	4.841	4.901	4.505	5.120	5.079	4.944	4.780	5.828	6.357	6.183	6.631	6.333	6.764	6.986	7.124	6.948	6.974	6.807	6.954	7.012	7.101	6.715	7.083	6.779	6.778	7.024	7.062	7.096	7.112	7.242	6.901	7.136	7.422
415.0	1532	1681	1717	1683	1633	1638	1622	1607	1583	1581	1574	1535	1457	1390	1298	1191	1128	1087	1054	1026	997.1	973.7	952.1	915.1	869.2	817.8	751.4	688.0	641.0	557.1	432.3	329.8	247.9	184.0	144.0	177.8	460.2	1075	2831	5432	1355	19.77	6.363	5.174	4.957	4.930	4.539	5.118	5.229	4.820	4.612	5.464	6.185	6.318	6.504	6.281	6.570	6.994	6.907	6.716	7.088	6.704	6.920	6.898	7.060	6.700	6.587	6.414	6.649	6.726	6.902	6.807	6.792	7.006	7.107	6.841	6.787
420.0	1506	1614	1652	1606	1575	1584	1598	1571	1558	1545	1548	1499	1420	1341	1249	1143	1093	1046	1016	996.9	970.8	949.2	933.0	905.0	863.1	818.5	755.4	689.0	632.2	587.7	472.8	357.0	266.7	197.4	149.2	125.6	162.8	278.8	753.6	3756	4924	260.9	13.47	5.734	5.194	4.956	4.549	5.019	5.091	4.666	4.713	5.484	6.122	5.949	6.702	6.039	6.863	6.649	6.605	7.118	7.011	6.829	7.042	7.013	6.858	6.675	6.305	6.510	6.379	6.281	6.432	6.292	6.173	6.626	6.753	6.786	6.703
425.0	1447	1558	1603	1551	1544	1547	1548	1548	1544	1515	1526	1464	1383	1293	1198	1104	1042	1007	979.6	956.6	939.7	921.0	906.3	891.7	847.6	806.9	757.0	692.4	630.5	584.8	513.5	384.1	287.9	213.3	160.8	123.7	103.7	106.4	198.1	1060	4175	3896	212.3	8.184	5.553	4.945	4.756	5.229	4.895	4.600	4.312	5.102	5.648	5.946	6.399	5.845	6.380	6.498	6.799	6.636	6.828	6.878	6.506	6.588	6.870	6.389	6.378	6.223	6.456	6.011	6.043	5.998	6.381	6.370	6.496	6.383	6.191
