Sample:	'1
File name:	s02012东辰化工应急池.FD3
Run date:	'19:01:07, 07/27/2024
Operator:	horiz
Comment:	'

Instrument
Model:	F-2700 FL Spectrophotometer
Serial number:	23B8-004
ROM Version:	4J14000 07

Instrument parameters
Measurement type:	3-D scan
Data mode:	Fluorescence
EX  Start WL:	220.0 nm
EX  End WL:	600.0 nm
EX Sampling interval:	5.0 nm
EM  Start WL:	230.0 nm
EM  End WL:	650.0 nm
EM Sampling interval:	5.0 nm
Scan speed:	12000 nm/min
EX Slit:	5.0 nm
EM Slit:	5.0 nm
PMT Voltage:	700 V
Response:	Auto 
Corrected spectra:	Off
Contour interval:	50.000

Peak integration
Integration method:	Rectangular
Sensitivity:	1
Threshold:	1.000

Peaks
No.	ApexEX/EM(nm)	Height(Data)
1	225.0/310.0	1056
2	225.0/490.0	305.1
3	225.0/640.0	70.46
4	230.0/250.0	265.8
5	230.0/340.0	1430
6	230.0/500.0	293.1
7	235.0/255.0	350.2
8	235.0/510.0	257.1
9	240.0/265.0	384.3
10	240.0/525.0	225.6
11	245.0/270.0	386.9
12	245.0/535.0	187.9
13	250.0/275.0	491.4
14	250.0/545.0	158.8
15	255.0/280.0	597.2
16	255.0/560.0	136.2
17	260.0/575.0	121.1
18	265.0/380.0	748.6
19	265.0/585.0	141.6
20	270.0/300.0	1942
21	270.0/595.0	152.3
22	275.0/305.0	2216
23	275.0/610.0	147.8
24	280.0/625.0	113.4
25	300.0/335.0	554.1
26	305.0/345.0	484.0
27	310.0/350.0	420.8
28	315.0/355.0	407.3
29	320.0/360.0	406.2
30	325.0/370.0	383.3
31	330.0/375.0	376.6
32	335.0/380.0	381.3
33	350.0/400.0	297.8
34	365.0/420.0	227.4
35	395.0/460.0	92.65
36	410.0/480.0	54.49
37	415.0/485.0	47.84
38	430.0/505.0	28.56
39	445.0/525.0	17.39
40	460.0/340.0	4.621
41	480.0/260.0	2.220
42	485.0/265.0	2.558
43	495.0/270.0	2.493
44	505.0/275.0	3.606
45	510.0/280.0	3.933
46	520.0/285.0	4.279
47	530.0/290.0	5.163
48	545.0/300.0	10.03
49	550.0/305.0	11.15
50	560.0/310.0	10.11
51	570.0/315.0	8.132

Wavelength data
No.	EX/EM(nm)	Height(Data)	

Data points
	220.0	225.0	230.0	235.0	240.0	245.0	250.0	255.0	260.0	265.0	270.0	275.0	280.0	285.0	290.0	295.0	300.0	305.0	310.0	315.0	320.0	325.0	330.0	335.0	340.0	345.0	350.0	355.0	360.0	365.0	370.0	375.0	380.0	385.0	390.0	395.0	400.0	405.0	410.0	415.0	420.0	425.0	430.0	435.0	440.0	445.0	450.0	455.0	460.0	465.0	470.0	475.0	480.0	485.0	490.0	495.0	500.0	505.0	510.0	515.0	520.0	525.0	530.0	535.0	540.0	545.0	550.0	555.0	560.0	565.0	570.0	575.0	580.0	585.0	590.0	595.0	600.0
230.0	69.74	374.3	1310	595.8	42.85	10.43	7.727	6.900	5.530	4.676	4.633	4.059	3.524	2.911	2.541	2.078	1.793	1.592	1.599	1.365	1.396	1.216	1.139	1.071	1.046	0.955	0.907	0.919	0.891	0.858	0.868	0.859	0.729	0.698	0.693	0.662	0.697	0.625	0.615	0.605	0.607	0.739	0.831	0.680	0.539	0.571	0.752	2.454	5.217	5.040	2.611	0.887	0.498	0.445	0.486	0.472	0.491	0.521	0.489	0.513	0.458	0.473	0.467	0.517	0.523	0.517	0.538	0.528	0.517	0.539	0.541	0.520	0.504	0.539	0.485	0.568	0.557
235.0	148.3	131.6	650.5	1385	490.0	58.29	7.915	7.224	5.948	4.587	4.536	4.360	4.071	3.204	2.409	2.027	1.746	1.499	1.455	1.585	1.279	1.281	1.245	1.059	1.001	0.933	1.013	0.858	0.923	0.901	0.812	0.957	0.738	0.744	0.722	0.636	0.659	0.646	0.601	0.555	0.632	0.579	0.779	0.904	0.787	0.682	0.553	0.940	1.935	3.353	5.412	6.396	3.890	1.395	0.538	0.444	0.530	0.489	0.471	0.486	0.479	0.487	0.501	0.485	0.525	0.493	0.520	0.515	0.518	0.547	0.519	0.528	0.509	0.496	0.562	0.513	0.530
240.0	190.6	156.5	205.6	949.5	1516	387.5	28.88	8.129	6.267	5.172	4.812	4.100	3.480	2.914	2.530	2.207	1.884	1.680	1.390	1.590	1.290	1.218	1.081	1.031	1.031	0.931	0.924	0.912	0.837	0.944	0.777	0.858	0.752	0.706	0.715	0.630	0.658	0.672	0.589	0.611	0.683	0.539	0.588	0.770	0.923	0.998	0.882	0.632	0.867	1.186	2.570	6.538	9.012	7.249	3.494	1.027	0.524	0.534	0.539	0.498	0.547	0.510	0.473	0.565	0.535	0.588	0.502	0.542	0.510	0.496	0.532	0.541	0.550	0.549	0.553	0.493	0.498
245.0	120.7	242.5	135.7	302.2	1338	1583	288.8	13.19	6.381	5.956	5.184	4.393	3.572	2.772	2.711	2.226	2.101	1.573	1.601	1.646	1.294	1.229	1.116	1.076	1.081	0.931	0.912	0.946	0.948	0.983	0.924	0.848	0.870	0.711	0.720	0.609	0.713	0.663	0.564	0.620	0.615	0.589	0.530	0.657	0.665	0.964	1.074	1.131	0.761	0.659	0.950	2.204	5.137	9.370	10.96	6.940	2.468	0.806	0.516	0.595	0.588	0.538	0.463	0.515	0.529	0.489	0.554	0.520	0.504	0.496	0.552	0.528	0.518	0.559	0.567	0.478	0.538
250.0	65.13	168.1	265.8	189.8	411.6	1248	1769	776.3	58.77	7.178	6.146	4.820	4.323	3.078	2.771	2.390	2.037	1.938	1.580	1.523	1.223	1.249	1.141	1.165	1.101	0.993	0.912	0.930	0.913	0.977	0.886	0.796	0.846	0.761	0.674	0.636	0.701	0.680	0.632	0.638	0.600	0.570	0.609	0.584	0.556	0.648	0.706	1.081	1.234	1.174	0.899	0.941	1.608	3.022	5.727	8.640	11.58	10.93	6.500	2.334	0.732	0.484	0.523	0.497	0.496	0.568	0.523	0.556	0.572	0.526	0.565	0.555	0.537	0.582	0.608	0.516	0.573
255.0	51.95	63.42	171.7	350.2	210.1	322.7	1108	2540	1088	59.71	7.380	5.990	4.664	3.590	2.867	2.655	1.989	1.800	1.869	1.516	1.333	1.168	1.201	1.127	1.079	0.970	0.843	1.005	0.974	0.887	0.865	0.852	0.889	0.801	0.724	0.708	0.695	0.707	0.662	0.601	0.623	0.566	0.657	0.553	0.650	0.564	0.545	0.630	0.793	1.105	1.746	1.809	1.174	1.138	1.701	2.377	4.006	8.722	16.10	18.22	9.984	2.462	0.592	0.525	0.483	0.520	0.566	0.514	0.559	0.512	0.518	0.522	0.563	0.515	0.555	0.603	0.577
260.0	42.49	38.50	70.31	287.5	334.7	140.3	327.8	1773	2906	239.4	26.96	6.140	5.327	3.622	2.940	2.384	2.144	1.891	1.992	1.518	1.519	1.370	1.201	1.137	1.104	1.163	0.963	0.960	1.016	0.873	0.916	0.846	0.791	0.719	0.809	0.703	0.653	0.697	0.606	0.597	0.634	0.632	0.570	0.583	0.655	0.547	0.455	0.566	0.527	0.637	1.024	2.059	2.220	1.402	0.956	0.999	1.400	2.628	6.514	15.22	21.88	18.34	7.509	1.381	0.569	0.572	0.593	0.577	0.497	0.502	0.487	0.534	0.633	0.543	0.525	0.552	0.556
265.0	43.69	37.36	36.56	123.6	384.3	267.2	112.2	559.8	2573	2843	188.6	11.97	5.861	4.405	3.500	2.546	2.267	2.046	1.961	1.647	1.428	1.389	1.175	1.126	1.141	1.070	0.960	1.015	1.040	0.924	0.855	0.850	0.842	0.775	0.800	0.692	0.642	0.625	0.641	0.682	0.582	0.592	0.541	0.591	0.616	0.565	0.486	0.529	0.450	0.534	0.584	1.084	1.984	2.558	1.964	0.903	0.836	1.090	1.978	4.606	11.05	21.45	26.91	16.09	4.121	0.793	0.637	0.561	0.533	0.467	0.509	0.549	0.542	0.518	0.550	0.492	0.606
270.0	52.24	42.27	31.76	45.72	173.6	386.9	270.9	179.1	776.1	2390	2699	693.8	41.57	5.929	4.148	3.125	2.461	2.173	1.948	1.726	1.573	1.429	1.306	1.215	1.065	1.155	1.115	1.018	1.075	0.991	0.907	0.817	0.841	0.790	0.752	0.672	0.626	0.638	0.646	0.627	0.611	0.628	0.632	0.581	0.621	0.588	0.500	0.526	0.504	0.443	0.450	0.657	0.933	1.471	2.223	2.493	2.240	1.370	1.005	1.585	3.050	6.344	12.46	19.04	23.29	19.99	11.64	3.356	0.757	0.553	0.541	0.582	0.552	0.576	0.553	0.532	0.612
275.0	94.09	76.66	45.85	35.17	60.20	168.9	491.4	297.8	232.0	620.8	1889	4487	917.9	32.78	5.505	3.727	2.852	2.410	2.174	1.628	1.552	1.394	1.365	1.479	1.038	1.198	1.042	1.056	1.015	1.003	0.947	0.792	0.923	0.830	0.785	0.663	0.662	0.812	0.710	0.667	0.630	0.678	0.719	0.709	0.626	0.679	0.552	0.613	0.559	0.481	0.438	0.535	0.591	0.760	0.922	1.364	2.685	3.606	2.743	1.434	1.207	2.072	3.439	5.030	7.365	15.09	30.00	29.15	16.08	3.043	0.721	0.567	0.658	0.602	0.606	0.535	0.618
280.0	163.3	127.2	84.78	48.75	42.02	71.73	304.8	597.2	239.5	233.3	607.1	3155	4371	136.0	15.45	4.745	3.070	2.636	2.208	2.054	1.618	1.508	1.347	1.313	1.168	1.289	1.077	1.174	1.050	1.000	1.072	0.875	0.945	0.842	0.805	0.847	0.815	0.864	0.741	0.824	0.732	0.768	0.850	0.875	0.780	0.737	0.646	0.727	0.703	0.554	0.530	0.595	0.607	0.643	0.753	0.821	1.374	2.589	3.933	3.653	1.749	1.179	1.632	1.935	2.555	4.573	10.85	24.51	38.27	26.63	10.61	1.571	0.595	0.607	0.662	0.555	0.549
285.0	255.6	244.5	176.6	90.35	57.77	56.37	139.0	535.4	599.6	243.1	322.7	1096	4111	3514	102.1	7.899	4.259	3.103	2.458	2.139	1.687	1.698	1.477	1.424	1.259	1.303	1.047	1.112	1.098	0.962	1.034	0.923	0.870	0.882	0.806	1.017	0.975	1.006	0.943	0.942	0.866	0.882	1.013	1.006	1.032	1.087	0.923	1.053	0.890	0.681	0.578	0.660	0.660	0.678	0.747	0.747	0.898	1.239	2.231	4.253	4.279	2.815	1.648	1.679	1.823	2.332	3.781	7.592	17.12	31.50	33.12	21.88	5.965	0.891	0.710	0.630	0.637
290.0	452.7	496.3	388.8	204.2	107.1	90.16	135.2	314.1	735.1	858.3	676.3	814.3	1553	3148	3274	389.8	21.51	4.345	3.055	2.442	2.028	1.759	1.545	1.536	1.294	1.262	1.196	1.145	1.098	1.079	1.120	0.930	0.947	0.975	1.033	1.202	1.235	1.282	1.064	1.074	1.015	1.100	1.234	1.272	1.354	1.623	1.484	1.610	1.506	1.209	0.907	0.898	0.782	0.735	0.804	0.802	0.971	1.093	1.434	2.313	3.369	4.666	5.163	4.558	3.475	3.361	3.835	4.601	6.613	10.30	15.57	24.36	26.36	26.87	15.10	5.495	1.105
295.0	716.5	769.4	626.8	338.8	166.4	133.2	187.9	315.9	595.1	1201	1504	1185	1123	1121	1977	3952	532.9	16.69	3.918	2.927	2.324	2.059	1.744	1.632	1.447	1.416	1.231	1.189	1.103	1.155	1.071	0.953	1.099	1.139	1.205	1.412	1.514	1.416	1.312	1.224	1.293	1.263	1.413	1.719	1.734	2.060	2.093	2.397	2.166	1.694	1.287	1.306	1.070	0.950	0.993	1.047	1.289	1.165	1.556	2.218	2.699	3.518	4.785	7.074	8.237	6.580	5.669	5.433	5.711	6.217	6.663	7.462	7.932	13.95	30.68	33.48	23.07
300.0	837.1	956.2	761.0	420.4	215.6	172.1	226.6	373.4	630.6	1121	1942	1597	1226	749.8	646.2	2678	3535	79.21	8.379	3.616	2.620	2.196	1.950	1.595	1.657	1.490	1.269	1.265	1.350	1.215	0.993	1.031	1.092	1.172	1.393	1.686	1.811	1.669	1.470	1.333	1.306	1.457	1.556	1.839	2.049	2.486	2.492	2.843	2.638	1.984	1.466	1.457	1.260	1.071	1.149	1.123	1.424	1.479	1.915	2.186	2.591	3.612	4.387	5.880	8.410	10.03	9.285	7.149	6.514	5.851	5.294	4.134	3.435	4.328	9.577	20.23	38.37
305.0	892.9	1055	863.8	471.9	259.0	219.0	274.5	439.4	699.5	1131	1807	2216	1428	751.1	344.9	799.5	3213	2719	62.45	5.361	3.307	2.428	2.069	1.746	1.848	1.584	1.382	1.341	1.169	1.108	1.077	1.022	0.970	1.096	1.423	1.710	1.826	1.820	1.502	1.408	1.420	1.549	1.634	1.985	2.319	2.567	2.755	3.083	2.934	2.093	1.572	1.510	1.366	1.139	1.264	1.223	1.683	1.725	2.121	2.496	2.931	3.857	4.595	5.692	7.283	9.024	11.15	10.95	8.312	6.542	5.357	3.898	2.699	2.430	3.133	5.713	13.25
310.0	878.9	1056	876.6	507.7	282.7	244.7	312.7	473.2	735.6	1127	1599	2024	1871	914.1	317.2	285.5	930.8	2318	2483	268.3	14.57	3.290	2.685	2.349	1.862	1.758	1.447	1.347	1.233	1.230	1.124	1.049	1.036	1.115	1.482	1.734	1.817	1.697	1.501	1.447	1.448	1.586	1.714	1.842	2.299	2.630	2.738	3.144	2.924	2.312	1.729	1.619	1.450	1.395	1.363	1.409	1.790	1.907	2.128	2.844	3.098	3.922	4.644	5.623	6.722	7.478	8.925	9.616	10.11	9.274	6.830	4.338	2.751	2.107	1.853	2.368	4.034
315.0	827.3	1006	867.5	512.1	304.7	273.0	329.4	473.4	710.9	1046	1441	1640	1615	1241	423.0	200.2	302.5	593.3	1472	2923	391.8	11.84	3.359	2.723	2.043	1.843	1.482	1.320	1.355	1.253	1.276	1.063	1.026	1.059	1.373	1.660	1.722	1.617	1.476	1.377	1.427	1.343	1.605	1.852	2.196	2.572	2.772	3.148	2.885	2.349	1.840	1.635	1.461	1.445	1.491	1.444	1.806	1.940	2.257	2.853	3.221	3.905	4.568	5.356	6.275	6.720	7.776	7.580	8.009	7.971	8.132	6.917	3.956	2.486	1.814	1.790	1.965
320.0	805.6	1055	925.4	564.4	326.1	290.5	338.1	471.8	686.1	984.0	1313	1459	1347	1171	695.7	238.2	185.0	212.7	412.5	1973	2578	59.97	6.455	3.143	2.294	1.941	1.618	1.409	1.475	1.268	1.257	1.154	1.025	1.072	1.283	1.475	1.670	1.501	1.302	1.361	1.417	1.337	1.497	1.820	2.302	2.574	2.846	3.370	3.100	2.580	2.037	1.738	1.644	1.487	1.596	1.545	1.820	2.014	2.459	2.691	2.969	3.633	4.324	5.085	6.034	6.282	6.792	6.595	6.769	6.410	6.572	6.645	5.993	4.193	2.487	1.810	1.925
325.0	840.5	1200	1156	713.6	378.6	305.6	348.9	467.8	659.3	927.4	1222	1357	1228	932.4	832.2	418.9	196.9	150.8	157.9	577.7	2330	2031	48.89	4.366	2.822	2.055	1.868	1.522	1.579	1.398	1.267	1.268	1.075	1.205	1.314	1.536	1.487	1.479	1.271	1.210	1.280	1.378	1.697	1.913	2.198	2.804	3.234	3.768	3.712	3.106	2.457	2.069	1.774	1.768	1.700	1.548	1.960	2.123	2.417	2.579	3.148	3.271	4.226	4.857	5.608	6.215	6.138	6.311	6.384	5.810	5.518	4.895	5.443	5.654	4.527	2.916	2.062
330.0	835.2	1273	1326	869.8	477.8	347.3	359.2	456.7	619.0	836.5	1083	1200	1099	807.8	642.4	610.2	368.4	178.6	128.5	193.4	676.7	1721	1892	217.5	13.14	2.704	2.259	1.713	1.598	1.447	1.426	1.223	1.139	1.125	1.234	1.298	1.461	1.326	1.259	1.156	1.286	1.408	1.568	1.838	2.310	2.885	3.353	4.130	4.234	3.677	3.074	2.630	2.214	1.870	1.846	1.804	2.031	2.095	2.389	2.604	2.902	3.336	3.784	4.483	4.946	5.544	5.513	5.726	5.836	5.511	5.005	4.462	3.927	4.106	4.376	4.433	3.994
335.0	818.4	1273	1384	981.1	563.5	396.4	376.7	453.4	579.4	742.8	953.1	1065	982.3	758.2	546.2	486.7	554.1	309.5	152.1	130.6	215.7	440.6	1172	2333	332.5	11.97	2.827	2.284	1.647	1.558	1.411	1.258	1.305	1.236	1.178	1.197	1.433	1.261	1.141	1.158	1.201	1.356	1.530	1.879	2.143	2.749	3.301	4.413	4.423	4.010	3.352	3.169	2.786	2.161	1.935	1.963	2.142	2.280	2.331	2.514	2.879	3.107	3.636	3.861	4.396	5.011	4.967	5.043	5.094	5.207	4.821	4.165	3.796	3.456	3.400	3.340	4.148
340.0	810.9	1273	1430	1040	635.3	452.8	420.3	472.0	564.1	700.7	873.7	973.3	916.4	729.0	538.3	430.1	478.2	477.2	217.8	136.2	130.0	154.4	334.7	1609	2112	252.6	5.360	2.690	2.002	1.586	1.541	1.314	1.229	1.217	1.118	1.231	1.220	1.232	1.096	1.071	1.141	1.375	1.466	1.847	2.012	2.941	3.363	4.200	4.621	4.152	3.397	3.491	2.822	2.376	2.209	2.190	2.283	2.308	2.361	2.652	3.159	3.176	3.547	3.571	4.178	4.425	4.818	4.833	4.945	4.884	4.436	3.999	3.959	3.472	3.261	3.021	3.225
345.0	725.7	1167	1388	1055	701.0	506.9	459.2	483.5	563.9	674.3	816.7	888.2	852.4	700.3	546.4	430.1	386.6	484.0	360.6	169.5	129.6	110.4	130.7	477.5	1892	1726	43.84	3.706	2.332	1.783	1.649	1.306	1.216	1.257	1.260	1.155	1.125	1.260	1.056	1.193	1.175	1.369	1.398	1.759	1.894	2.598	3.174	4.022	4.477	3.996	3.503	3.380	2.895	2.575	2.498	2.470	2.475	2.710	2.633	2.880	2.925	3.335	3.472	3.667	3.880	4.163	4.394	4.706	4.669	4.591	4.337	3.978	3.598	3.582	3.167	3.132	3.049
350.0	666.7	1077	1265	1045	756.5	603.4	538.3	537.4	578.7	664.1	754.7	806.1	785.9	668.0	546.8	450.2	377.7	374.8	420.8	314.4	175.3	131.2	111.2	166.1	555.7	1385	1512	196.4	12.71	2.465	1.786	1.605	1.321	1.121	1.241	1.130	1.160	1.146	1.114	1.086	1.121	1.337	1.311	1.640	1.887	2.405	2.859	3.647	4.023	3.717	3.282	3.484	3.283	2.923	2.832	2.634	2.804	2.730	2.897	2.940	2.923	3.271	3.440	3.609	3.699	3.923	4.147	4.177	4.263	4.181	4.035	3.868	3.495	3.674	3.283	3.113	3.020
355.0	628.0	930.5	1135	1014	821.5	693.3	626.4	615.8	641.6	684.1	736.8	762.6	738.7	652.9	560.0	475.7	404.6	351.9	347.6	407.3	310.5	176.9	135.8	123.0	184.6	356.5	881.5	1835	315.8	13.71	2.426	1.824	1.462	1.224	1.132	1.118	1.033	1.178	1.137	1.098	1.204	1.237	1.332	1.528	1.937	2.182	2.669	3.386	3.772	3.680	3.250	3.600	3.432	3.307	3.091	2.908	3.202	3.325	3.212	3.113	3.404	3.335	3.755	3.647	3.763	4.098	3.984	3.907	4.085	4.015	4.160	3.835	3.776	3.668	3.642	3.153	3.315
360.0	589.4	883.1	1042	987.3	867.8	759.6	693.9	674.9	674.0	695.4	734.7	747.2	714.2	651.4	567.5	497.8	424.3	369.6	335.6	362.4	406.2	255.7	166.5	133.1	117.5	132.6	251.8	1193	1771	259.8	6.443	2.161	1.726	1.410	1.141	1.162	1.212	1.201	1.081	1.218	1.132	1.193	1.479	1.516	1.733	2.135	2.458	3.228	3.507	3.307	3.454	3.721	3.634	3.583	3.289	3.092	3.488	3.560	3.511	3.355	3.368	3.500	3.697	3.714	3.741	3.881	3.886	3.566	3.811	3.956	4.065	3.568	3.762	3.536	3.578	3.389	3.641
365.0	568.3	847.0	1007	975.0	892.2	805.1	732.5	699.2	701.8	708.2	725.6	735.5	703.9	648.7	570.2	506.3	444.3	396.8	351.3	333.8	390.1	366.1	213.5	156.7	121.1	97.63	100.9	346.5	1456	1592	44.10	3.721	2.149	1.577	1.392	1.173	1.100	1.047	1.074	1.192	0.990	1.216	1.294	1.483	1.752	2.052	2.332	2.917	3.360	3.160	3.128	3.475	3.672	3.824	3.487	3.430	3.769	3.726	3.554	3.553	3.729	3.689	3.887	3.841	3.783	3.846	3.796	3.774	4.033	3.743	3.755	3.721	3.875	3.910	3.715	3.554	3.560
370.0	553.0	779.5	944.1	948.1	903.0	842.1	785.5	738.8	728.0	739.8	735.9	726.6	690.2	642.2	575.4	520.7	464.1	422.8	379.5	349.9	347.5	383.3	333.9	212.6	150.7	113.5	87.93	119.7	415.4	1148	1374	185.7	12.86	2.085	1.668	1.361	1.243	1.221	1.189	1.177	1.076	1.203	1.252	1.418	1.711	2.006	2.204	2.811	3.006	3.083	3.065	3.585	3.777	3.642	3.828	3.845	3.906	3.860	3.620	3.551	3.685	3.895	3.717	3.834	3.742	3.859	3.804	3.822	3.877	3.805	3.690	3.656	3.727	3.748	3.645	3.561	3.593
375.0	529.5	730.3	903.9	935.4	920.9	863.5	818.8	768.7	744.8	744.7	740.5	720.0	679.4	632.1	579.7	527.0	485.0	451.4	411.9	379.5	355.1	348.7	376.6	327.8	200.6	147.0	109.8	88.17	134.8	289.0	740.7	1559	291.0	13.99	2.300	1.501	1.534	1.203	1.242	1.126	1.140	1.169	1.271	1.393	1.587	1.924	2.013	2.520	2.817	2.886	2.965	3.413	3.709	3.854	3.967	3.965	4.011	3.988	3.621	3.821	3.845	3.998	3.838	3.991	3.812	3.793	3.657	3.588	3.651	3.688	3.894	3.564	3.706	3.682	3.897	3.453	3.929
380.0	498.8	693.3	861.6	907.2	915.6	880.9	819.8	783.4	740.0	748.6	742.1	719.6	677.4	629.3	567.5	527.4	490.7	460.3	428.4	400.7	371.2	349.4	350.0	381.3	274.5	176.8	132.2	96.69	83.84	101.5	205.3	956.1	1443	230.9	6.614	1.886	1.634	1.275	1.329	1.171	1.225	1.123	1.307	1.397	1.490	1.798	2.015	2.426	2.720	2.882	2.872	3.370	3.902	4.037	4.174	3.863	3.970	3.992	3.805	3.841	3.909	3.875	3.985	4.197	3.850	3.748	3.894	3.660	3.533	3.659	3.745	3.705	3.491	3.646	3.547	3.516	3.729
385.0	494.1	676.3	831.8	875.9	903.3	880.7	825.8	772.6	746.5	743.3	736.9	713.3	671.4	617.6	565.9	524.0	495.3	464.6	438.8	411.1	383.4	356.2	335.7	357.2	348.1	222.6	153.8	113.3	85.83	67.08	79.01	268.7	1083	1248	37.26	3.606	1.815	1.500	1.322	1.140	1.124	1.204	1.381	1.416	1.549	1.851	1.927	2.579	2.566	2.559	2.918	3.383	3.767	3.903	3.830	3.859	3.970	4.119	3.780	4.114	3.936	3.841	4.008	3.943	3.822	3.691	3.859	3.934	3.705	3.554	3.698	3.660	3.505	3.648	3.501	3.701	3.709
390.0	479.2	661.7	808.9	854.4	889.8	873.6	818.4	767.3	750.3	733.7	721.7	689.0	651.6	600.3	555.7	512.3	491.8	465.6	443.2	418.4	395.1	368.5	341.6	326.9	339.7	300.9	199.5	139.0	104.5	78.74	63.25	90.75	301.1	825.7	987.2	353.0	12.40	2.019	1.466	1.326	1.179	1.308	1.409	1.442	1.632	1.792	1.936	2.331	2.573	2.587	2.753	3.405	3.635	3.832	3.728	3.561	4.013	3.939	3.784	3.908	3.758	3.781	3.953	3.831	3.804	3.731	3.619	3.672	3.645	3.702	3.544	3.500	3.557	3.569	3.549	3.552	3.760
395.0	470.0	631.6	774.0	839.1	855.4	854.2	816.0	766.0	742.9	716.9	699.8	669.5	636.8	584.4	535.8	503.7	481.2	462.2	439.0	419.4	402.9	379.2	354.6	325.7	305.3	310.2	276.3	175.8	128.7	97.65	73.52	61.90	96.13	206.9	494.3	1127	250.6	14.43	2.066	1.523	1.355	1.354	1.454	1.460	1.431	1.695	2.059	2.416	2.473	2.510	2.727	3.279	3.551	3.702	3.716	3.688	4.085	3.788	3.743	3.826	3.662	3.682	4.008	3.589	3.629	3.803	3.550	3.612	3.383	3.586	3.454	3.520	3.528	3.578	3.560	3.542	3.697
400.0	497.5	606.0	764.8	805.6	840.2	828.0	798.9	758.9	726.6	707.5	681.5	654.7	617.4	568.9	521.7	491.6	467.5	452.4	432.0	420.5	400.8	382.4	354.8	331.4	298.8	283.4	297.8	226.7	148.7	114.6	87.15	66.95	58.69	70.78	136.5	633.8	1048	206.1	7.139	2.008	1.507	1.294	1.493	1.417	1.525	1.942	2.065	2.456	2.459	2.460	2.640	3.403	3.456	3.364	3.630	3.587	3.874	3.847	3.822	3.754	3.639	3.758	3.770	3.683	3.567	3.673	3.407	3.501	3.361	3.358	3.533	3.479	3.416	3.501	3.389	3.283	3.521
405.0	483.5	632.0	731.4	783.2	810.1	809.4	787.0	734.7	707.5	688.8	669.5	633.7	602.7	559.1	505.6	474.2	459.7	440.2	427.2	415.4	394.0	376.6	353.7	331.6	297.6	271.5	273.3	268.9	182.8	129.5	99.72	75.68	55.84	46.21	52.09	176.6	742.8	913.6	33.91	3.600	1.817	1.534	1.414	1.525	1.547	1.873	1.847	2.419	2.469	2.422	2.477	3.182	3.241	3.417	3.503	3.474	3.701	3.542	3.749	3.601	3.611	3.776	3.825	3.631	3.488	3.443	3.377	3.317	3.409	3.300	3.289	3.201	3.296	3.480	3.412	3.230	3.604
410.0	474.4	586.5	701.5	751.3	774.7	779.2	766.2	724.1	692.5	671.2	647.3	613.0	578.0	530.0	485.7	454.1	439.2	421.8	407.4	394.2	380.8	363.9	347.0	324.7	297.8	271.4	250.0	254.9	236.6	166.6	117.8	89.89	65.98	49.88	39.33	59.31	202.6	564.0	720.2	281.5	11.71	1.912	1.599	1.579	1.643	1.869	1.788	2.321	2.216	2.419	2.309	2.970	3.162	3.349	3.379	3.372	3.653	3.531	3.552	3.636	3.604	3.543	3.774	3.508	3.542	3.279	3.209	3.394	3.304	3.232	3.215	3.161	3.163	3.333	3.300	3.224	3.301
