Sample:	'1
File name:	Default_20230511_143022.FD3
Run date:	'14:24:01, 05/11/2023
Operator:	user
Comment:	'

Instrument
Model:	F-2700 FL Spectrophotometer
Serial number:	2190-003
ROM Version:	4J14000 07

Instrument parameters
Measurement type:	3-D scan
Data mode:	Fluorescence
EX  Start WL:	220.0 nm
EX  End WL:	600.0 nm
EX Sampling interval:	5.0 nm
EM  Start WL:	230.0 nm
EM  End WL:	650.0 nm
EM Sampling interval:	5.0 nm
Scan speed:	12000 nm/min
EX Slit:	5.0 nm
EM Slit:	5.0 nm
PMT Voltage:	700 V
Response:	Auto 
Corrected spectra:	Off
Contour interval:	50.000

Peak integration
Integration method:	Rectangular
Sensitivity:	1
Threshold:	1.000

Peaks
No.	ApexEX/EM(nm)	Height(Data)
1	225.0/580.0	36.28
2	225.0/610.0	34.97
3	225.0/625.0	42.49
4	230.0/555.0	44.57
5	230.0/635.0	28.55
6	235.0/560.0	38.42
7	235.0/620.0	30.40
8	240.0/580.0	24.15
9	240.0/600.0	32.57
10	245.0/265.0	222.7
11	245.0/530.0	132.5
12	245.0/565.0	33.76
13	250.0/365.0	 4937
14	250.0/540.0	118.8
15	250.0/580.0	36.86
16	255.0/280.0	359.3
17	255.0/555.0	116.3
18	260.0/285.0	500.8
19	260.0/565.0	111.8
20	265.0/240.0	14.30
21	265.0/580.0	101.9
22	270.0/595.0	107.5
23	270.0/640.0	65.70
24	275.0/235.0	10.40
25	275.0/305.0	 1510
26	275.0/605.0	135.2
27	280.0/245.0	8.222
28	280.0/310.0	 1458
29	280.0/615.0	109.9
30	285.0/315.0	 1347
31	285.0/630.0	81.73
32	290.0/240.0	3.759
33	290.0/640.0	54.52
34	295.0/245.0	2.810
35	295.0/255.0	3.935
36	300.0/250.0	3.420
37	305.0/260.0	4.129
38	305.0/340.0	643.8
39	310.0/345.0	573.0
40	315.0/240.0	3.267
41	315.0/250.0	3.165
42	315.0/355.0	480.3
43	320.0/360.0	484.5
44	320.0/600.0	8.163
45	325.0/365.0	447.1
46	335.0/245.0	1.997
47	335.0/275.0	2.855
48	335.0/380.0	393.2
49	340.0/385.0	398.4
50	345.0/265.0	2.237
51	345.0/390.0	348.3
52	350.0/395.0	340.7
53	355.0/235.0	1.740
54	355.0/405.0	335.3
55	355.0/605.0	4.740
56	355.0/625.0	4.144
57	360.0/260.0	1.084
58	360.0/305.0	2.646
59	360.0/410.0	298.0
60	365.0/415.0	284.0
61	370.0/270.0	1.716
62	370.0/425.0	270.1
63	375.0/285.0	1.648
64	375.0/430.0	236.5
65	380.0/240.0	1.182
66	380.0/640.0	1.610
67	405.0/235.0	1.350
68	405.0/305.0	1.592
69	410.0/315.0	1.181
70	415.0/250.0	1.084
71	415.0/485.0	76.76
72	430.0/505.0	42.38
73	445.0/525.0	23.61
74	455.0/535.0	16.40
75	460.0/545.0	13.39
76	465.0/550.0	10.23
77	495.0/360.0	15.54
78	495.0/595.0	2.186
79	495.0/620.0	1.492
80	500.0/355.0	14.46
81	500.0/600.0	2.085
82	510.0/280.0	2.079
83	515.0/285.0	2.167
84	540.0/300.0	4.404
85	540.0/600.0	1.511
86	545.0/305.0	4.292
87	550.0/325.0	3.973
88	555.0/310.0	4.686
89	565.0/315.0	3.938

Data points
	220.0	225.0	230.0	235.0	240.0	245.0	250.0	255.0	260.0	265.0	270.0	275.0	280.0	285.0	290.0	295.0	300.0	305.0	310.0	315.0	320.0	325.0	330.0	335.0	340.0	345.0	350.0	355.0	360.0	365.0	370.0	375.0	380.0	385.0	390.0	395.0	400.0	405.0	410.0	415.0	420.0	425.0	430.0	435.0	440.0	445.0	450.0	455.0	460.0	465.0	470.0	475.0	480.0	485.0	490.0	495.0	500.0	505.0	510.0	515.0	520.0	525.0	530.0	535.0	540.0	545.0	550.0	555.0	560.0	565.0	570.0	575.0	580.0	585.0	590.0	595.0	600.0
230.0	0.033	78.33	 1184	 1220	96.99	9.745	2.560	4.889	8.338	6.677	3.455	2.941	3.370	1.529	2.804	1.588	0.797	0.439	0.914	1.763	1.199	1.430	1.059	0.766	1.301	0.723	0.123	0.637	0.498	0.728	0.308	0.476	0.650	0.559	0.221	0.551	0.993	0.742	0.113	0.229	0.087	0.117	0.438	0.306	0.421	0.411	0.291	1.164	2.925	2.889	1.484	0.461	0.222	0.290	-0.062	0.102	0.396	0.347	0.187	0.172	0.195	0.352	0.111	-0.118	-0.136	-0.029	-0.072	-0.200	0.142	-0.227	-0.169	0.253	0.159	-0.144	0.042	0.235	-0.159
235.0	29.13	13.20	402.8	 1747	 1453	130.3	2.629	2.945	9.090	10.80	2.227	10.40	5.318	2.195	2.280	0.286	1.106	1.685	-0.046	2.044	1.025	-0.403	1.371	1.753	0.056	-0.161	-0.231	1.740	-0.025	0.552	0.188	-0.198	0.673	0.587	0.193	0.352	0.739	1.350	0.736	0.492	-0.145	0.693	-0.138	0.221	0.191	0.561	0.411	0.701	1.221	2.016	4.061	5.096	1.694	0.179	-0.040	0.142	0.368	0.764	0.108	0.168	0.275	-0.018	0.167	-0.431	-0.213	0.281	0.343	-0.252	0.081	0.335	-0.125	-0.067	0.023	0.127	-0.117	-0.036	0.162
240.0	26.67	15.89	97.42	787.9	 2427	 1347	80.11	8.970	6.949	14.30	5.390	5.726	7.847	0.103	3.759	1.634	1.563	1.847	1.907	3.267	1.102	0.019	1.700	1.727	0.352	0.526	-0.182	0.985	0.711	0.466	-0.253	-0.233	1.182	0.165	0.622	0.625	0.326	0.397	0.677	0.174	-0.307	0.181	0.213	0.604	-0.083	0.330	0.535	0.394	0.154	0.689	1.992	4.871	6.550	5.509	1.202	0.218	0.133	0.105	0.148	0.156	0.262	0.162	-0.402	0.129	-0.661	0.028	0.598	-0.113	0.259	0.211	-0.042	-0.102	0.033	0.058	-0.024	-0.201	-0.546
245.0	19.03	23.15	50.78	189.0	 1325	 2842	 1167	35.07	5.858	11.14	1.604	5.473	8.222	1.557	2.378	2.810	2.555	0.895	1.691	1.693	0.470	1.780	0.882	1.997	0.536	0.427	0.724	-0.082	-0.433	-0.382	-0.438	-0.396	0.565	0.653	0.469	0.383	0.427	0.730	0.617	0.270	-0.663	0.535	0.143	1.138	-0.015	0.591	0.456	0.377	-0.329	0.002	0.935	1.814	4.248	8.713	7.708	4.154	0.854	0.376	0.220	0.024	0.256	0.298	0.042	0.252	0.039	-0.102	0.119	0.102	-0.078	0.623	0.050	0.046	-0.256	0.207	0.163	0.027	-0.262
250.0	22.49	-13.66	65.52	84.56	335.7	 1455	 3072	 2304	323.0	13.48	8.929	4.798	6.667	1.154	1.674	1.408	3.420	0.834	0.670	3.165	1.630	0.559	1.034	1.241	0.378	0.403	-0.004	-0.241	0.738	0.529	0.186	-0.397	1.054	0.436	0.678	0.411	0.120	0.638	0.973	1.084	0.409	0.312	0.441	0.327	-0.024	0.460	0.231	0.404	-0.081	0.115	0.393	0.403	1.204	2.606	4.746	8.239	9.861	9.134	4.449	0.833	0.265	0.435	0.119	0.190	0.298	0.204	0.079	-0.277	-0.150	0.105	-0.213	-0.231	0.088	0.126	-0.071	0.432	0.044
255.0	43.31	-8.606	32.03	97.63	148.7	346.6	 1102	 4507	 4341	362.0	12.63	9.936	7.083	-0.565	2.164	3.935	2.123	3.736	1.465	1.047	2.372	0.264	0.582	1.179	0.536	1.447	0.817	-0.458	0.852	0.617	-0.859	-0.448	1.160	-0.270	-0.071	0.762	-0.246	-0.047	0.567	0.507	-0.211	0.206	0.108	0.736	0.248	0.555	0.266	0.212	0.220	0.533	0.848	0.628	0.651	0.754	1.634	1.782	3.444	9.029	16.71	15.74	6.852	1.222	-0.054	-0.350	0.064	-0.314	0.075	-0.504	-0.125	0.145	0.269	0.052	-0.161	-0.276	0.172	0.340	-0.202
260.0	36.04	3.196	45.96	51.96	168.0	155.3	275.7	 1950	 6674	 1443	198.7	9.501	7.250	1.139	3.286	2.644	1.413	4.129	0.090	1.197	1.440	1.359	1.182	0.210	1.182	1.471	1.210	-0.297	1.084	0.941	0.576	0.407	-0.011	0.434	-0.129	0.811	0.185	0.145	0.971	-0.053	0.047	0.213	0.306	0.484	0.147	0.435	0.083	-0.101	0.265	0.454	0.605	0.494	0.609	0.593	0.702	0.697	1.272	2.450	7.751	17.81	22.21	14.44	3.972	0.216	-0.089	0.134	0.345	-0.157	-0.357	0.517	-0.175	-0.182	0.201	-0.086	0.298	-0.072	0.077
265.0	6.292	34.47	16.54	23.56	123.4	222.7	96.23	484.8	 3392	 7837	 1206	64.77	10.14	8.586	2.392	4.248	3.443	2.436	-1.207	0.729	2.397	1.180	1.609	0.389	0.769	2.237	-0.081	1.244	0.488	0.408	1.379	1.125	0.305	0.431	0.409	0.394	0.035	0.443	0.786	0.295	-0.180	0.156	0.740	0.631	-0.336	0.163	0.648	0.236	0.112	0.761	0.233	0.557	0.772	1.279	0.700	0.276	0.119	0.568	1.484	5.392	13.31	24.70	24.86	11.78	1.025	-0.180	0.114	0.170	0.122	-0.240	-0.331	-0.059	-0.029	0.212	0.484	-0.287	-0.026
270.0	21.46	26.68	34.54	15.81	41.74	159.7	238.6	183.5	840.0	 3599	 7358	 4400	335.5	10.39	6.722	4.644	5.351	2.514	1.208	1.245	3.214	1.280	0.887	1.107	0.762	1.024	0.403	1.101	-0.302	0.336	1.716	0.640	0.420	0.109	0.597	0.592	0.864	0.318	0.290	0.274	-0.149	-0.115	0.254	0.386	0.256	0.144	0.881	0.290	-0.065	0.479	0.196	0.229	0.370	0.419	0.858	1.020	0.872	0.473	0.506	1.564	2.882	7.433	14.28	21.59	25.59	20.28	8.803	1.028	0.422	0.210	-0.321	0.485	0.034	0.338	0.147	-0.238	-0.044
275.0	55.28	26.11	43.89	17.19	28.33	53.51	193.5	338.2	265.4	837.2	 2333	 9165	 6632	367.1	4.765	5.673	4.695	3.510	1.528	1.506	2.515	0.991	2.240	2.855	0.745	1.826	1.003	1.093	1.587	0.550	0.738	1.151	0.828	-0.242	0.533	0.517	0.542	0.592	1.012	-0.144	-0.152	-0.132	-0.006	0.115	0.514	0.872	0.713	0.353	-0.115	0.190	0.347	0.322	0.012	0.070	0.463	0.103	1.443	1.386	1.084	1.125	0.714	1.600	3.489	5.226	9.073	21.98	38.51	31.20	11.38	1.372	-0.484	-0.135	0.106	0.394	0.140	0.022	-0.645
280.0	47.85	43.84	23.67	40.15	33.51	16.74	85.32	359.3	345.9	249.6	581.3	 3522	9999.9	 5046	169.1	10.16	5.229	5.973	2.671	2.295	2.282	1.475	2.521	1.774	0.532	1.034	0.848	0.633	0.621	0.236	0.568	0.706	0.856	0.069	0.509	0.441	0.009	0.317	1.052	-0.706	-0.205	-0.420	0.349	-0.123	0.162	0.968	0.756	0.245	0.206	0.414	0.106	0.062	0.260	0.036	0.465	0.845	1.154	1.126	2.079	1.682	0.330	0.273	1.305	1.458	2.596	5.539	16.47	35.27	44.94	26.81	4.532	0.067	0.060	-0.082	-0.184	0.214	0.131
285.0	37.04	38.05	51.75	46.66	26.20	25.13	52.10	194.1	500.8	248.3	197.3	892.5	 4892	9999.9	 3314	54.18	8.391	6.818	3.932	3.484	2.314	3.006	1.686	1.188	0.605	1.149	1.515	0.990	1.101	0.494	0.588	1.648	0.589	0.705	0.679	0.203	0.462	-0.415	0.671	0.028	-0.119	-0.092	0.374	0.388	0.120	0.062	0.664	0.838	0.247	0.431	0.278	0.131	0.310	-0.406	0.444	0.634	0.454	0.271	1.367	2.167	1.616	1.026	0.651	0.532	0.824	1.585	4.370	9.873	27.21	45.25	39.40	15.28	1.592	-0.045	-0.459	0.356	0.106
290.0	61.19	51.99	67.20	65.18	53.29	52.04	72.01	119.4	317.3	552.4	377.4	380.3	 1303	 4870	9999.9	 5252	200.0	9.225	5.603	6.061	4.148	2.968	1.602	2.129	0.912	1.779	1.781	0.272	0.784	1.028	0.849	1.101	0.619	0.478	0.318	0.197	0.483	0.592	0.611	0.844	0.337	0.445	0.094	0.506	0.478	0.324	0.281	0.214	0.883	0.250	0.458	0.455	0.257	0.342	-0.013	0.401	0.507	0.663	0.716	0.938	1.243	2.245	1.701	1.174	1.117	1.112	1.273	2.509	6.781	13.69	23.13	31.79	33.08	25.24	10.50	1.871	0.092
295.0	53.06	73.56	90.96	121.2	88.35	95.70	158.8	224.7	315.9	522.1	965.6	628.3	650.9	 1355	 3110	9999.9	 3963	236.0	9.173	6.362	5.384	4.164	2.077	2.960	2.675	1.705	0.973	-0.190	1.691	0.448	1.207	0.624	-0.103	0.881	0.621	0.152	1.033	1.194	0.548	0.375	0.335	0.856	0.579	0.312	0.106	0.255	0.332	0.189	0.751	0.569	0.568	0.508	0.766	0.141	0.366	0.833	0.926	0.790	1.235	0.711	0.906	1.664	2.266	3.307	3.368	2.184	1.182	1.960	2.515	4.495	5.722	7.576	11.61	28.92	48.11	36.04	11.88
300.0	61.60	59.26	86.80	157.1	138.3	174.9	282.9	375.7	499.0	653.8	 1044	 1146	755.4	694.1	941.4	 4042	9999.9	 3171	136.9	7.946	3.947	3.217	2.852	4.113	1.841	0.968	0.897	1.448	1.936	0.495	0.805	0.247	-0.230	0.720	1.231	-0.241	0.722	0.946	0.212	-0.323	0.152	0.325	0.286	0.706	0.461	0.037	0.473	0.352	1.094	0.629	0.464	1.530	0.533	0.942	0.905	0.572	0.951	1.029	1.388	1.762	1.395	1.988	2.632	2.969	4.404	3.741	3.034	2.178	2.140	2.160	2.070	2.015	3.709	7.619	20.76	42.44	48.65
305.0	82.08	84.37	155.6	164.0	190.6	270.6	365.7	501.8	667.8	828.6	 1022	 1510	 1072	684.5	517.5	 1090	 5313	9999.9	 2396	51.85	8.222	5.131	4.828	3.230	1.368	1.676	1.332	1.460	2.646	1.192	0.780	0.459	0.469	0.501	0.514	0.582	1.124	1.592	0.453	0.067	-0.103	0.513	-0.041	0.518	0.201	0.028	0.633	0.324	0.467	0.526	0.248	0.901	1.184	0.906	1.172	1.009	1.208	2.130	1.439	2.042	2.850	2.504	2.467	2.918	3.778	4.292	4.165	3.901	2.497	1.990	1.750	1.471	1.705	2.438	5.272	12.61	30.49
310.0	76.09	85.35	188.8	196.5	229.1	297.4	433.0	625.2	797.4	990.0	 1131	 1335	 1458	 1073	532.6	453.1	 1337	 4977	 9204	 4576	149.5	9.676	4.882	4.995	2.168	2.597	1.578	1.997	2.620	1.861	1.238	1.088	0.909	0.596	0.879	0.362	0.724	0.221	0.346	0.474	0.674	0.857	0.642	0.472	0.322	0.362	0.318	0.340	0.506	0.537	0.766	0.636	0.481	1.098	1.258	1.592	1.285	2.460	1.906	2.557	2.820	2.805	3.185	3.191	3.109	3.441	3.610	4.686	4.206	3.458	2.683	1.709	1.345	1.062	1.485	3.580	7.227
315.0	72.22	110.7	197.5	221.1	264.1	350.3	501.7	717.5	873.8	 1088	 1202	 1237	 1269	 1347	753.9	351.6	420.3	 1179	 2840	 9609	 6676	200.1	7.783	5.940	3.624	2.696	2.866	1.675	2.018	0.593	1.091	0.817	1.756	1.485	0.759	0.074	0.349	0.206	1.181	0.733	0.902	0.949	0.224	0.042	0.382	0.487	0.534	0.352	0.152	0.498	0.386	0.835	1.434	1.091	1.328	1.697	2.017	2.714	1.902	2.987	3.174	3.281	3.303	3.569	3.356	3.614	2.799	2.865	3.720	3.938	3.729	2.740	2.090	0.686	0.588	0.752	1.699
320.0	59.60	163.3	220.6	323.0	346.2	459.5	573.4	759.9	913.4	 1119	 1188	 1213	 1161	 1141	 1085	451.0	238.0	346.7	693.8	 3768	9999.9	 2353	125.1	6.783	4.553	3.954	2.683	3.353	0.776	1.407	2.110	0.446	1.337	1.018	0.690	-0.087	0.773	0.337	0.521	0.826	1.022	-0.046	-0.009	0.160	-0.036	0.531	0.223	0.411	0.476	1.057	1.203	1.160	1.664	1.239	1.324	1.762	2.404	2.572	2.529	3.095	2.810	3.404	3.429	3.464	3.419	3.110	3.663	2.850	3.520	3.511	2.460	3.360	2.934	1.128	-0.037	0.809	1.169
325.0	121.9	209.0	301.5	426.6	488.6	611.2	782.5	910.1	 1005	 1130	 1164	 1164	 1087	956.2	 1021	658.8	254.0	180.0	222.5	914.6	 4914	 9767	 1895	55.76	5.633	5.101	3.006	3.999	1.542	0.776	2.344	0.759	0.952	0.388	1.264	0.909	0.421	0.356	0.040	0.438	0.866	0.640	0.213	0.297	0.206	1.199	0.723	0.682	0.871	0.650	1.515	1.385	1.902	1.087	1.722	2.496	2.718	3.118	2.709	2.701	4.010	3.304	3.542	3.518	3.957	2.949	3.973	3.156	3.375	2.612	3.440	2.393	3.147	3.146	0.836	0.472	1.296
330.0	111.0	260.1	494.1	716.9	932.3	 1091	 1306	 1330	 1300	 1320	 1217	 1128	 1028	891.0	768.0	738.9	527.0	229.3	154.4	276.6	 1198	 4380	 7388	 4314	124.5	8.000	4.956	3.564	2.814	1.690	1.582	1.648	1.412	0.797	1.239	0.908	0.690	0.793	0.973	0.686	1.027	0.387	0.731	0.202	0.518	0.884	0.969	0.977	1.212	1.336	2.007	2.222	2.672	2.687	3.117	4.286	4.436	4.449	4.149	4.062	4.486	4.159	3.978	3.373	3.326	3.041	3.189	3.422	3.015	2.668	2.771	2.051	2.503	2.724	2.208	2.649	1.859
335.0	142.7	405.5	768.9	 1226	 1682	 2047	 2144	 2037	 1816	 1623	 1332	 1102	987.6	857.8	721.9	587.3	641.9	469.7	210.0	171.9	340.4	 1026	 2318	 7986	 5911	175.5	6.685	5.531	2.400	2.108	2.876	1.576	1.601	1.100	0.925	0.201	0.775	0.839	0.284	0.687	0.118	0.523	0.280	0.067	0.751	1.103	1.113	0.936	1.780	2.154	2.896	3.542	5.050	5.094	6.148	6.805	6.752	6.193	6.533	5.681	5.849	4.937	5.556	3.683	3.534	2.601	2.910	2.547	2.733	2.296	2.328	1.985	1.705	1.552	1.022	2.555	2.627
340.0	252.1	494.6	 1009	 1699	 2329	 2717	 2887	 2669	 2209	 1933	 1433	 1053	963.9	842.7	700.8	553.8	528.2	643.8	373.6	179.4	164.2	291.3	566.1	 3164	 9052	 1874	119.8	5.737	2.985	3.469	2.455	2.600	2.266	1.655	0.862	1.163	0.569	0.775	0.707	0.957	0.314	1.078	0.189	1.114	1.426	1.358	1.249	1.914	2.643	3.295	3.429	5.313	6.974	7.519	7.616	8.917	8.673	7.479	7.693	7.923	7.513	5.641	5.039	3.744	4.273	2.828	2.584	2.293	2.599	2.050	2.188	1.966	2.168	1.314	1.259	1.840	2.173
345.0	259.5	610.1	 1219	 2083	 2858	 3423	 3490	 3089	 2631	 2202	 1523	 1052	919.0	856.9	721.2	567.8	481.0	562.5	573.0	264.5	154.1	145.7	180.1	774.9	 4312	 8381	 1619	66.10	6.502	3.057	3.863	1.962	2.259	1.955	1.582	1.280	0.742	1.253	0.772	0.817	0.728	0.595	0.379	1.621	1.921	1.266	1.959	2.284	3.399	3.405	4.624	6.779	7.715	9.679	10.15	11.58	12.08	10.08	9.203	8.656	7.454	6.699	6.199	4.305	3.639	3.115	3.076	1.997	2.064	2.189	1.786	2.339	2.226	1.638	1.536	1.031	1.591
350.0	306.3	746.7	 1430	 2443	 3376	 4075	 4246	 3747	 3034	 2444	 1600	 1022	887.0	826.7	724.9	598.9	490.9	464.7	536.9	453.2	246.2	143.9	117.9	228.0	 1050	 3842	 6393	 3821	113.4	7.637	3.921	3.025	2.077	1.520	1.298	0.841	0.556	1.050	0.953	1.106	0.928	0.423	0.325	1.062	0.967	1.177	2.511	2.947	3.374	4.797	5.544	7.942	9.515	12.03	12.50	13.42	13.24	11.75	11.30	8.978	8.384	7.703	6.428	4.455	3.511	3.211	2.268	2.360	1.939	2.340	1.812	2.237	2.124	1.970	1.529	1.770	1.663
355.0	342.7	895.6	 1648	 2618	 3867	 4444	 4749	 4131	 3398	 2628	 1654	 1025	852.3	787.6	725.6	615.5	512.9	467.7	448.3	480.3	431.4	215.4	132.7	128.9	292.6	897.6	 2102	 6618	 5031	158.5	6.500	3.218	2.380	1.152	1.356	0.178	1.539	0.901	1.064	1.363	1.151	1.436	1.047	0.718	0.898	1.527	2.125	2.937	4.256	4.955	5.954	9.517	11.06	13.34	13.61	14.14	14.46	13.57	12.10	10.41	8.646	8.614	6.950	5.414	3.815	3.278	2.893	2.666	2.340	2.137	2.650	1.494	1.988	1.746	1.886	1.509	1.316
360.0	300.3	932.9	 1741	 2786	 4073	 4672	 4914	 4348	 3520	 2682	 1711	996.2	820.0	755.4	722.7	637.2	544.1	494.7	435.4	408.1	484.5	325.3	164.3	125.3	139.2	251.6	514.2	 2643	 7608	 1669	108.5	5.200	4.096	1.382	1.099	1.657	1.016	0.744	0.776	0.803	0.906	1.101	1.230	0.531	0.578	1.592	2.531	3.356	5.048	5.359	6.684	10.28	11.34	14.64	14.03	15.54	14.27	13.82	12.17	11.13	8.876	8.965	7.872	5.268	3.874	2.630	2.741	2.189	1.961	2.465	1.695	2.094	1.697	1.685	1.729	2.301	1.829
365.0	320.6	871.1	 1686	 2783	 3985	 4817	 4937	 4367	 3484	 2649	 1663	959.9	781.1	737.4	706.0	636.2	580.4	521.9	459.0	390.1	410.1	447.1	250.1	147.8	120.7	121.4	162.9	648.8	 3657	 7195	 1455	59.36	4.238	3.476	2.414	1.463	1.275	1.267	1.049	0.976	0.330	0.818	1.253	0.808	0.745	1.168	2.037	3.351	4.254	4.986	6.514	9.852	11.25	13.66	14.38	15.25	14.14	15.04	12.39	11.76	8.873	8.335	7.136	6.045	3.528	2.520	2.747	2.339	2.139	2.163	2.217	2.499	2.150	2.141	1.361	2.133	1.945
370.0	349.5	822.7	 1663	 2734	 3762	 4608	 4767	 4159	 3290	 2572	 1585	908.2	756.2	719.6	693.3	647.7	579.9	538.8	483.1	403.8	366.2	395.7	388.0	234.8	148.3	119.3	106.5	195.9	898.6	 3259	 5684	 3358	94.16	5.604	3.179	2.423	1.166	1.150	0.982	1.068	0.534	0.457	1.182	0.975	1.058	1.762	2.368	3.638	3.975	4.811	6.500	9.834	11.10	12.21	13.60	13.97	14.31	13.57	12.32	11.36	9.122	8.144	7.127	5.662	3.219	2.414	2.820	2.272	2.231	2.065	2.084	2.546	2.461	2.329	1.976	1.543	2.321
375.0	338.0	702.3	 1574	 2529	 3489	 4303	 4437	 3793	 3064	 2360	 1477	858.3	719.3	684.7	676.0	627.1	579.0	546.4	497.0	429.2	378.4	338.8	371.6	381.7	223.9	147.3	117.4	115.6	247.4	764.7	 1865	 5903	 4282	127.3	5.648	2.964	2.115	1.248	1.457	1.149	0.434	0.768	1.088	0.945	1.082	2.108	1.838	2.724	3.208	4.627	6.209	8.572	9.834	12.50	12.10	13.48	12.85	12.47	11.42	10.15	9.253	7.686	6.601	4.910	3.262	2.095	2.227	2.213	2.036	1.842	2.309	2.143	1.903	2.365	1.706	2.079	1.770
380.0	257.7	708.6	 1374	 2377	 3224	 3954	 4085	 3543	 2805	 2214	 1360	842.6	694.7	676.8	658.5	606.1	588.5	560.8	510.9	442.6	395.2	343.2	324.3	393.2	332.6	184.8	134.3	108.7	117.8	217.3	457.5	 2413	 6573	 1352	81.89	4.296	2.690	1.298	1.869	1.828	1.335	0.735	0.889	0.811	1.190	2.234	2.279	2.987	3.338	4.474	5.849	8.645	9.865	11.47	11.75	11.81	11.46	11.52	10.71	9.462	8.225	6.753	5.738	4.224	3.123	2.408	2.206	1.999	1.766	2.385	2.691	1.751	2.061	1.680	1.929	1.790	2.024
385.0	258.9	641.0	 1260	 2225	 3008	 3628	 3743	 3227	 2624	 2048	 1273	797.7	672.1	652.5	641.1	598.8	571.5	543.4	510.1	453.5	400.3	354.0	319.1	340.3	398.4	253.5	153.4	122.1	102.7	103.0	143.5	592.9	 3241	 5834	 1110	33.12	4.224	1.587	1.531	1.977	1.202	0.605	1.090	0.719	1.073	0.966	1.323	2.300	3.311	4.094	5.572	8.172	8.490	10.46	10.16	10.51	10.35	11.14	9.600	8.412	7.440	6.805	5.504	3.548	3.255	1.989	2.405	1.586	1.444	2.462	2.174	1.873	2.080	1.580	1.703	1.213	1.539
390.0	229.3	572.8	 1096	 1828	 2569	 3127	 3232	 2809	 2261	 1779	 1169	734.4	618.4	618.7	611.1	581.2	551.2	530.6	503.6	458.4	408.5	368.2	330.2	314.6	339.7	348.3	244.3	153.5	119.6	100.1	85.91	172.3	795.0	 2724	 4396	 2365	69.90	3.851	1.735	1.631	1.259	1.377	0.872	0.976	1.190	1.203	1.499	2.060	2.571	3.156	4.954	6.278	7.500	8.595	8.742	9.597	9.860	9.472	8.914	7.465	6.111	5.589	5.231	3.714	3.116	2.703	1.908	1.673	1.711	1.896	2.178	1.287	1.529	1.281	1.462	1.301	1.729
395.0	178.6	495.4	991.8	 1566	 2180	 2546	 2664	 2393	 1955	 1519	 1016	687.2	587.6	588.9	576.3	560.7	532.1	506.2	481.5	459.6	416.5	377.5	342.5	319.1	310.0	320.9	340.7	222.0	144.5	119.5	92.07	89.31	212.3	633.9	 1518	 4600	 2959	91.50	3.098	1.948	1.399	1.537	1.248	1.042	0.519	0.861	1.760	1.568	2.758	2.722	4.185	5.673	5.853	7.627	7.828	8.243	9.069	8.110	7.176	6.275	5.260	4.541	4.469	3.453	2.280	2.039	1.262	1.988	2.023	2.282	1.782	2.005	2.143	1.414	1.953	1.297	2.195
400.0	170.5	413.4	832.9	 1400	 1875	 2250	 2318	 2113	 1687	 1366	933.2	648.8	593.3	550.5	552.7	539.6	505.8	493.6	472.9	449.3	413.0	382.4	350.9	323.5	304.4	283.8	334.4	307.7	183.4	135.0	104.6	84.07	91.83	171.0	368.5	 2016	 4861	 1074	55.14	2.593	1.455	1.976	0.806	0.560	1.062	0.871	1.296	2.392	2.540	2.554	3.433	4.581	5.606	6.161	6.338	7.156	7.213	6.707	4.708	5.435	4.472	4.048	4.470	2.735	2.230	1.912	1.463	1.291	1.628	1.547	1.993	1.401	1.547	1.719	2.438	1.599	1.735
