Sample:	'1
File name:	Default_20230216_152551.FD3
Run date:	'15:19:30, 02/16/2023
Operator:	dsjg
Comment:	'

Instrument
Model:	F-2700 FL Spectrophotometer
Serial number:	2198-001
ROM Version:	4J14000 07

Instrument parameters
Measurement type:	3-D scan
Data mode:	Fluorescence
EX  Start WL:	220.0 nm
EX  End WL:	600.0 nm
EX Sampling interval:	5.0 nm
EM  Start WL:	230.0 nm
EM  End WL:	650.0 nm
EM Sampling interval:	5.0 nm
Scan speed:	12000 nm/min
EX Slit:	5.0 nm
EM Slit:	5.0 nm
PMT Voltage:	700 V
Response:	Auto 
Corrected spectra:	Off
Contour interval:	50.000

Peak integration
Integration method:	Rectangular
Sensitivity:	1
Threshold:	1.000

Peaks
No.	ApexEX/EM(nm)	Height(Data)
1	225.0/495.0	63.86
2	225.0/625.0	3.588
3	230.0/350.0	144.1
4	230.0/505.0	71.50
5	230.0/620.0	3.574
6	235.0/260.0	157.0
7	235.0/380.0	140.4
8	235.0/520.0	69.81
9	240.0/265.0	173.8
10	240.0/400.0	152.6
11	240.0/530.0	64.58
12	245.0/270.0	161.7
13	245.0/540.0	56.39
14	250.0/275.0	196.6
15	250.0/445.0	126.6
16	250.0/550.0	48.17
17	255.0/280.0	219.5
18	255.0/560.0	39.84
19	260.0/405.0	133.6
20	260.0/575.0	32.58
21	265.0/585.0	33.17
22	270.0/300.0	307.2
23	270.0/595.0	27.55
24	275.0/305.0	330.6
25	275.0/610.0	23.08
26	280.0/310.0	279.4
27	280.0/360.0	130.7
28	280.0/385.0	149.3
29	280.0/405.0	140.9
30	280.0/620.0	19.92
31	285.0/315.0	264.4
32	285.0/630.0	13.79
33	290.0/325.0	252.3
34	295.0/330.0	197.8
35	300.0/335.0	201.1
36	305.0/345.0	186.9
37	310.0/350.0	163.5
38	315.0/355.0	161.7
39	320.0/360.0	163.9
40	325.0/370.0	139.0
41	330.0/375.0	137.4
42	335.0/380.0	150.5
43	340.0/385.0	132.6
44	345.0/395.0	112.7
45	350.0/400.0	121.9
46	355.0/405.0	115.6
47	365.0/420.0	91.18
48	370.0/425.0	85.21
49	380.0/440.0	63.89
50	385.0/445.0	55.65
51	395.0/460.0	39.79
52	400.0/465.0	35.64
53	410.0/480.0	24.52
54	415.0/485.0	21.59
55	420.0/490.0	17.90
56	430.0/505.0	13.77
57	435.0/510.0	11.00
58	440.0/520.0	9.631
59	445.0/525.0	8.480
60	450.0/530.0	6.817
61	460.0/545.0	4.772
62	520.0/285.0	1.583
63	530.0/290.0	1.358
64	540.0/295.0	1.596
65	545.0/300.0	1.889
66	550.0/305.0	1.790
67	560.0/310.0	1.661
68	570.0/315.0	1.614
69	575.0/320.0	1.578
70	585.0/325.0	1.483

Data points
	220.0	225.0	230.0	235.0	240.0	245.0	250.0	255.0	260.0	265.0	270.0	275.0	280.0	285.0	290.0	295.0	300.0	305.0	310.0	315.0	320.0	325.0	330.0	335.0	340.0	345.0	350.0	355.0	360.0	365.0	370.0	375.0	380.0	385.0	390.0	395.0	400.0	405.0	410.0	415.0	420.0	425.0	430.0	435.0	440.0	445.0	450.0	455.0	460.0	465.0	470.0	475.0	480.0	485.0	490.0	495.0	500.0	505.0	510.0	515.0	520.0	525.0	530.0	535.0	540.0	545.0	550.0	555.0	560.0	565.0	570.0	575.0	580.0	585.0	590.0	595.0	600.0
230.0	26.32	414.4	584.3	99.94	2.067	0.876	0.748	0.596	0.523	0.490	0.449	0.302	0.378	0.297	0.162	0.180	0.194	0.242	0.209	0.129	0.131	0.160	0.138	0.133	0.151	0.115	0.124	0.107	0.129	0.123	0.087	0.088	0.113	0.098	0.112	0.224	0.230	0.176	0.161	0.153	0.182	0.205	0.198	0.154	0.106	0.110	0.254	1.025	2.128	1.923	0.679	0.147	0.076	0.057	0.059	0.051	0.037	0.038	0.036	0.036	0.030	0.026	0.019	0.026	0.012	0.013	0.015	0.010	0.012	0.021	0.004	0.005	0.004	-0.002	-0.010	-0.009	-0.002
235.0	22.30	128.2	550.6	650.2	134.3	3.392	1.023	0.662	0.800	0.623	0.435	0.517	0.603	0.254	0.163	0.150	0.170	0.210	0.244	0.138	0.171	0.240	0.129	0.136	0.228	0.112	0.140	0.119	0.113	0.105	0.111	0.096	0.087	0.065	0.086	0.148	0.200	0.182	0.149	0.200	0.181	0.198	0.165	0.275	0.203	0.135	0.166	0.285	0.787	1.618	2.229	2.689	1.287	0.207	0.079	0.081	0.033	0.024	0.017	0.028	0.014	0.016	0.028	0.020	0.014	0.021	0.023	0.017	0.009	0.009	0.009	0.001	0.003	-0.007	-0.002	-0.005	-0.004
240.0	48.36	43.64	213.1	793.7	566.6	94.26	1.979	1.274	0.736	0.862	0.451	0.525	0.651	0.385	0.303	0.229	0.178	0.198	0.172	0.255	0.123	0.139	0.104	0.115	0.204	0.094	0.112	0.149	0.142	0.100	0.119	0.092	0.081	0.105	0.133	0.053	0.150	0.273	0.205	0.213	0.180	0.194	0.170	0.166	0.243	0.249	0.195	0.175	0.301	0.573	1.175	2.992	3.712	2.664	0.946	0.127	0.056	0.038	0.015	0.032	0.019	0.016	0.032	0.009	0.013	0.024	0.041	0.022	0.007	0.018	0.002	0.009	-0.010	0.028	-0.008	0.001	0.000
245.0	58.15	64.16	61.28	361.2	963.8	463.6	52.77	1.447	1.308	0.977	0.666	0.613	0.468	0.327	0.389	0.278	0.210	0.253	0.159	0.221	0.220	0.196	0.184	0.134	0.166	0.121	0.156	0.134	0.186	0.136	0.115	0.137	0.123	0.056	0.118	0.076	0.121	0.151	0.194	0.178	0.159	0.183	0.188	0.181	0.174	0.318	0.419	0.307	0.220	0.223	0.353	1.091	2.532	4.067	4.249	2.275	0.512	0.043	0.073	0.032	0.035	0.026	0.035	0.021	0.019	0.034	0.033	0.013	0.020	0.048	0.013	0.014	-0.005	0.009	-0.007	-0.009	0.014
250.0	23.97	75.50	96.77	109.7	387.6	832.9	717.8	154.4	6.542	1.640	0.846	0.686	0.637	0.663	0.427	0.270	0.290	0.271	0.254	0.206	0.202	0.189	0.156	0.144	0.177	0.124	0.187	0.136	0.133	0.148	0.111	0.087	0.106	0.097	0.095	0.080	0.071	0.082	0.133	0.208	0.195	0.183	0.178	0.145	0.143	0.181	0.248	0.366	0.450	0.446	0.296	0.349	0.691	1.413	2.493	3.749	4.473	3.541	1.863	0.444	0.056	0.032	0.022	0.015	0.033	0.031	0.018	0.040	0.017	0.032	0.019	0.016	-0.003	0.004	-0.008	0.005	0.021
255.0	7.214	26.84	102.3	141.1	112.1	255.4	825.7	 1099	218.7	8.125	1.324	1.012	0.781	0.779	0.557	0.483	0.449	0.298	0.221	0.154	0.235	0.184	0.193	0.170	0.175	0.208	0.146	0.110	0.185	0.204	0.136	0.084	0.161	0.096	0.073	0.086	0.059	0.068	0.066	0.119	0.230	0.194	0.161	0.143	0.164	0.124	0.176	0.171	0.248	0.439	0.643	0.683	0.419	0.429	0.639	1.054	1.799	3.832	6.354	5.766	2.869	0.463	0.054	0.022	0.024	0.012	0.025	0.032	0.020	0.017	0.015	0.008	-0.002	0.003	0.017	0.004	-0.002
260.0	4.469	7.507	45.63	157.0	118.3	71.45	300.6	 1124	 1141	185.3	3.245	1.093	0.861	0.823	0.589	0.517	0.388	0.401	0.266	0.232	0.268	0.205	0.180	0.164	0.195	0.167	0.168	0.113	0.153	0.167	0.140	0.158	0.119	0.119	0.080	0.055	0.077	0.047	0.079	0.081	0.175	0.165	0.155	0.132	0.155	0.141	0.146	0.134	0.138	0.207	0.415	0.822	0.820	0.578	0.279	0.336	0.486	1.157	2.962	6.132	7.499	5.500	1.751	0.155	0.034	0.012	0.030	0.032	0.035	0.028	0.014	0.014	-0.002	0.024	0.022	0.003	-0.001
265.0	2.860	4.639	15.15	90.81	173.8	75.19	79.11	456.3	 1403	 1390	107.4	1.931	1.373	0.890	0.541	0.528	0.398	0.446	0.296	0.392	0.227	0.264	0.120	0.187	0.142	0.168	0.173	0.127	0.135	0.163	0.190	0.112	0.125	0.078	0.110	0.092	0.095	0.069	0.083	0.088	0.083	0.151	0.192	0.175	0.162	0.178	0.122	0.112	0.140	0.137	0.173	0.361	0.723	0.975	0.708	0.264	0.168	0.333	0.786	2.036	4.555	7.916	7.741	4.458	0.870	0.072	0.017	0.046	0.045	0.015	0.026	0.028	0.010	0.011	0.023	0.017	0.005
270.0	2.734	4.226	5.590	28.12	101.1	161.7	103.8	122.7	498.4	 1358	 1166	404.8	15.85	1.447	1.047	0.765	0.505	0.456	0.447	0.370	0.287	0.254	0.144	0.241	0.186	0.198	0.201	0.157	0.185	0.166	0.149	0.145	0.125	0.078	0.085	0.083	0.091	0.075	0.061	0.086	0.083	0.094	0.146	0.174	0.181	0.183	0.132	0.159	0.141	0.121	0.131	0.172	0.281	0.501	0.735	0.937	0.816	0.471	0.286	0.522	1.144	2.406	4.068	6.018	6.870	5.571	3.136	0.786	0.088	0.025	0.032	0.028	0.011	0.018	0.017	0.008	0.009
275.0	8.567	6.076	6.803	10.06	26.47	93.84	196.6	126.8	126.2	363.8	892.8	 1527	172.6	10.20	1.493	0.872	0.634	0.676	0.520	0.509	0.267	0.249	0.241	0.234	0.145	0.267	0.194	0.156	0.182	0.179	0.160	0.102	0.113	0.093	0.117	0.095	0.141	0.132	0.069	0.078	0.090	0.075	0.076	0.137	0.184	0.201	0.151	0.152	0.128	0.130	0.154	0.153	0.113	0.165	0.240	0.452	0.800	1.170	0.973	0.521	0.336	0.628	1.006	1.491	2.476	5.007	8.502	8.480	5.848	0.645	0.068	0.036	0.030	0.028	0.011	0.018	0.012
280.0	9.178	10.88	9.543	6.803	9.654	34.67	146.7	219.5	89.11	98.47	291.2	 1150	 1369	130.6	4.543	1.281	0.800	0.645	0.594	0.505	0.298	0.339	0.270	0.271	0.211	0.232	0.188	0.169	0.192	0.122	0.137	0.078	0.121	0.105	0.120	0.091	0.112	0.104	0.070	0.087	0.072	0.077	0.062	0.069	0.176	0.241	0.194	0.201	0.195	0.160	0.152	0.201	0.104	0.126	0.125	0.173	0.337	0.848	1.300	1.391	0.703	0.320	0.329	0.406	0.665	1.482	3.554	7.558	15.17	7.212	1.996	0.140	0.015	0.023	0.021	0.016	0.029
285.0	12.17	13.89	10.60	8.314	6.754	13.39	61.47	199.0	193.1	61.71	87.77	406.1	 1264	 1135	94.50	2.092	1.298	0.775	0.675	0.583	0.394	0.447	0.218	0.337	0.205	0.291	0.237	0.151	0.170	0.220	0.124	0.148	0.083	0.137	0.147	0.131	0.114	0.122	0.130	0.086	0.097	0.101	0.071	0.091	0.077	0.207	0.232	0.238	0.199	0.183	0.155	0.154	0.109	0.103	0.098	0.118	0.140	0.302	0.615	1.257	1.583	0.995	0.364	0.260	0.272	0.505	0.980	2.428	7.479	9.220	9.198	4.811	0.743	0.035	0.036	0.008	0.032
290.0	20.92	22.27	21.27	14.09	9.854	10.15	25.17	87.43	200.5	204.5	90.33	128.3	421.4	976.9	 1044	367.2	16.43	1.227	0.862	0.679	0.544	0.431	0.326	0.353	0.330	0.247	0.269	0.174	0.178	0.179	0.214	0.166	0.156	0.146	0.139	0.152	0.140	0.134	0.171	0.093	0.101	0.104	0.121	0.084	0.117	0.180	0.215	0.238	0.256	0.235	0.183	0.168	0.138	0.121	0.124	0.139	0.119	0.166	0.279	0.472	0.886	1.130	1.358	1.140	0.484	0.316	0.428	0.722	1.946	2.882	4.758	6.543	7.489	6.033	2.971	0.571	0.029
295.0	28.41	35.36	28.70	19.46	10.68	12.27	19.94	40.05	92.80	229.1	243.0	104.6	139.0	269.0	676.7	 1413	503.7	9.402	1.248	0.909	0.612	0.400	0.446	0.452	0.359	0.276	0.298	0.304	0.284	0.224	0.184	0.108	0.142	0.138	0.138	0.149	0.185	0.163	0.197	0.114	0.131	0.113	0.103	0.088	0.104	0.140	0.181	0.222	0.261	0.319	0.241	0.168	0.146	0.103	0.141	0.178	0.123	0.155	0.215	0.240	0.378	0.475	0.711	1.284	1.596	1.074	0.522	0.428	0.690	0.837	1.277	1.709	2.812	5.640	9.721	9.046	3.343
300.0	34.60	43.84	35.19	23.16	17.34	15.42	21.64	32.10	56.35	146.7	307.2	197.1	88.81	95.88	217.5	940.5	 1478	83.14	3.545	1.176	0.746	0.530	0.600	0.439	0.444	0.382	0.345	0.295	0.294	0.179	0.138	0.214	0.130	0.131	0.174	0.163	0.213	0.166	0.158	0.132	0.115	0.113	0.147	0.124	0.083	0.153	0.163	0.181	0.242	0.321	0.234	0.240	0.171	0.205	0.134	0.176	0.216	0.176	0.228	0.220	0.260	0.354	0.387	0.745	1.268	1.889	1.570	0.678	0.462	0.415	0.533	0.591	0.774	1.649	4.358	8.983	11.16
305.0	36.40	46.03	37.42	25.31	23.07	20.14	24.18	31.24	49.47	89.54	217.5	330.6	141.2	63.83	75.79	317.2	 1163	 1284	64.04	1.954	1.109	0.795	0.607	0.587	0.359	0.402	0.335	0.246	0.247	0.205	0.159	0.262	0.184	0.139	0.157	0.194	0.193	0.130	0.110	0.122	0.125	0.115	0.091	0.154	0.123	0.156	0.135	0.200	0.158	0.274	0.258	0.238	0.205	0.217	0.213	0.180	0.194	0.189	0.210	0.224	0.300	0.280	0.366	0.520	0.705	1.192	1.790	1.735	0.881	0.472	0.339	0.333	0.294	0.498	1.127	2.780	6.264
310.0	35.81	46.44	38.86	29.61	24.88	25.75	26.35	35.71	49.35	72.36	123.3	236.0	279.4	112.1	49.35	91.19	357.4	956.7	906.7	277.4	13.72	1.110	0.669	0.664	0.480	0.482	0.375	0.409	0.266	0.241	0.223	0.206	0.210	0.164	0.169	0.171	0.200	0.180	0.157	0.136	0.142	0.159	0.094	0.125	0.135	0.169	0.138	0.185	0.167	0.176	0.235	0.260	0.239	0.223	0.236	0.189	0.201	0.203	0.258	0.243	0.262	0.324	0.373	0.425	0.480	0.619	0.898	1.391	1.661	1.418	0.776	0.361	0.283	0.291	0.387	0.739	1.636
315.0	37.21	50.98	40.46	33.28	26.92	27.67	30.89	38.85	51.83	69.82	90.06	124.7	207.4	264.4	96.51	44.88	97.85	241.9	581.0	 1363	411.9	8.966	1.159	0.703	0.580	0.621	0.378	0.488	0.353	0.228	0.479	0.254	0.231	0.180	0.147	0.188	0.187	0.151	0.170	0.121	0.110	0.128	0.161	0.116	0.151	0.152	0.180	0.197	0.238	0.180	0.157	0.176	0.244	0.208	0.250	0.253	0.239	0.197	0.227	0.269	0.260	0.333	0.355	0.364	0.458	0.562	0.593	0.606	0.908	1.324	1.614	1.310	0.518	0.301	0.250	0.268	0.472
320.0	38.02	60.21	50.15	37.95	31.95	30.47	37.27	43.10	55.45	71.71	87.80	99.42	131.8	242.7	211.3	54.49	43.93	70.61	171.1	862.4	 1367	63.61	3.569	1.034	0.713	0.513	0.402	0.470	0.424	0.259	0.300	0.222	0.223	0.173	0.141	0.175	0.220	0.208	0.156	0.079	0.119	0.152	0.183	0.151	0.133	0.171	0.231	0.233	0.262	0.238	0.213	0.163	0.256	0.271	0.287	0.277	0.213	0.283	0.233	0.304	0.319	0.363	0.381	0.357	0.444	0.527	0.480	0.502	0.573	0.684	1.009	1.578	1.393	0.636	0.262	0.208	0.242
325.0	52.37	77.72	71.96	44.88	37.93	34.76	42.15	47.23	60.29	77.63	89.27	100.4	107.1	152.5	252.3	112.0	39.17	34.82	52.32	260.4	 1063	 1141	52.46	1.908	0.912	0.684	0.510	0.445	0.390	0.302	0.289	0.244	0.244	0.229	0.202	0.178	0.177	0.196	0.162	0.167	0.175	0.166	0.178	0.178	0.143	0.257	0.245	0.271	0.281	0.269	0.261	0.191	0.193	0.328	0.274	0.307	0.273	0.297	0.271	0.331	0.306	0.336	0.449	0.373	0.409	0.472	0.490	0.600	0.511	0.513	0.662	0.904	1.413	1.483	0.790	0.299	0.264
330.0	56.96	92.12	95.52	57.87	46.57	41.05	46.60	51.60	62.81	81.37	92.89	104.0	103.9	106.1	152.9	197.8	114.1	37.30	29.97	72.40	309.7	857.7	 1041	227.4	11.96	1.088	0.707	0.518	0.482	0.403	0.375	0.320	0.296	0.199	0.231	0.207	0.206	0.192	0.192	0.184	0.169	0.151	0.147	0.164	0.166	0.240	0.254	0.334	0.407	0.362	0.301	0.268	0.229	0.270	0.286	0.325	0.310	0.271	0.336	0.379	0.353	0.450	0.447	0.431	0.450	0.472	0.484	0.560	0.514	0.518	0.542	0.555	0.703	0.993	1.288	1.106	0.796
335.0	64.73	107.0	113.3	76.69	56.07	52.67	57.29	61.96	70.19	86.73	102.3	111.2	110.2	104.7	102.4	129.7	201.1	86.10	33.47	35.43	84.00	213.8	581.2	 1314	342.5	9.256	0.980	0.821	0.623	0.461	0.419	0.405	0.344	0.201	0.258	0.267	0.233	0.210	0.191	0.184	0.166	0.162	0.169	0.202	0.181	0.325	0.305	0.366	0.404	0.452	0.361	0.391	0.294	0.287	0.300	0.338	0.412	0.406	0.423	0.443	0.474	0.475	0.473	0.395	0.484	0.507	0.497	0.539	0.567	0.513	0.561	0.581	0.474	0.600	0.664	0.869	1.271
340.0	73.32	117.2	141.2	96.78	70.91	67.31	68.35	71.70	78.41	91.43	105.8	118.8	121.0	114.5	101.8	95.61	159.6	182.3	62.65	32.68	39.04	63.08	164.8	853.6	 1305	54.73	3.001	0.896	0.643	0.565	0.445	0.373	0.365	0.287	0.257	0.264	0.205	0.213	0.227	0.144	0.166	0.197	0.234	0.216	0.225	0.303	0.326	0.392	0.410	0.458	0.402	0.471	0.358	0.377	0.362	0.332	0.429	0.499	0.522	0.434	0.473	0.498	0.464	0.426	0.499	0.653	0.577	0.606	0.611	0.582	0.606	0.664	0.531	0.434	0.488	0.533	0.768
345.0	76.54	126.9	140.5	108.2	84.85	74.67	75.00	78.19	83.35	93.02	108.2	121.9	126.2	121.3	109.0	89.62	103.1	186.9	135.8	43.85	33.22	32.88	51.81	257.7	 1084	 1038	44.16	1.596	0.773	0.564	0.533	0.425	0.340	0.307	0.320	0.327	0.201	0.239	0.206	0.207	0.144	0.190	0.213	0.179	0.216	0.241	0.324	0.453	0.469	0.605	0.400	0.451	0.375	0.374	0.336	0.368	0.393	0.512	0.478	0.521	0.482	0.503	0.505	0.489	0.527	0.566	0.583	0.591	0.635	0.646	0.662	0.689	0.533	0.478	0.576	0.449	0.489
350.0	73.05	120.5	144.1	116.5	95.18	84.63	82.32	83.89	87.12	94.97	109.7	123.3	126.8	122.8	113.5	91.61	84.68	114.1	163.5	113.1	47.20	33.08	31.65	74.08	314.3	831.2	743.5	201.3	9.710	0.997	0.684	0.481	0.391	0.405	0.342	0.241	0.231	0.182	0.183	0.166	0.180	0.239	0.159	0.163	0.206	0.235	0.361	0.479	0.444	0.552	0.416	0.511	0.472	0.460	0.384	0.381	0.411	0.417	0.466	0.487	0.543	0.525	0.527	0.538	0.585	0.548	0.575	0.601	0.623	0.613	0.722	0.654	0.610	0.558	0.572	0.464	0.460
355.0	74.16	112.1	136.0	122.4	101.8	92.84	91.40	90.31	94.09	98.38	111.2	122.7	127.8	126.1	115.5	98.03	85.09	86.04	104.1	161.7	110.6	44.71	33.53	37.94	85.07	205.6	510.6	 1177	297.4	7.002	0.848	0.678	0.562	0.410	0.325	0.261	0.258	0.269	0.238	0.199	0.165	0.190	0.191	0.210	0.211	0.276	0.338	0.404	0.455	0.531	0.419	0.497	0.493	0.493	0.495	0.400	0.437	0.467	0.495	0.560	0.546	0.523	0.612	0.565	0.580	0.665	0.640	0.609	0.630	0.597	0.704	0.684	0.599	0.595	0.582	0.531	0.566
360.0	76.33	112.6	132.6	126.2	114.6	101.6	97.93	97.03	96.91	103.8	113.0	123.2	130.7	126.2	120.1	102.5	89.21	82.81	83.50	123.0	163.9	69.95	39.53	34.40	37.76	58.92	145.6	806.5	 1147	48.85	2.349	0.858	0.664	0.465	0.323	0.315	0.311	0.213	0.264	0.195	0.216	0.187	0.156	0.198	0.250	0.263	0.336	0.370	0.486	0.495	0.467	0.508	0.560	0.497	0.500	0.443	0.434	0.521	0.569	0.496	0.547	0.534	0.627	0.628	0.577	0.622	0.604	0.675	0.758	0.632	0.662	0.729	0.660	0.597	0.629	0.503	0.551
365.0	72.85	101.6	129.8	128.2	117.1	110.2	103.3	103.3	99.65	106.5	110.5	124.3	129.9	127.4	121.7	107.0	93.34	87.34	82.98	90.48	146.2	132.5	56.24	37.96	31.75	29.23	44.70	244.9	 1043	951.1	39.12	1.546	0.795	0.566	0.370	0.368	0.322	0.201	0.305	0.192	0.225	0.169	0.232	0.153	0.202	0.256	0.258	0.317	0.448	0.506	0.430	0.570	0.490	0.516	0.541	0.448	0.550	0.436	0.531	0.429	0.581	0.518	0.565	0.587	0.613	0.624	0.636	0.577	0.646	0.707	0.602	0.744	0.724	0.708	0.680	0.550	0.552
370.0	66.10	107.9	126.3	127.6	121.4	114.8	108.5	108.6	103.2	108.6	114.3	124.5	128.8	127.8	122.3	109.8	100.5	93.86	87.38	85.67	101.7	139.0	116.9	53.65	37.47	29.12	27.26	67.82	308.3	824.4	729.4	171.3	8.389	0.930	0.562	0.411	0.354	0.267	0.269	0.246	0.208	0.200	0.212	0.223	0.220	0.274	0.323	0.356	0.432	0.466	0.451	0.513	0.508	0.568	0.548	0.467	0.556	0.498	0.527	0.521	0.501	0.525	0.581	0.598	0.541	0.622	0.636	0.641	0.696	0.695	0.662	0.677	0.724	0.646	0.645	0.666	0.568
375.0	60.35	94.87	128.1	133.2	131.6	119.3	120.0	113.0	112.4	114.4	121.1	127.6	136.5	132.2	124.0	112.8	107.6	102.2	97.69	91.89	90.05	98.71	137.4	119.9	55.18	37.81	31.76	37.85	83.94	206.0	558.7	 1086	246.3	5.541	0.908	0.525	0.437	0.337	0.350	0.259	0.253	0.197	0.206	0.211	0.261	0.259	0.307	0.362	0.430	0.397	0.493	0.543	0.548	0.654	0.629	0.456	0.559	0.565	0.628	0.540	0.547	0.520	0.564	0.623	0.653	0.646	0.629	0.710	0.781	0.855	0.672	0.714	0.743	0.651	0.703	0.645	0.755
380.0	65.31	99.55	130.2	140.4	138.7	129.6	123.1	122.5	117.3	117.1	125.3	134.3	144.5	138.2	125.9	116.2	110.7	106.4	101.5	95.58	91.32	88.95	108.3	150.5	90.50	47.71	39.81	37.80	39.60	61.72	167.4	779.9	979.9	40.41	1.806	0.681	0.504	0.457	0.357	0.270	0.211	0.262	0.257	0.324	0.226	0.308	0.279	0.398	0.463	0.484	0.490	0.508	0.625	0.712	0.614	0.672	0.626	0.615	0.601	0.482	0.510	0.599	0.566	0.631	0.684	0.685	0.751	0.797	0.801	0.819	0.785	0.712	0.785	0.669	0.649	0.725	0.756
385.0	64.58	108.2	126.6	138.4	146.7	136.6	127.3	124.6	119.4	121.3	130.0	136.9	149.3	138.8	127.7	118.2	115.8	110.5	106.6	102.0	94.56	89.27	91.80	130.2	132.6	61.15	46.86	42.53	34.33	33.22	59.03	260.6	932.2	730.6	29.21	0.967	0.702	0.494	0.263	0.286	0.321	0.241	0.177	0.280	0.280	0.298	0.282	0.419	0.472	0.448	0.487	0.599	0.562	0.707	0.668	0.677	0.633	0.598	0.629	0.542	0.569	0.581	0.576	0.563	0.679	0.576	0.742	0.738	0.768	0.767	0.813	0.784	0.739	0.682	0.804	0.741	0.666
390.0	70.02	100.2	126.8	141.9	149.8	139.9	130.7	130.4	123.9	122.7	131.3	134.6	145.9	137.7	126.3	120.9	116.3	112.9	109.9	105.6	98.95	93.53	88.22	96.91	122.9	109.3	64.95	46.37	35.57	28.65	33.63	78.14	290.5	685.2	574.0	127.7	5.533	0.618	0.424	0.366	0.314	0.267	0.231	0.237	0.280	0.266	0.307	0.417	0.450	0.448	0.442	0.607	0.641	0.635	0.723	0.597	0.646	0.613	0.631	0.556	0.606	0.607	0.591	0.602	0.642	0.602	0.666	0.697	0.760	0.801	0.740	0.696	0.743	0.661	0.695	0.748	0.715
395.0	69.92	97.55	123.5	143.7	150.8	139.5	134.4	132.4	127.2	122.3	129.3	134.1	140.9	135.2	126.1	123.1	119.0	115.4	112.0	107.5	101.6	95.98	89.82	88.29	90.77	112.7	108.7	58.76	39.88	31.78	30.80	37.26	76.06	168.5	443.8	827.2	188.3	3.228	0.580	0.491	0.300	0.312	0.289	0.243	0.261	0.304	0.320	0.383	0.453	0.398	0.426	0.616	0.541	0.660	0.658	0.584	0.667	0.613	0.632	0.654	0.680	0.623	0.596	0.624	0.634	0.603	0.664	0.658	0.741	0.772	0.815	0.679	0.788	0.796	0.753	0.830	0.728
400.0	71.82	96.39	131.0	142.1	152.6	137.9	135.1	131.6	127.9	127.5	134.4	135.6	139.0	134.8	125.4	120.0	119.1	116.6	113.3	108.4	102.7	97.74	92.62	87.28	82.46	91.62	121.9	88.01	47.24	36.01	33.75	32.25	30.39	45.55	126.0	623.0	754.5	32.86	1.251	0.541	0.380	0.297	0.302	0.245	0.320	0.242	0.322	0.404	0.490	0.470	0.429	0.589	0.661	0.687	0.618	0.613	0.641	0.655	0.753	0.614	0.648	0.667	0.635	0.551	0.581	0.627	0.591	0.703	0.692	0.810	0.841	0.714	0.751	0.720	0.658	0.776	0.826
405.0	65.31	93.13	129.3	141.3	150.6	140.5	132.5	133.6	133.6	125.5	134.9	133.3	140.9	131.8	125.4	120.1	118.9	115.1	112.2	108.0	103.5	98.06	93.81	89.42	83.55	79.21	103.3	115.6	59.10	41.33	37.64	33.81	22.50	18.81	34.43	199.0	725.5	546.2	24.46	0.703	0.511	0.354	0.298	0.257	0.245	0.288	0.409	0.415	0.490	0.444	0.471	0.580	0.652	0.686	0.660	0.711	0.633	0.677	0.711	0.616	0.583	0.701	0.702	0.554	0.597	0.616	0.587	0.628	0.735	0.815	0.770	0.698	0.673	0.703	0.722	0.775	0.767
