Sample:	'1
File name:	Default_20230713_111503.FD3
Run date:	'11:08:42, 07/13/2023
Operator:	user
Comment:	'

Instrument
Model:	F-2700 FL Spectrophotometer
Serial number:	2190-003
ROM Version:	4J14000 07

Instrument parameters
Measurement type:	3-D scan
Data mode:	Fluorescence
EX  Start WL:	220.0 nm
EX  End WL:	600.0 nm
EX Sampling interval:	5.0 nm
EM  Start WL:	230.0 nm
EM  End WL:	650.0 nm
EM Sampling interval:	5.0 nm
Scan speed:	12000 nm/min
EX Slit:	5.0 nm
EM Slit:	5.0 nm
PMT Voltage:	700 V
Response:	Auto 
Corrected spectra:	Off
Contour interval:	50.000

Peak integration
Integration method:	Rectangular
Sensitivity:	1
Threshold:	1.000

Peaks
No.	ApexEX/EM(nm)	Height(Data)
1	245.0/360.0	 3435
2	250.0/365.0	 3469
3	250.0/545.0	45.62
4	255.0/555.0	40.66
5	260.0/285.0	348.4
6	260.0/570.0	40.28
7	265.0/290.0	372.1
8	265.0/580.0	35.34
9	270.0/295.0	562.4
10	270.0/590.0	38.21
11	270.0/645.0	-6.000
12	275.0/305.0	789.5
13	275.0/605.0	39.87
14	280.0/310.0	785.1
15	280.0/620.0	31.21
16	285.0/315.0	787.9
17	285.0/630.0	30.81
18	290.0/320.0	700.6
19	290.0/380.0	593.2
20	290.0/640.0	24.99
21	295.0/330.0	561.2
22	300.0/335.0	515.2
23	305.0/340.0	541.6
24	315.0/240.0	-6.701
25	315.0/355.0	428.9
26	320.0/280.0	-3.486
27	320.0/360.0	425.3
28	325.0/365.0	385.8
29	330.0/235.0	-5.446
30	335.0/255.0	-4.439
31	335.0/380.0	359.4
32	335.0/625.0	-3.434
33	340.0/385.0	355.7
34	340.0/630.0	-3.417
35	345.0/300.0	-3.068
36	345.0/390.0	324.6
37	350.0/400.0	313.4
38	355.0/405.0	316.2
39	360.0/410.0	290.2
40	365.0/415.0	274.5
41	370.0/425.0	258.9
42	380.0/605.0	0.094
43	415.0/485.0	72.63
44	420.0/640.0	-1.645
45	425.0/495.0	50.04
46	430.0/505.0	39.99
47	440.0/515.0	27.32
48	450.0/530.0	17.85
49	470.0/560.0	5.356
50	500.0/360.0	7.951
51	545.0/300.0	0.474
52	550.0/305.0	0.138
53	555.0/310.0	-0.225
54	565.0/315.0	-0.156
55	575.0/320.0	0.064
56	580.0/325.0	0.133

Data points
	220.0	225.0	230.0	235.0	240.0	245.0	250.0	255.0	260.0	265.0	270.0	275.0	280.0	285.0	290.0	295.0	300.0	305.0	310.0	315.0	320.0	325.0	330.0	335.0	340.0	345.0	350.0	355.0	360.0	365.0	370.0	375.0	380.0	385.0	390.0	395.0	400.0	405.0	410.0	415.0	420.0	425.0	430.0	435.0	440.0	445.0	450.0	455.0	460.0	465.0	470.0	475.0	480.0	485.0	490.0	495.0	500.0	505.0	510.0	515.0	520.0	525.0	530.0	535.0	540.0	545.0	550.0	555.0	560.0	565.0	570.0	575.0	580.0	585.0	590.0	595.0	600.0
230.0	-157.8	-70.22	 1239	 1328	63.16	-59.02	-51.26	-44.59	-36.52	-34.95	-29.60	-27.70	-23.03	-19.01	-16.06	-13.07	-11.26	-9.561	-9.937	-8.233	-7.891	-7.228	-6.414	-5.849	-5.833	-5.322	-5.049	-5.071	-4.858	-4.615	-4.544	-4.437	-3.656	-3.680	-3.258	-3.244	-3.066	-2.991	-3.138	-3.089	-2.994	-2.794	-2.620	-2.691	-2.764	-2.338	-2.338	-1.367	0.882	1.256	-0.630	-2.152	-2.091	-2.529	-2.024	-2.194	-2.399	-2.314	-2.451	-2.365	-2.263	-2.444	-2.504	-2.597	-2.555	-2.379	-2.332	-2.528	-2.547	-2.474	-2.600	-2.454	-2.278	-2.475	-2.731	-2.624	-2.628
235.0	-150.4	-127.0	338.4	 1860	 1607	135.2	-62.03	-42.82	-34.58	-28.21	-29.76	-27.83	-22.03	-17.91	-17.53	-14.98	-12.50	-10.43	-10.03	-9.218	-7.680	-5.701	-5.446	-6.135	-6.579	-5.699	-4.977	-5.849	-6.064	-4.526	-3.436	-4.336	-3.082	-3.959	-3.716	-3.694	-3.725	-3.232	-3.248	-3.351	-2.937	-2.663	-2.666	-2.572	-2.754	-2.688	-2.013	-2.643	-0.987	0.135	2.200	2.538	0.252	-1.715	-2.191	-2.104	-2.163	-2.541	-2.242	-2.519	-2.584	-2.793	-2.256	-2.635	-2.248	-2.516	-2.241	-2.589	-2.612	-2.562	-2.723	-2.422	-2.393	-2.150	-2.601	-2.774	-2.726
240.0	-127.5	-133.2	-2.554	803.8	 2787	 1675	45.18	-42.17	-42.32	-35.05	-27.18	-26.11	-20.36	-18.75	-16.43	-16.85	-13.70	-10.57	-10.70	-6.701	-8.332	-6.828	-6.896	-5.262	-6.466	-5.233	-4.798	-4.777	-5.114	-3.936	-3.971	-3.488	-3.458	-3.926	-3.745	-3.634	-2.936	-3.202	-3.323	-3.069	-3.208	-2.778	-2.858	-2.355	-2.887	-2.411	-2.162	-2.506	-2.187	-1.141	-0.227	3.120	5.509	2.523	-0.909	-2.236	-2.509	-2.295	-2.321	-2.037	-2.138	-2.466	-2.186	-2.441	-2.401	-2.528	-2.233	-2.178	-2.485	-2.616	-2.705	-2.357	-2.267	-2.277	-2.760	-2.632	-2.155
245.0	-148.8	-105.0	-58.29	131.9	 1450	 3625	 1413	5.360	-35.34	-29.99	-29.39	-26.95	-21.75	-18.86	-16.00	-16.96	-11.60	-9.930	-9.443	-7.814	-8.649	-6.228	-6.862	-5.779	-6.049	-5.511	-5.849	-4.157	-5.076	-4.831	-4.205	-3.913	-3.596	-4.186	-3.376	-3.635	-3.414	-3.655	-2.868	-2.830	-2.413	-3.002	-2.890	-2.617	-2.991	-2.380	-2.187	-2.352	-2.020	-1.760	-1.253	-0.169	2.293	6.007	5.619	1.652	-1.610	-2.256	-2.321	-2.298	-2.500	-2.701	-2.655	-2.167	-2.708	-2.401	-2.070	-2.501	-2.320	-2.518	-2.565	-2.337	-2.398	-2.033	-2.442	-2.718	-2.247
250.0	-158.1	-135.6	-68.97	-8.496	307.5	 1757	 3913	 2946	373.7	-27.58	-28.72	-24.00	-21.55	-20.36	-17.63	-14.57	-11.60	-10.16	-9.180	-7.137	-7.718	-7.240	-6.739	-5.488	-6.042	-5.301	-5.439	-4.841	-4.724	-5.001	-4.653	-4.427	-3.687	-3.824	-3.499	-3.519	-3.412	-3.423	-3.410	-2.825	-2.574	-2.936	-2.396	-2.408	-2.869	-2.197	-2.128	-2.280	-1.839	-1.775	-1.520	-1.910	-1.286	0.269	2.815	5.167	6.352	5.412	1.900	-1.465	-2.460	-2.354	-2.553	-2.250	-2.544	-2.361	-2.012	-2.508	-2.525	-2.461	-2.442	-2.339	-2.654	-2.605	-2.552	-2.680	-2.582
255.0	-158.2	-111.6	-110.1	-16.45	80.95	354.9	 1342	 5621	 4971	367.8	-27.57	-25.53	-22.68	-19.98	-16.89	-12.00	-13.06	-11.12	-7.643	-8.125	-8.438	-7.047	-7.784	-4.439	-5.972	-5.540	-5.304	-4.948	-4.654	-5.474	-4.320	-4.713	-3.891	-3.135	-3.679	-3.246	-3.536	-3.619	-3.012	-3.008	-2.759	-2.880	-2.778	-2.549	-2.596	-2.081	-2.222	-2.500	-1.883	-1.902	-1.648	-1.701	-1.545	-1.634	-0.927	-0.265	0.873	5.530	11.07	10.66	3.055	-1.579	-2.467	-2.170	-1.969	-2.485	-2.596	-2.445	-2.808	-2.759	-2.579	-2.522	-2.567	-2.577	-2.404	-2.706	-2.561
260.0	-180.5	-145.4	-106.4	-41.71	80.52	91.12	281.5	 2463	 7681	 1636	160.6	-24.78	-21.16	-16.60	-16.55	-10.53	-9.249	-10.78	-7.362	-8.348	-8.169	-6.199	-6.518	-4.853	-5.876	-5.147	-4.699	-5.666	-4.392	-4.387	-5.049	-4.102	-4.999	-3.673	-3.417	-3.277	-3.505	-3.373	-3.310	-2.455	-2.529	-2.838	-2.665	-2.529	-2.438	-2.689	-2.529	-2.032	-1.985	-1.688	-1.463	-1.858	-1.616	-1.821	-2.036	-1.899	-1.617	-0.429	3.156	11.61	16.43	10.65	0.479	-1.944	-2.287	-2.350	-1.932	-2.598	-3.036	-2.647	-2.287	-2.710	-2.375	-1.785	-2.393	-2.578	-2.597
265.0	-140.7	-128.7	-122.7	-74.42	13.49	126.9	47.59	574.7	 3843	 7798	 1319	34.34	-13.86	-13.35	-15.23	-11.75	-9.358	-10.63	-9.086	-7.309	-6.724	-6.788	-6.906	-5.607	-5.652	-5.034	-4.700	-4.832	-4.084	-4.752	-3.843	-3.905	-4.011	-4.155	-3.939	-3.449	-2.714	-3.387	-2.922	-2.826	-2.795	-2.784	-2.533	-3.087	-2.599	-2.511	-2.460	-2.166	-2.146	-1.732	-1.514	-1.822	-2.085	-1.760	-1.840	-2.116	-2.141	-1.942	-0.743	1.492	8.301	17.26	15.94	8.229	-0.821	-2.490	-2.159	-2.494	-2.637	-2.918	-2.081	-2.713	-3.196	-2.555	-2.910	-2.590	-2.700
270.0	-145.4	-131.8	-117.4	-73.16	-47.43	66.44	133.6	152.8	908.7	 3531	 6547	 4359	320.6	-10.11	-14.50	-11.00	-10.12	-9.392	-6.703	-7.057	-6.945	-7.006	-6.212	-5.157	-5.842	-5.074	-4.400	-4.961	-4.701	-5.307	-4.177	-3.817	-4.090	-4.216	-3.812	-3.400	-3.027	-2.984	-3.232	-3.038	-2.995	-3.045	-2.603	-3.053	-2.574	-2.655	-2.261	-2.358	-2.304	-1.565	-1.820	-2.197	-1.967	-1.956	-1.665	-1.721	-1.789	-1.958	-2.065	-1.476	0.294	3.221	7.866	14.85	17.85	14.68	5.211	-1.170	-2.191	-2.732	-2.350	-2.774	-2.663	-2.737	-2.593	-2.528	-2.837
275.0	-136.9	-142.4	-103.3	-87.52	-58.07	-17.83	78.72	202.4	217.6	787.0	 2047	 8026	 6507	347.2	-10.85	-8.345	-9.399	-8.292	-6.459	-6.485	-5.340	-5.938	-6.110	-5.755	-5.028	-5.594	-4.884	-4.757	-4.704	-4.529	-4.264	-4.090	-4.572	-4.030	-3.797	-3.505	-3.441	-2.995	-2.498	-2.720	-2.936	-3.273	-2.882	-2.636	-2.127	-2.363	-1.835	-2.260	-2.312	-1.523	-1.873	-2.008	-1.978	-2.163	-2.081	-1.824	-1.848	-1.621	-1.588	-1.964	-1.728	-0.730	-0.101	1.651	4.153	13.17	28.51	26.35	8.059	-1.860	-2.407	-2.549	-2.153	-2.154	-2.049	-2.221	-2.782
280.0	-159.9	-113.3	-102.2	-84.01	-73.62	-43.41	6.636	214.9	224.0	187.5	481.5	 3099	9999.9	 4861	150.7	-7.914	-8.675	-7.415	-5.906	-6.599	-3.486	-4.056	-4.005	-5.682	-5.528	-5.063	-3.537	-4.699	-4.181	-4.953	-5.248	-4.487	-4.011	-4.292	-3.938	-3.212	-3.087	-2.958	-2.586	-2.352	-2.578	-3.038	-2.990	-2.841	-2.364	-2.662	-2.232	-2.503	-2.201	-1.488	-1.597	-1.902	-2.090	-2.318	-2.096	-2.155	-2.154	-1.832	-1.244	-1.763	-2.391	-2.008	-2.051	-1.035	-0.565	1.443	10.31	26.74	32.24	19.70	1.859	-1.839	-2.502	-2.331	-2.409	-2.480	-2.661
285.0	-111.7	-106.6	-87.95	-55.20	-59.38	-50.92	-30.69	79.91	348.4	155.8	139.8	771.7	 4620	9999.9	777.7	41.06	-7.124	-5.435	-5.328	-6.026	-6.550	-5.176	-5.138	-5.404	-4.786	-4.484	-4.146	-4.605	-4.844	-5.202	-5.308	-4.784	-3.770	-3.843	-3.329	-3.407	-3.013	-3.302	-2.593	-3.186	-3.184	-3.298	-3.004	-2.314	-2.750	-2.540	-2.172	-2.130	-1.895	-1.741	-2.066	-1.983	-1.983	-2.291	-2.319	-1.738	-2.224	-1.929	-1.830	-0.987	-1.213	-1.404	-2.377	-1.751	-1.535	-1.095	0.768	6.055	16.97	34.17	33.02	11.51	-0.871	-2.226	-2.217	-2.255	-2.447
290.0	-126.3	-106.5	-53.32	-36.04	-40.88	-39.76	-16.65	14.07	189.9	372.1	227.2	270.4	 1184	 4603	 8526	 4773	209.1	-1.809	-4.530	-5.106	-6.492	-4.982	-4.863	-5.222	-4.551	-4.737	-4.306	-4.672	-4.209	-4.711	-4.209	-4.538	-4.142	-3.420	-3.306	-3.307	-2.929	-3.105	-2.546	-2.794	-2.995	-3.147	-2.926	-2.495	-2.690	-2.695	-2.090	-2.120	-1.581	-1.526	-1.672	-1.973	-1.797	-2.221	-2.183	-1.996	-1.837	-2.002	-1.780	-1.673	-1.461	-0.896	-1.140	-1.494	-1.665	-1.689	-1.311	-0.488	2.419	8.275	17.07	24.69	26.71	19.37	6.817	-0.725	-2.767
295.0	-127.9	-65.58	-39.10	-26.74	-27.53	-19.89	1.294	17.95	81.82	248.8	562.4	349.1	433.9	 1151	 2658	 9660	 4206	256.9	-0.184	-2.876	-4.168	-3.660	-4.864	-4.811	-4.172	-4.768	-3.780	-4.378	-3.749	-4.658	-4.353	-4.718	-3.464	-3.780	-3.078	-3.188	-2.583	-3.127	-2.592	-3.246	-2.548	-2.972	-2.531	-2.106	-2.795	-2.317	-2.371	-2.288	-2.019	-1.433	-1.463	-1.925	-1.861	-2.207	-2.079	-1.958	-1.643	-2.571	-2.010	-1.809	-1.734	-1.412	-1.160	-0.629	-0.962	-1.201	-1.540	-1.620	-0.799	0.566	2.136	4.133	7.223	20.22	38.89	30.97	8.577
300.0	-123.5	-44.82	-25.82	-26.42	-9.136	5.036	26.14	41.54	97.35	188.9	515.7	659.2	345.6	426.5	717.3	 3702	9999.9	 3338	136.9	-0.565	-2.934	-3.380	-4.393	-4.589	-3.584	-3.068	-3.183	-4.159	-4.480	-3.874	-4.515	-3.693	-3.806	-4.122	-3.154	-3.302	-2.831	-3.452	-3.153	-3.284	-2.499	-2.766	-2.836	-2.884	-2.621	-2.758	-2.270	-2.101	-1.921	-1.492	-1.418	-1.746	-1.827	-2.209	-1.973	-2.236	-1.633	-2.483	-1.768	-1.939	-2.060	-1.601	-1.768	-1.256	-0.553	0.474	-1.206	-1.377	-1.303	-1.028	-1.205	-0.693	-0.066	3.514	15.95	34.56	40.45
305.0	-103.0	-57.43	-2.771	7.162	11.13	2.647	29.51	78.67	120.9	199.7	363.3	789.5	602.5	326.7	299.6	941.8	 5131	9999.9	 2450	41.88	-1.101	-2.363	-2.932	-4.709	-3.662	-3.862	-4.656	-3.654	-4.699	-4.507	-4.794	-2.855	-4.111	-2.827	-3.547	-3.162	-2.792	-3.299	-3.178	-3.058	-2.587	-2.636	-2.650	-2.659	-2.279	-2.143	-1.673	-1.650	-1.907	-1.505	-1.497	-1.700	-1.741	-2.222	-2.171	-2.429	-1.878	-2.130	-1.272	-2.295	-1.821	-2.142	-1.440	-1.552	-0.971	-0.714	0.138	-0.266	-0.985	-1.582	-1.660	-1.418	-1.549	-1.200	2.186	8.912	24.15
310.0	-116.6	-29.75	26.56	41.94	35.48	30.50	51.67	101.4	146.8	223.9	346.0	555.6	785.1	555.3	264.8	314.1	 1259	 4805	 8825	 4295	148.5	1.197	-1.740	-3.411	-4.062	-4.191	-4.275	-3.895	-4.150	-3.505	-4.268	-3.499	-4.206	-3.187	-3.258	-2.959	-3.048	-3.040	-2.908	-2.814	-2.538	-2.580	-2.536	-2.342	-2.387	-2.406	-1.898	-1.694	-1.534	-1.636	-1.358	-1.923	-1.967	-2.128	-1.963	-2.063	-2.144	-1.804	-1.820	-1.372	-1.562	-1.643	-1.461	-1.424	-1.190	-1.035	-0.489	-0.225	-0.227	-0.633	-0.992	-1.427	-1.807	-1.940	-0.800	0.299	3.668
315.0	-84.80	-13.95	57.64	47.84	55.21	63.48	86.56	149.8	195.1	268.4	349.7	466.5	603.6	787.9	467.1	211.8	354.9	 1123	 2780	 9334	 6209	190.8	-0.729	-2.545	-3.590	-3.923	-4.233	-2.984	-3.517	-4.137	-3.600	-3.508	-3.935	-3.734	-3.454	-2.939	-3.057	-2.759	-2.096	-3.371	-2.258	-2.496	-2.913	-2.725	-2.138	-2.452	-1.724	-1.893	-1.533	-1.844	-1.226	-1.565	-1.787	-1.407	-1.536	-1.833	-2.029	-1.612	-1.399	-1.549	-1.505	-1.758	-1.524	-1.283	-0.999	-1.043	-0.888	-1.092	-0.611	-0.156	-0.233	-0.639	-1.532	-1.564	-2.261	-1.571	-0.979
320.0	-72.38	27.87	107.4	108.3	98.60	115.6	160.9	204.1	232.0	324.4	387.6	474.7	507.8	641.5	700.6	289.0	184.3	317.9	671.2	 3800	9999.9	 2416	113.1	0.521	-1.642	-2.719	-3.238	-2.440	-4.201	-4.259	-4.572	-3.789	-3.525	-3.339	-3.194	-2.738	-2.994	-2.675	-2.635	-2.844	-2.446	-2.173	-2.306	-2.681	-2.252	-2.627	-1.272	-1.938	-1.481	-1.474	-1.174	-1.622	-1.419	-1.567	-1.407	-1.640	-1.643	-1.170	-1.437	-1.562	-0.452	-1.526	-1.429	-1.262	-1.507	-0.956	-0.573	-1.643	-1.143	-0.528	-0.624	0.064	-0.802	-1.340	-2.043	-1.727	-2.213
325.0	-8.150	75.65	156.9	246.0	237.9	277.7	293.7	322.5	327.2	383.4	430.3	484.4	502.8	527.6	666.5	503.5	188.7	163.1	203.4	927.2	 5162	 9660	 1892	40.58	-1.483	-2.388	-3.682	-3.035	-3.849	-3.963	-4.314	-3.843	-3.935	-2.943	-3.173	-2.758	-3.207	-2.589	-2.385	-2.267	-2.598	-2.663	-1.892	-2.048	-2.082	-1.825	-1.621	-1.946	-1.645	-1.297	-1.284	-1.745	-0.848	-1.631	-0.971	-1.221	-1.806	-1.267	-1.225	-1.203	-0.709	-0.949	-1.441	-1.628	-0.860	-0.745	-0.655	-1.187	-0.736	-0.713	-0.800	-0.576	0.133	0.108	-1.111	-1.370	-1.601
330.0	-1.708	160.5	282.0	453.7	562.1	637.1	698.8	681.7	593.0	566.3	526.2	519.9	525.7	505.4	489.0	561.2	406.6	187.0	130.0	265.6	 1260	 4632	 7578	 3657	119.5	1.118	-1.933	-2.250	-2.924	-3.016	-3.201	-2.909	-3.618	-2.989	-3.189	-2.633	-2.959	-2.605	-2.744	-2.396	-2.532	-1.929	-2.543	-2.163	-2.295	-1.924	-1.624	-1.401	-1.314	-0.583	-0.674	-0.880	-0.438	-0.436	0.146	0.305	-0.147	-0.185	-0.470	-0.531	-0.674	-0.536	-0.807	-0.880	-0.979	-0.868	-0.891	-1.029	-1.166	-1.362	-1.027	-1.145	-0.668	-0.907	-0.567	-0.969	-1.367
335.0	35.44	228.3	529.1	840.5	 1049	 1178	 1279	 1212	 1013	858.6	670.1	570.1	556.9	524.5	469.7	432.4	515.2	400.6	173.4	148.4	338.9	 1073	 2571	 8466	 5497	166.9	1.075	-1.153	-0.969	-2.664	-2.784	-2.478	-3.390	-3.159	-2.831	-2.396	-2.368	-2.636	-2.644	-2.355	-2.525	-2.104	-2.409	-1.975	-2.303	-2.202	-0.878	-1.328	-0.563	-0.013	0.125	0.461	0.494	0.709	1.059	1.819	1.910	1.380	0.898	1.066	0.019	-0.009	0.040	-0.326	-0.604	-0.737	-0.891	-1.288	-0.844	-1.030	-1.136	-1.120	-1.055	-1.340	-1.339	-0.341	-0.211
340.0	150.4	417.7	729.5	 1220	 1469	 1771	 1829	 1642	 1358	 1122	804.3	614.4	600.6	548.3	499.6	415.1	425.7	541.6	302.8	161.5	154.1	290.6	619.7	 3677	 9523	 1939	104.2	-0.471	-1.115	-1.738	-2.657	-2.954	-3.359	-3.164	-3.145	-2.789	-2.552	-2.401	-2.964	-2.553	-2.907	-2.733	-2.040	-1.767	-2.069	-1.549	-1.037	-0.483	-0.025	0.597	1.302	2.098	1.937	2.882	2.366	3.206	3.106	2.810	2.383	2.579	1.647	1.063	0.623	0.217	-0.902	-0.893	-0.641	-0.952	-0.873	-1.509	-1.056	-1.534	-1.321	-1.282	-1.149	-1.263	-0.329
345.0	160.4	500.2	 1009	 1536	 1841	 2214	 2412	 2079	 1675	 1364	927.2	639.8	593.9	572.8	517.3	432.5	384.2	479.7	476.6	225.3	137.4	136.4	183.2	904.3	 5030	 8738	 1595	41.49	0.266	-1.189	-1.278	-3.019	-1.981	-3.199	-1.978	-2.809	-2.511	-1.958	-2.661	-2.829	-3.298	-2.454	-1.782	-1.944	-1.652	-1.618	-0.400	-0.504	0.302	1.225	1.773	2.860	3.102	4.543	4.020	4.450	4.345	3.922	3.324	2.836	3.047	1.524	0.897	0.567	-0.588	-0.360	-0.603	-0.695	-1.077	-0.989	-0.949	-1.711	-0.884	-1.287	-0.914	-1.602	-1.205
350.0	212.2	629.6	 1180	 1776	 2340	 2745	 2865	 2527	 1967	 1607	 1042	672.9	611.6	601.9	546.2	477.4	407.8	405.2	454.9	408.0	204.1	126.2	111.4	250.1	 1235	 4309	 6907	 3267	108.6	1.477	-1.041	-2.240	-2.138	-2.505	-2.067	-2.372	-2.582	-2.140	-2.478	-2.123	-3.039	-2.128	-2.132	-1.868	-1.328	-1.162	-0.648	0.111	0.853	1.683	2.581	4.308	4.280	4.981	5.497	6.027	5.631	5.608	4.206	3.859	3.534	2.135	1.476	0.899	0.043	0.134	-0.547	-0.717	-0.645	-0.898	-1.184	-0.857	-0.769	-1.252	-1.094	-1.123	-1.309
355.0	221.2	655.6	 1297	 1985	 2641	 3203	 3207	 2838	 2221	 1803	 1144	712.0	620.8	619.7	559.4	499.5	443.4	404.1	385.8	428.9	373.6	184.8	124.0	126.6	325.4	998.1	 2442	 7455	 4970	150.5	0.726	-0.371	-1.843	-1.853	-2.368	-2.109	-2.657	-2.307	-2.546	-2.325	-2.485	-2.429	-2.367	-2.032	-1.620	-0.412	0.309	0.876	1.358	1.910	2.892	4.282	4.635	5.988	6.207	6.897	7.090	6.690	5.427	4.121	3.661	3.007	2.853	0.782	0.663	-0.466	-0.945	-0.852	-1.125	-0.723	-0.392	-0.867	-0.831	-0.963	-1.092	-0.747	-1.211
360.0	272.5	722.6	 1304	 2146	 2754	 3435	 3410	 2893	 2379	 1823	 1194	735.9	637.6	629.0	563.0	515.2	480.2	438.8	378.7	366.5	425.3	287.5	151.3	119.2	142.2	274.2	589.6	 3302	 8416	 1726	93.19	0.931	-0.218	-1.384	-2.181	-2.641	-2.377	-2.361	-1.538	-2.563	-1.699	-2.215	-2.019	-1.626	-1.418	-0.595	0.305	0.276	1.189	1.522	3.513	4.103	4.905	6.541	7.115	7.891	7.951	7.681	5.864	4.752	4.542	3.295	2.635	0.892	-0.015	-0.725	-1.213	-1.127	-0.788	-0.629	-0.299	-0.212	-0.855	-1.168	-1.092	-0.748	-1.211
365.0	263.6	709.1	 1319	 2124	 2804	 3341	 3469	 3029	 2398	 1861	 1198	720.9	632.3	621.7	588.8	545.8	502.2	451.1	414.5	357.3	380.7	385.8	228.0	141.1	117.7	120.9	173.8	814.6	 4431	 7845	 1428	35.80	0.721	-1.276	-1.987	-2.234	-2.294	-1.864	-1.711	-2.210	-1.677	-2.274	-1.235	-1.656	-1.414	-0.183	0.010	-0.205	1.588	1.881	2.806	4.825	5.347	6.356	7.238	7.740	7.035	7.009	5.188	5.199	4.511	3.369	2.480	1.265	-0.093	-0.259	-0.813	-1.147	-1.030	-1.008	-0.383	-1.161	-0.326	-1.097	-1.038	-0.474	-0.887
370.0	270.8	689.5	 1319	 2079	 2808	 3275	 3347	 2893	 2331	 1811	 1191	723.8	623.7	616.4	592.9	547.9	518.9	486.2	438.7	379.8	345.6	367.7	359.3	224.3	141.3	115.6	105.5	226.2	 1092	 3886	 6297	 3387	91.01	1.302	-1.214	-1.420	-1.420	-1.909	-2.326	-2.134	-1.520	-2.415	-1.751	-1.811	-1.305	-0.368	0.276	0.367	0.822	1.968	3.184	5.534	5.209	6.246	6.590	7.867	7.491	6.481	5.560	4.811	4.407	3.349	2.025	1.065	0.021	-0.536	-0.392	-0.935	-1.122	-1.113	-0.457	-0.931	-0.927	-0.866	-0.936	-0.842	-0.916
375.0	234.1	648.8	 1239	 1956	 2650	 3085	 3153	 2728	 2179	 1760	 1123	685.9	601.5	608.0	586.0	557.3	534.4	492.0	465.9	413.8	364.9	327.1	353.6	346.4	209.7	142.3	111.2	118.1	290.4	901.7	 2238	 6939	 4317	120.7	-0.032	-0.048	-1.523	-1.567	-1.734	-1.734	-2.119	-1.753	-1.974	-1.650	-1.013	-0.863	-0.127	0.183	1.133	1.852	2.642	4.675	5.502	6.153	5.776	7.419	6.736	5.972	5.234	4.318	3.187	2.814	2.303	1.258	0.186	-0.279	-0.537	-0.460	-1.148	-1.071	-0.581	-0.883	-0.656	-0.674	-0.941	-1.078	-0.711
380.0	248.8	603.1	 1180	 1828	 2499	 2974	 2917	 2612	 2059	 1688	 1089	680.3	600.4	579.7	593.2	558.9	523.7	507.2	479.2	427.9	373.5	335.3	322.0	359.4	300.3	177.0	130.5	107.9	122.4	242.7	540.1	 3087	 7430	 1389	71.16	0.804	-0.894	-1.501	-1.826	-1.978	-2.233	-2.310	-2.101	-2.010	-1.196	-0.284	-0.430	-0.160	1.157	1.777	2.168	3.729	4.946	4.827	5.326	6.707	5.474	5.975	4.143	3.716	2.870	2.419	2.306	0.893	0.080	-0.554	-0.470	-0.873	-0.727	-0.785	-0.974	-1.118	-0.889	-1.071	-0.733	-0.767	-0.888
385.0	215.5	497.8	 1050	 1625	 2271	 2620	 2728	 2377	 1980	 1532	992.6	660.2	574.9	572.5	568.1	548.1	529.6	526.0	480.2	431.4	384.7	351.1	318.0	329.1	355.7	243.7	148.8	121.7	100.6	107.9	158.1	762.6	 3994	 6541	 1109	22.38	0.776	-1.084	-1.257	-2.117	-2.329	-2.346	-1.466	-1.252	-1.137	-0.993	-0.698	0.124	0.670	1.434	1.863	3.081	5.715	5.012	5.450	6.074	5.159	4.438	4.266	3.907	2.626	2.342	1.404	0.339	-0.086	-0.752	-1.038	-0.473	-0.631	-0.839	-0.545	-0.718	-0.848	-1.022	-1.136	-0.336	-0.992
390.0	174.4	481.6	966.9	 1457	 2008	 2327	 2401	 2134	 1755	 1396	937.5	625.1	565.3	552.6	556.1	536.5	520.0	515.2	485.2	444.3	395.9	365.2	333.3	315.4	323.3	324.6	227.2	152.0	119.0	96.66	87.08	206.6	985.1	 3258	 5011	 2220	68.26	0.213	-0.776	-1.631	-1.502	-1.811	-1.832	-1.612	-1.316	-1.204	-0.459	-0.471	0.597	1.083	1.734	2.847	3.625	3.634	3.631	4.368	4.070	3.814	3.292	2.977	2.046	2.116	1.001	0.526	-0.232	-0.745	-0.474	-0.878	-0.810	-0.706	-0.656	-0.896	-1.269	-1.053	-0.973	-1.041	-1.099
