Sample:	'1
File name:	S2025061901ÅË×¯¶þ´åÇÅ.FD3
Run date:	'09:28:46, 06/20/2025
Operator:	Administrator
Comment:	'

Instrument
Model:	F-2700 FL Spectrophotometer
Serial number:	23B8-004
ROM Version:	4J14000 07

Instrument parameters
Measurement type:	3-D scan
Data mode:	Fluorescence
EX  Start WL:	220.0 nm
EX  End WL:	600.0 nm
EX Sampling interval:	5.0 nm
EM  Start WL:	230.0 nm
EM  End WL:	650.0 nm
EM Sampling interval:	5.0 nm
Scan speed:	12000 nm/min
EX Slit:	5.0 nm
EM Slit:	5.0 nm
PMT Voltage:	700 V
Response:	Auto 
Corrected spectra:	Off
Contour interval:	50.000

Peak integration
Integration method:	Rectangular
Sensitivity:	1
Threshold:	1.000

Peaks
No.	ApexEX/EM(nm)	Height(Data)
1	225.0/600.0	35.85
2	225.0/635.0	32.06
3	230.0/340.0	713.1
4	230.0/400.0	720.6
5	230.0/500.0	323.0
6	235.0/380.0	709.7
7	235.0/510.0	282.8
8	240.0/265.0	407.2
9	240.0/395.0	729.5
10	240.0/410.0	720.9
11	240.0/525.0	237.4
12	245.0/270.0	391.4
13	245.0/405.0	719.0
14	245.0/535.0	203.4
15	250.0/550.0	167.5
16	255.0/285.0	556.3
17	255.0/560.0	142.1
18	260.0/290.0	545.9
19	260.0/575.0	119.1
20	265.0/295.0	710.7
21	265.0/585.0	99.39
22	270.0/300.0	970.9
23	270.0/600.0	94.28
24	275.0/305.0	995.6
25	275.0/340.0	650.3
26	275.0/365.0	598.5
27	275.0/615.0	75.42
28	280.0/310.0	895.9
29	280.0/625.0	67.70
30	285.0/320.0	869.7
31	285.0/640.0	48.47
32	290.0/325.0	753.5
33	300.0/335.0	483.4
34	305.0/345.0	424.9
35	310.0/350.0	370.0
36	315.0/355.0	366.5
37	320.0/365.0	359.9
38	325.0/370.0	352.5
39	330.0/375.0	347.6
40	335.0/380.0	346.0
41	340.0/390.0	319.9
42	345.0/395.0	302.7
43	350.0/400.0	299.1
44	360.0/415.0	259.4
45	365.0/420.0	247.2
46	425.0/500.0	42.59
47	455.0/540.0	14.01
48	505.0/275.0	3.150
49	510.0/280.0	3.354
50	520.0/285.0	3.484
51	530.0/290.0	3.435
52	535.0/270.0	58.97
53	535.0/295.0	4.256
54	545.0/300.0	5.319
55	550.0/305.0	5.256
56	560.0/310.0	4.867
57	570.0/315.0	5.072
58	580.0/320.0	4.898
59	585.0/325.0	4.388

Data points
	220.0	225.0	230.0	235.0	240.0	245.0	250.0	255.0	260.0	265.0	270.0	275.0	280.0	285.0	290.0	295.0	300.0	305.0	310.0	315.0	320.0	325.0	330.0	335.0	340.0	345.0	350.0	355.0	360.0	365.0	370.0	375.0	380.0	385.0	390.0	395.0	400.0	405.0	410.0	415.0	420.0	425.0	430.0	435.0	440.0	445.0	450.0	455.0	460.0	465.0	470.0	475.0	480.0	485.0	490.0	495.0	500.0	505.0	510.0	515.0	520.0	525.0	530.0	535.0	540.0	545.0	550.0	555.0	560.0	565.0	570.0	575.0	580.0	585.0	590.0	595.0	600.0
230.0	101.0	1848	3265	639.8	23.09	5.589	4.786	3.901	3.342	3.092	3.029	2.940	2.559	2.323	1.799	1.537	1.352	1.344	1.120	1.026	0.902	0.768	0.755	0.670	0.648	0.581	0.527	0.453	0.430	0.512	0.404	0.419	0.368	0.374	0.334	0.347	0.340	0.309	0.280	0.306	0.327	0.414	0.427	0.318	0.240	0.367	2.254	8.375	11.61	7.218	2.069	0.464	0.191	0.173	0.197	0.158	0.169	0.161	0.145	0.152	0.151	0.125	0.128	0.148	0.139	0.122	0.120	0.124	0.118	0.120	0.135	0.116	0.114	0.117	0.124	0.116	0.140
235.0	109.6	526.1	2629	3487	546.2	44.90	6.273	4.928	4.167	3.855	3.319	3.818	3.026	2.291	1.836	1.496	1.298	1.440	1.239	1.212	0.911	0.888	0.685	0.713	0.616	0.444	0.542	0.402	0.484	0.434	0.434	0.443	0.436	0.387	0.321	0.354	0.300	0.351	0.250	0.300	0.278	0.361	0.493	0.494	0.464	0.362	0.694	2.328	5.237	9.389	12.80	11.67	5.005	0.886	0.242	0.117	0.150	0.185	0.152	0.144	0.090	0.168	0.176	0.156	0.137	0.128	0.124	0.106	0.139	0.129	0.121	0.112	0.099	0.100	0.163	0.153	0.173
240.0	163.8	187.6	888.5	3701	3731	446.1	23.09	6.653	4.797	4.597	3.958	4.090	3.598	2.779	2.412	2.032	1.532	1.575	1.186	1.056	0.857	0.842	0.779	0.663	0.644	0.489	0.602	0.518	0.548	0.438	0.365	0.301	0.369	0.499	0.342	0.483	0.318	0.395	0.335	0.312	0.287	0.267	0.355	0.484	0.516	0.573	0.451	0.768	1.347	3.031	8.007	18.34	19.62	12.41	3.990	0.532	0.157	0.158	0.173	0.143	0.143	0.138	0.202	0.128	0.122	0.120	0.165	0.103	0.134	0.127	0.138	0.127	0.120	0.101	0.124	0.130	0.122
245.0	146.1	208.9	260.5	1472	4871	3463	345.4	12.17	6.143	5.469	4.482	4.191	3.835	2.703	2.381	1.896	1.840	1.486	1.230	1.191	0.880	0.895	0.831	0.608	0.647	0.515	0.536	0.494	0.486	0.499	0.384	0.476	0.410	0.407	0.389	0.404	0.368	0.392	0.290	0.375	0.287	0.206	0.295	0.364	0.384	0.675	0.756	0.614	0.564	0.872	2.072	6.812	16.73	25.57	22.51	11.70	2.537	0.245	0.143	0.202	0.202	0.174	0.182	0.178	0.127	0.137	0.112	0.144	0.124	0.236	0.128	0.120	0.163	0.158	0.106	0.141	0.095
250.0	61.32	184.1	258.8	410.6	1749	4591	4899	1323	77.78	8.841	6.166	5.295	4.653	3.279	2.690	2.287	1.953	1.771	1.370	1.229	1.063	0.862	0.865	0.789	0.735	0.595	0.682	0.558	0.588	0.546	0.485	0.458	0.414	0.389	0.398	0.464	0.345	0.325	0.337	0.391	0.358	0.307	0.319	0.305	0.293	0.374	0.566	0.781	0.944	0.800	0.862	1.795	4.325	8.961	16.17	24.13	28.63	19.74	11.67	3.090	0.370	0.199	0.197	0.188	0.154	0.156	0.148	0.153	0.160	0.202	0.140	0.102	0.160	0.138	0.121	0.170	0.134
255.0	32.97	66.76	218.8	354.5	460.9	1249	4956	8234	1902	85.07	9.932	7.367	5.435	4.086	3.228	2.507	2.185	2.030	1.744	1.462	1.213	1.114	1.110	0.866	0.632	0.771	0.750	0.714	0.650	0.582	0.592	0.488	0.480	0.397	0.373	0.398	0.334	0.320	0.405	0.410	0.329	0.404	0.306	0.339	0.302	0.315	0.330	0.410	0.592	1.060	1.322	1.417	1.300	2.218	3.843	6.142	12.33	28.16	48.90	29.61	17.76	3.230	0.351	0.257	0.198	0.160	0.194	0.164	0.163	0.234	0.152	0.104	0.144	0.156	0.092	0.153	0.147
260.0	27.68	33.07	97.73	330.0	318.8	325.2	1651	7908	9137	1472	39.79	11.71	7.906	5.643	3.825	3.056	2.583	2.265	2.006	1.558	1.233	1.144	1.167	0.868	0.754	0.865	0.739	0.676	0.677	0.661	0.558	0.543	0.562	0.445	0.469	0.419	0.378	0.394	0.352	0.390	0.352	0.331	0.317	0.294	0.254	0.275	0.310	0.275	0.353	0.516	1.005	1.735	1.548	1.128	1.144	1.597	3.077	8.067	23.74	46.32	63.84	28.45	13.39	1.581	0.307	0.197	0.244	0.209	0.232	0.204	0.185	0.136	0.163	0.172	0.134	0.188	0.174
265.0	26.50	24.51	46.13	180.1	407.2	226.1	410.8	2979	9999.9	9218	228.5	18.31	10.65	7.175	5.134	3.683	2.990	2.313	2.223	1.680	1.432	1.286	1.064	0.996	0.865	0.846	0.784	0.867	0.831	0.799	0.668	0.519	0.599	0.482	0.512	0.472	0.516	0.397	0.399	0.405	0.329	0.341	0.410	0.328	0.359	0.287	0.299	0.274	0.279	0.336	0.382	0.959	1.759	2.075	1.310	0.714	0.944	2.126	5.809	14.68	38.63	64.70	72.92	25.04	7.212	0.477	0.271	0.222	0.225	0.213	0.193	0.157	0.189	0.205	0.192	0.136	0.167
270.0	37.60	28.53	30.57	63.09	220.5	391.4	288.1	729.1	3531	9999.9	9999.9	3107	59.11	11.11	7.086	5.310	3.533	2.808	2.408	1.962	1.841	1.463	1.281	1.114	0.882	0.941	0.939	0.837	0.931	0.747	0.724	0.633	0.630	0.554	0.533	0.470	0.429	0.439	0.420	0.438	0.433	0.375	0.408	0.389	0.420	0.375	0.302	0.309	0.300	0.308	0.282	0.449	0.780	1.290	1.778	1.977	1.658	1.196	1.677	3.602	9.362	19.70	40.24	58.97	52.16	58.85	16.40	6.437	0.623	0.308	0.277	0.243	0.269	0.199	0.238	0.182	0.209
275.0	60.06	45.99	35.73	35.47	72.30	213.4	510.7	364.1	839.8	2577	9437	9999.9	1273	61.36	11.46	7.531	4.921	4.078	3.080	2.404	2.200	1.801	1.571	1.501	1.076	1.123	1.018	0.972	0.938	0.905	0.725	0.709	0.530	0.590	0.585	0.517	0.460	0.579	0.481	0.447	0.394	0.431	0.453	0.483	0.471	0.420	0.326	0.351	0.323	0.334	0.369	0.378	0.409	0.536	0.701	1.191	2.490	3.150	1.990	1.382	2.494	4.802	9.363	14.12	18.63	53.51	96.44	96.38	25.47	6.846	0.466	0.338	0.320	0.289	0.335	0.259	0.253
280.0	90.61	75.47	57.09	44.04	41.77	88.22	372.1	556.1	314.1	645.7	2823	9999.9	9999.9	935.4	30.28	10.90	6.333	5.150	4.291	3.060	2.347	2.113	1.643	1.455	1.484	1.184	1.091	0.925	1.002	0.887	0.824	0.681	0.719	0.736	0.686	0.609	0.631	0.594	0.534	0.537	0.479	0.369	0.524	0.546	0.513	0.518	0.477	0.475	0.388	0.318	0.324	0.337	0.335	0.377	0.479	0.505	1.152	2.241	3.354	2.829	1.646	1.509	2.537	3.557	4.790	13.93	36.43	81.70	113.8	34.31	20.23	2.670	0.413	0.366	0.295	0.298	0.312
285.0	126.1	122.9	88.07	64.24	45.40	54.14	165.4	556.3	352.7	249.7	729.9	3653	9999.9	8729	125.2	17.73	8.919	6.334	4.520	3.634	2.637	2.351	2.250	1.643	1.589	1.355	1.241	1.085	1.055	0.984	0.888	0.819	0.755	0.972	0.718	0.813	0.670	0.646	0.646	0.552	0.492	0.458	0.548	0.574	0.541	0.621	0.605	0.614	0.572	0.437	0.399	0.409	0.416	0.427	0.316	0.393	0.633	0.985	1.977	3.259	3.484	1.895	1.271	1.320	1.696	3.848	8.713	21.53	52.84	92.84	115.6	30.81	13.34	1.034	0.439	0.352	0.325
290.0	183.0	189.7	157.0	100.7	71.50	63.21	97.35	255.3	545.9	488.4	330.4	974.4	3639	9999.9	9999.9	2252	36.87	9.655	6.470	4.588	3.510	2.867	2.326	2.022	1.909	1.541	1.381	1.268	1.118	1.050	0.950	0.960	0.904	1.025	0.927	0.900	0.838	0.744	0.730	0.672	0.580	0.609	0.595	0.626	0.725	0.680	0.774	0.774	0.669	0.604	0.551	0.530	0.479	0.529	0.432	0.453	0.529	0.672	0.875	1.495	2.466	3.256	3.435	2.604	1.531	1.755	2.740	5.635	12.78	24.99	49.17	66.05	89.09	69.71	20.48	10.06	1.458
295.0	260.3	275.9	231.9	163.4	103.9	94.22	103.4	158.2	292.0	710.7	666.3	455.4	999.8	2533	8641	9999.9	712.7	36.07	9.648	6.404	4.249	3.724	2.756	2.306	2.170	1.684	1.727	1.467	1.324	1.197	0.937	0.931	0.825	0.979	1.025	0.959	0.861	0.839	0.830	0.654	0.648	0.710	0.684	0.752	0.862	0.887	0.789	0.929	0.992	0.823	0.755	0.633	0.681	0.653	0.580	0.569	0.650	0.686	0.739	0.993	1.180	1.524	2.330	4.256	4.141	3.234	2.033	2.398	3.994	6.654	11.86	15.66	23.86	43.97	87.69	112.4	32.73
300.0	318.6	338.0	314.8	211.1	133.1	118.9	131.1	163.9	231.5	484.2	970.9	591.2	478.5	741.0	2411	9999.9	9999.9	549.0	19.87	8.208	5.881	4.353	3.131	2.866	2.203	1.895	1.875	1.577	1.392	1.400	1.058	1.024	0.809	0.955	1.062	0.996	0.952	0.893	0.864	0.741	0.757	0.948	0.739	0.789	1.016	0.990	0.950	1.231	0.963	1.084	0.785	0.795	0.763	0.726	0.693	0.527	0.791	0.935	0.868	1.097	0.978	1.375	1.608	2.524	4.122	5.319	3.842	2.531	2.270	2.797	3.786	4.488	6.226	10.94	27.27	67.58	108.2
305.0	334.9	396.9	363.4	234.9	162.6	148.3	170.5	204.7	264.5	394.1	791.4	995.6	498.0	399.4	689.2	3181	9999.9	5330	77.69	12.88	6.906	5.566	3.576	3.216	2.546	2.057	1.771	1.488	1.403	1.335	1.125	1.033	0.948	1.062	1.046	0.991	1.073	1.083	0.947	0.676	0.726	0.827	0.808	0.875	1.044	1.218	1.149	1.311	1.160	1.081	0.963	0.893	0.854	0.844	0.712	0.889	0.883	1.115	1.031	1.324	1.184	1.446	1.528	2.132	2.764	4.110	5.256	5.102	3.306	2.379	2.341	2.349	2.554	3.425	6.971	16.87	40.36
310.0	393.3	464.3	426.5	286.6	198.4	174.9	207.4	247.5	308.7	404.3	576.2	894.1	895.9	479.5	351.7	826.1	3190	9069	8485	1623	25.75	7.764	4.885	4.098	2.803	2.320	2.089	1.834	1.500	1.391	1.297	1.230	1.079	1.158	1.072	1.031	1.096	1.067	0.929	0.764	0.861	0.791	0.830	0.981	1.092	1.252	1.359	1.461	1.378	1.254	1.055	1.075	1.000	0.935	0.855	0.918	1.068	1.192	1.167	1.350	1.479	1.672	1.852	2.130	2.395	2.823	3.540	4.362	4.867	4.630	3.563	2.442	2.033	2.022	2.497	4.627	9.824
315.0	406.7	528.2	490.0	332.7	226.5	205.0	239.0	285.0	342.4	438.8	548.7	671.2	846.4	844.5	376.7	322.7	798.5	2165	6461	9999.9	516.3	26.85	7.473	5.498	3.427	3.126	2.326	1.910	1.853	1.517	1.445	1.109	1.043	1.142	1.043	1.117	1.082	1.011	0.954	0.985	0.780	0.921	0.991	1.154	1.139	1.350	1.475	1.582	1.493	1.266	1.171	1.196	1.151	0.948	0.933	0.994	1.203	1.418	1.389	1.303	1.817	1.848	1.919	2.186	2.367	2.590	2.966	3.239	3.218	4.288	5.072	4.581	3.078	2.128	1.811	2.042	2.974
320.0	420.0	585.6	533.1	344.9	238.6	224.4	254.6	300.2	370.3	464.9	559.0	627.8	693.5	869.7	603.0	246.9	280.4	545.4	1713	8340	9765	427.8	15.57	7.036	4.500	3.652	2.669	2.133	2.047	1.726	1.753	1.260	1.207	1.319	1.158	1.172	1.105	0.966	0.995	0.807	0.781	0.906	0.952	1.194	1.227	1.704	1.539	1.738	1.886	1.419	1.114	1.239	1.061	1.066	0.933	1.099	1.109	1.288	1.400	1.477	1.842	1.912	2.126	2.287	2.609	2.734	2.824	3.027	3.164	3.513	3.845	4.689	4.898	3.653	2.064	1.610	1.736
325.0	499.6	613.5	578.5	389.6	261.6	228.9	268.6	311.9	386.0	479.1	573.1	629.5	643.7	671.3	753.5	362.6	183.8	194.0	429.6	2425	9787	4057	62.00	10.40	6.230	4.229	3.096	2.540	2.318	1.779	1.760	1.508	1.248	1.134	1.151	1.164	1.042	0.995	0.996	0.792	0.840	0.875	1.046	1.121	1.297	1.502	1.576	2.026	1.741	1.610	1.207	1.372	1.154	1.192	1.252	1.094	1.338	1.449	1.483	1.525	1.696	2.022	2.220	2.351	2.690	2.740	2.866	2.853	3.091	3.286	3.289	3.412	4.385	4.388	3.745	2.234	1.557
330.0	520.1	666.0	643.0	449.4	300.6	261.8	286.0	339.3	400.5	488.1	583.7	648.0	641.3	584.4	586.4	545.5	296.2	141.7	158.1	588.7	2797	6364	6459	1398	22.36	6.270	4.175	3.313	2.776	1.933	1.919	1.630	1.455	1.390	1.225	1.221	1.102	1.085	0.917	0.937	0.933	0.933	1.048	1.131	1.316	1.430	1.744	2.062	2.011	1.778	1.448	1.593	1.324	1.231	1.168	1.195	1.475	1.507	1.480	1.479	1.841	2.072	2.117	2.331	2.510	2.812	2.812	3.067	3.163	3.100	3.198	2.905	3.035	3.298	3.668	3.477	2.930
335.0	552.8	689.2	673.7	498.6	356.8	308.8	308.0	353.4	423.5	503.6	590.5	647.8	646.0	572.8	481.8	433.9	483.4	241.5	121.9	192.5	670.1	1513	4809	9496	437.8	24.27	6.181	4.645	3.150	2.466	2.162	1.853	1.461	1.574	1.323	1.140	1.253	1.120	1.130	0.884	0.852	0.957	1.077	1.159	1.392	1.655	1.755	2.111	2.230	1.915	1.645	1.635	1.541	1.424	1.378	1.226	1.553	1.607	1.609	1.625	1.863	2.177	2.136	2.439	2.602	2.969	2.927	3.060	3.043	2.984	2.962	2.857	2.858	2.770	2.659	2.650	2.865
340.0	524.3	701.5	713.1	532.7	378.4	342.4	331.7	369.1	433.4	503.4	585.3	650.3	638.6	577.7	468.8	364.9	428.2	401.1	162.8	122.0	206.8	380.9	1274	6906	8126	381.8	14.03	5.611	4.099	2.913	2.491	1.905	1.644	1.562	1.529	1.165	1.044	1.072	1.194	0.901	0.887	0.931	1.105	1.129	1.402	1.591	1.958	2.306	2.141	1.865	1.699	1.806	1.538	1.709	1.464	1.361	1.615	1.546	1.757	1.679	2.148	2.096	2.030	2.529	2.428	2.985	2.879	3.059	3.060	2.979	3.041	2.916	2.700	2.886	2.434	2.317	2.273
345.0	504.0	699.5	712.5	571.4	413.6	384.6	354.5	385.7	440.9	501.8	580.5	631.3	631.0	571.4	468.8	359.2	328.5	424.9	290.9	132.5	121.3	141.2	326.3	1980	7882	6543	55.10	8.528	5.032	3.486	2.874	2.128	2.002	1.609	1.577	1.165	1.112	1.081	1.138	0.958	0.991	0.918	1.060	1.109	1.327	1.598	1.891	2.231	1.991	1.769	1.703	1.945	1.679	1.761	1.695	1.452	1.611	1.574	1.746	1.737	1.880	2.042	2.108	2.452	2.655	2.951	2.809	2.897	3.137	3.121	3.115	3.131	2.740	2.766	2.275	2.200	2.228
350.0	500.6	693.2	710.8	587.9	461.1	411.8	394.7	411.9	448.1	502.1	574.8	614.0	607.7	562.9	472.4	373.2	312.4	323.0	370.0	264.0	141.5	113.3	133.7	488.3	2247	5771	5244	1247	20.14	5.056	3.477	2.561	2.229	1.794	1.527	1.334	1.272	1.134	1.095	1.021	0.935	1.063	0.998	1.142	1.278	1.544	1.883	2.093	2.117	1.822	1.785	1.983	1.824	1.962	1.732	1.670	1.834	1.769	1.764	1.817	2.047	2.264	2.183	2.405	2.571	2.795	2.838	3.029	3.059	2.930	2.974	2.964	2.784	2.720	2.480	2.198	2.247
355.0	494.0	659.7	694.4	593.4	520.3	465.8	440.5	448.5	467.0	512.4	567.6	597.5	592.6	564.7	482.2	393.0	335.6	302.0	303.2	366.5	257.6	142.6	117.0	173.7	548.0	1367	3810	7603	404.5	22.71	5.301	3.616	2.787	1.947	1.661	1.388	1.284	1.177	1.104	1.043	0.934	1.098	1.035	1.107	1.253	1.537	1.651	1.929	2.137	1.868	1.922	2.175	1.978	1.976	1.906	1.962	1.966	1.972	1.963	2.111	2.138	2.258	2.446	2.431	2.476	2.582	2.962	2.732	2.938	2.688	2.755	2.745	2.907	2.953	2.601	2.275	2.489
360.0	496.5	647.7	665.5	610.8	544.6	501.3	477.3	478.7	498.6	529.8	570.3	595.2	586.8	557.6	495.2	414.6	364.6	314.6	289.3	328.9	357.9	207.0	135.1	121.5	183.8	348.4	1015	5552	6851	359.9	12.49	4.363	3.420	2.162	2.106	1.536	1.447	1.212	1.230	1.014	0.974	1.079	1.074	1.030	1.368	1.584	1.639	2.001	2.001	1.928	1.870	2.294	2.046	2.067	2.116	2.014	2.084	2.165	2.187	2.086	2.423	2.253	2.325	2.609	2.441	2.834	2.878	2.870	2.998	2.685	2.753	2.941	3.121	2.812	2.726	2.546	2.598
365.0	472.3	635.5	668.8	630.0	584.0	534.2	516.9	502.8	518.7	545.5	579.6	598.5	591.1	558.9	503.3	430.7	379.8	338.9	306.1	298.5	359.9	315.5	173.9	129.5	118.1	132.8	268.7	1625	6790	3224	50.94	7.419	3.884	2.949	2.224	1.697	1.378	1.324	1.290	0.913	0.991	1.081	1.029	1.165	1.314	1.529	1.588	2.081	2.017	1.851	1.940	2.207	2.021	2.216	2.164	2.027	2.212	2.225	2.377	2.017	2.335	2.292	2.290	2.629	2.520	2.628	2.843	2.770	2.953	3.049	2.825	2.731	2.745	2.763	2.823	2.606	2.727
370.0	457.3	623.3	674.5	658.1	600.0	575.2	550.2	540.0	545.0	570.3	594.5	595.9	588.5	559.7	515.6	455.3	408.1	376.3	342.8	313.4	315.7	352.5	288.0	175.7	130.9	108.8	117.4	406.2	1966	4753	4898	1120	17.34	4.187	2.776	2.047	1.630	1.477	1.387	1.186	1.088	1.083	1.066	1.211	1.261	1.559	1.705	2.033	1.972	1.858	1.951	2.267	2.198	2.306	2.163	2.204	2.360	2.485	2.325	2.323	2.310	2.587	2.606	2.622	2.648	2.688	2.880	2.912	2.725	2.895	2.968	2.828	2.829	2.839	2.782	2.566	2.799
375.0	476.0	604.6	683.4	676.7	641.9	620.8	592.0	579.7	577.5	582.1	594.9	599.4	581.5	558.0	518.4	473.3	433.7	410.8	375.2	342.6	322.0	316.4	347.6	279.8	168.6	127.7	105.1	149.4	479.8	1141	3728	6856	345.6	19.40	3.812	2.476	2.166	1.756	1.552	1.249	1.105	1.209	1.187	1.123	1.278	1.580	1.798	1.948	2.123	1.936	2.085	2.328	2.366	2.502	2.397	2.261	2.485	2.526	2.351	2.592	2.536	2.666	2.879	2.846	2.852	2.686	2.903	2.715	2.710	2.738	2.705	2.685	2.882	2.996	2.899	2.585	2.741
380.0	463.7	612.2	703.0	709.7	676.5	634.5	616.2	599.5	589.8	601.1	600.1	601.7	581.4	561.3	521.3	479.0	454.0	420.4	392.9	363.9	336.5	310.7	319.7	346.0	227.2	150.5	118.1	105.4	156.4	290.9	1012	5236	5778	296.8	9.378	3.263	2.641	1.959	1.640	1.356	1.283	1.238	1.225	1.097	1.384	1.580	1.610	2.083	1.967	1.925	2.059	2.461	2.331	2.461	2.527	2.630	2.653	2.557	2.684	2.987	2.652	2.696	2.658	2.824	2.900	2.761	2.701	2.710	2.753	2.800	2.881	2.818	2.782	3.065	2.993	2.856	2.915
385.0	460.6	599.1	697.3	708.6	691.1	664.0	634.9	625.2	595.1	603.9	612.7	606.9	585.2	559.9	529.7	481.5	459.8	431.5	407.7	380.9	353.6	326.2	306.1	335.4	303.1	187.7	135.4	109.0	97.95	111.0	259.4	1556	5807	2688	40.98	5.279	3.534	2.291	1.851	1.468	1.300	1.242	1.271	1.344	1.411	1.442	1.778	2.029	1.961	1.912	2.136	2.344	2.368	2.440	2.652	2.765	2.631	2.523	2.662	2.653	2.672	2.861	2.750	2.969	3.030	2.773	2.645	2.851	2.775	2.772	2.756	2.883	2.893	3.028	3.018	3.104	3.120
390.0	482.4	611.5	696.6	700.4	704.5	685.0	651.5	638.0	616.5	613.1	619.2	606.4	588.2	555.9	527.0	485.3	466.6	441.9	423.5	396.2	371.8	343.2	315.8	306.1	319.9	271.7	179.3	132.9	105.3	88.06	102.5	379.3	1695	3883	3783	853.2	14.15	3.172	2.456	1.838	1.512	1.368	1.342	1.355	1.429	1.610	1.663	2.120	2.085	1.952	2.217	2.495	2.592	2.515	2.809	2.833	2.760	2.618	2.661	2.845	2.720	2.821	2.777	2.824	2.987	2.726	2.776	2.822	2.810	2.745	2.941	2.855	2.954	3.048	2.853	3.017	3.033
395.0	476.2	620.1	701.4	717.8	729.5	699.5	670.1	651.1	634.7	633.2	618.9	605.8	579.0	553.4	518.4	482.5	466.3	447.8	431.7	408.2	383.1	359.4	328.7	307.7	289.2	302.7	259.5	167.8	128.6	100.3	83.84	126.5	405.6	934.8	3007	5205	286.9	14.30	3.118	2.257	1.805	1.551	1.557	1.507	1.489	1.670	1.873	2.008	2.077	2.001	1.936	2.509	2.651	2.558	2.769	2.830	2.972	2.888	2.971	2.757	2.847	2.788	2.886	2.756	2.915	2.955	2.740	2.937	2.930	2.660	2.967	2.922	2.837	3.085	3.095	3.114	3.145
400.0	456.8	612.0	720.6	717.8	713.4	713.3	675.3	662.3	640.4	636.5	619.8	613.4	578.1	550.0	521.1	486.1	461.1	451.4	431.3	415.1	389.2	365.9	344.1	313.9	291.2	281.1	299.1	216.8	149.8	118.2	90.66	79.30	125.1	233.2	838.0	4133	4334	238.1	7.154	2.867	2.187	1.903	1.579	1.484	1.615	1.710	1.895	1.950	2.070	2.062	2.140	2.630	2.353	2.767	2.892	2.690	2.935	2.767	2.993	2.661	2.996	2.900	2.755	2.723	2.909	3.007	2.773	2.809	2.776	2.792	2.797	2.926	2.694	2.784	2.993	3.130	3.145
405.0	447.1	611.7	710.3	716.1	709.6	719.0	698.0	665.2	644.1	637.3	618.1	605.3	581.7	549.9	517.4	476.5	463.2	445.0	428.4	415.0	393.4	372.0	349.9	322.7	297.2	272.8	286.3	267.5	180.7	134.9	103.0	78.21	69.48	81.06	208.7	1247	4519	2276	35.41	4.553	2.634	1.943	1.699	1.751	1.731	1.732	1.769	2.039	2.261	2.145	2.104	2.640	2.579	2.752	2.625	3.008	2.927	3.075	3.002	2.945	3.014	3.074	2.942	2.840	2.808	2.728	2.747	2.801	2.847	2.725	2.789	2.653	2.910	2.717	2.690	3.124	2.962
410.0	469.9	619.3	696.8	717.2	720.9	713.5	695.3	677.0	664.0	640.1	614.4	596.9	570.5	540.7	505.6	465.5	448.4	436.2	418.1	407.7	392.5	372.7	355.1	332.6	308.0	279.7	265.0	271.3	244.1	169.1	122.1	91.87	69.13	56.61	73.24	298.5	1335	3092	3054	748.3	12.11	2.739	2.055	1.829	1.678	1.825	1.824	2.071	2.151	2.094	2.008	2.548	2.681	2.761	2.613	2.905	2.979	3.000	3.170	2.866	3.011	2.971	3.019	2.973	2.683	2.946	2.773	2.772	2.798	2.722	2.973	2.890	2.872	2.761	2.849	2.970	2.785
