Sample:	'1
File name:	经十路与纬三路交叉口西污水井200倍.FD3
Run date:	'14:18:12, 01/12/2024
Operator:	Administrator
Comment:	'

Instrument
Model:	F-2700 FL Spectrophotometer
Serial number:	23B8-004
ROM Version:	4J14000 07

Instrument parameters
Measurement type:	3-D scan
Data mode:	Fluorescence
EX  Start WL:	220.0 nm
EX  End WL:	600.0 nm
EX Sampling interval:	5.0 nm
EM  Start WL:	230.0 nm
EM  End WL:	650.0 nm
EM Sampling interval:	5.0 nm
Scan speed:	12000 nm/min
EX Slit:	5.0 nm
EM Slit:	5.0 nm
PMT Voltage:	700 V
Response:	Auto 
Corrected spectra:	Off
Contour interval:	50.000

Peak integration
Integration method:	Rectangular
Sensitivity:	1
Threshold:	1.000

Peaks
No.	ApexEX/EM(nm)	Height(Data)
1	225.0/545.0	17.07
2	230.0/500.0	127.4
3	235.0/255.0	319.6
4	235.0/365.0	1477
5	235.0/515.0	122.0
6	240.0/265.0	393.1
7	240.0/525.0	117.0
8	245.0/270.0	423.2
9	245.0/535.0	115.0
10	250.0/275.0	582.4
11	250.0/550.0	111.5
12	255.0/280.0	733.4
13	255.0/560.0	120.1
14	260.0/575.0	109.6
15	265.0/310.0	5351
16	265.0/610.0	327.2
17	270.0/605.0	337.8
18	295.0/330.0	1187
19	300.0/365.0	1984
20	350.0/400.0	165.3
21	355.0/405.0	145.8
22	360.0/410.0	124.2
23	365.0/420.0	120.1
24	370.0/425.0	108.5
25	380.0/440.0	78.23
26	385.0/445.0	68.81
27	390.0/450.0	52.86
28	395.0/460.0	47.49
29	400.0/465.0	41.78
30	410.0/480.0	28.13
31	415.0/485.0	24.81
32	420.0/310.0	6.001
33	425.0/500.0	18.50
34	430.0/505.0	16.16
35	435.0/515.0	12.78
36	440.0/520.0	13.15
37	445.0/525.0	10.75
38	450.0/535.0	8.448
39	455.0/540.0	7.603
40	465.0/555.0	4.655
41	470.0/560.0	3.924
42	475.0/260.0	2.084
43	475.0/365.0	6.100
44	480.0/575.0	2.127
45	485.0/265.0	2.315
46	485.0/580.0	2.186
47	490.0/590.0	1.684
48	495.0/270.0	2.318
49	495.0/595.0	1.402
50	505.0/275.0	3.633
51	505.0/610.0	1.580
52	510.0/280.0	4.006
53	520.0/285.0	4.401
54	530.0/310.0	22.97
55	545.0/605.0	1.671

Data points
	220.0	225.0	230.0	235.0	240.0	245.0	250.0	255.0	260.0	265.0	270.0	275.0	280.0	285.0	290.0	295.0	300.0	305.0	310.0	315.0	320.0	325.0	330.0	335.0	340.0	345.0	350.0	355.0	360.0	365.0	370.0	375.0	380.0	385.0	390.0	395.0	400.0	405.0	410.0	415.0	420.0	425.0	430.0	435.0	440.0	445.0	450.0	455.0	460.0	465.0	470.0	475.0	480.0	485.0	490.0	495.0	500.0	505.0	510.0	515.0	520.0	525.0	530.0	535.0	540.0	545.0	550.0	555.0	560.0	565.0	570.0	575.0	580.0	585.0	590.0	595.0	600.0
230.0	37.65	738.5	2408	764.7	25.67	4.769	3.808	3.738	3.272	3.142	2.583	2.551	2.115	1.804	1.455	1.443	1.287	0.979	0.908	0.818	0.740	0.637	0.522	0.439	0.368	0.391	0.330	0.301	0.316	0.283	0.304	0.278	0.235	0.280	0.240	0.207	0.274	0.202	0.204	0.228	0.329	0.680	0.677	0.396	0.225	0.196	0.856	4.538	8.370	5.923	2.218	0.430	0.173	0.174	0.152	0.129	0.153	0.151	0.137	0.162	0.132	0.127	0.114	0.130	0.106	0.128	0.140	0.139	0.128	0.125	0.099	0.121	0.104	0.111	0.124	0.101	0.118
235.0	103.0	203.8	1201	2165	632.6	39.05	4.721	3.905	4.062	3.332	3.565	2.262	2.084	1.468	1.322	1.116	1.533	0.915	0.785	0.782	0.649	0.625	0.578	0.458	0.392	0.395	0.252	0.302	0.401	0.373	0.257	0.292	0.235	0.232	0.249	0.304	0.196	0.266	0.152	0.241	0.263	0.308	0.568	0.704	0.684	0.340	0.348	1.266	2.757	4.210	6.289	6.899	3.642	0.814	0.188	0.156	0.143	0.114	0.123	0.142	0.139	0.171	0.093	0.111	0.083	0.086	0.127	0.143	0.131	0.142	0.093	0.116	0.102	0.118	0.116	0.138	0.139
240.0	163.4	136.0	332.7	1552	2241	482.4	18.48	4.714	4.700	3.585	3.386	3.077	2.238	1.976	1.419	1.313	1.367	1.184	0.880	0.970	0.713	0.681	0.555	0.483	0.316	0.413	0.305	0.371	0.345	0.276	0.356	0.273	0.275	0.267	0.230	0.196	0.198	0.275	0.176	0.216	0.183	0.238	0.301	0.524	0.853	0.936	0.534	0.520	0.749	1.261	2.896	7.470	9.160	6.961	2.638	0.491	0.146	0.115	0.172	0.159	0.144	0.172	0.100	0.175	0.090	0.095	0.117	0.120	0.122	0.123	0.101	0.118	0.114	0.128	0.118	0.113	0.133
245.0	109.2	214.5	135.6	483.9	2062	2130	332.1	8.858	5.308	3.521	3.585	3.352	2.128	2.372	1.673	1.344	1.335	1.262	1.080	0.981	0.631	0.719	0.627	0.404	0.361	0.367	0.313	0.386	0.277	0.294	0.289	0.256	0.290	0.252	0.206	0.239	0.220	0.229	0.306	0.288	0.230	0.243	0.213	0.353	0.488	0.770	1.029	0.878	0.478	0.397	0.784	2.302	5.387	11.02	9.817	5.718	1.670	0.284	0.155	0.171	0.128	0.151	0.120	0.139	0.137	0.109	0.152	0.119	0.160	0.188	0.098	0.128	0.108	0.100	0.112	0.090	0.138
250.0	40.72	134.3	234.3	203.9	624.9	1768	2288	941.0	56.36	5.066	4.569	3.712	2.638	2.495	2.075	1.613	1.490	1.258	0.972	0.862	0.784	0.667	0.500	0.454	0.509	0.467	0.339	0.438	0.318	0.299	0.336	0.236	0.240	0.269	0.255	0.213	0.201	0.252	0.226	0.227	0.240	0.235	0.246	0.265	0.301	0.350	0.557	0.891	1.065	0.884	0.651	0.744	1.428	3.322	5.156	7.854	10.43	9.611	5.547	1.757	0.223	0.150	0.121	0.129	0.153	0.174	0.172	0.138	0.134	0.163	0.120	0.112	0.111	0.119	0.143	0.110	0.140
255.0	20.78	39.04	157.3	319.6	233.0	443.2	1516	3414	444.8	41.59	7.161	4.484	3.111	2.989	2.334	1.506	1.595	1.308	1.021	1.168	0.780	0.772	0.476	0.432	0.595	0.403	0.398	0.418	0.299	0.466	0.357	0.275	0.186	0.258	0.252	0.204	0.241	0.232	0.230	0.185	0.197	0.257	0.316	0.238	0.251	0.289	0.272	0.349	0.582	0.948	1.271	1.448	0.766	0.918	1.334	2.038	3.569	8.384	15.10	16.08	8.074	1.677	0.183	0.169	0.119	0.155	0.151	0.152	0.125	0.172	0.116	0.125	0.155	0.095	0.119	0.113	0.120
260.0	14.52	18.24	59.94	292.9	333.4	155.1	441.5	2506	3454	359.2	18.94	6.145	4.447	3.215	2.624	1.400	1.627	1.408	1.075	1.277	0.976	0.794	0.524	0.398	0.654	0.466	0.456	0.361	0.319	0.391	0.394	0.292	0.191	0.283	0.216	0.210	0.237	0.212	0.286	0.204	0.179	0.195	0.280	0.224	0.233	0.185	0.183	0.227	0.255	0.457	0.871	2.084	1.886	1.080	0.542	0.602	1.000	2.390	6.154	14.02	18.77	14.68	5.587	0.850	0.167	0.175	0.164	0.142	0.163	0.150	0.145	0.136	0.173	0.129	0.143	0.110	0.092
265.0	18.37	16.66	24.19	131.4	393.1	247.5	137.8	799.8	4088	2859	262.5	9.366	5.746	4.217	2.916	2.131	1.834	1.529	1.366	1.276	1.044	0.853	0.560	0.537	0.538	0.524	0.373	0.507	0.362	0.442	0.377	0.336	0.304	0.410	0.225	0.256	0.238	0.214	0.243	0.241	0.235	0.288	0.306	0.209	0.217	0.194	0.221	0.152	0.225	0.243	0.332	0.959	1.888	2.315	1.526	0.577	0.463	0.772	1.661	4.200	9.500	17.13	21.52	13.11	2.527	0.318	0.183	0.201	0.165	0.136	0.157	0.109	0.211	0.130	0.126	0.124	0.094
270.0	45.43	22.54	19.44	42.60	181.2	423.2	311.4	244.3	1294	2899	3433	979.0	44.13	6.275	3.388	2.713	2.300	1.718	1.413	1.281	1.038	0.963	0.570	0.606	0.569	0.545	0.420	0.464	0.414	0.413	0.395	0.367	0.520	0.599	0.424	0.418	0.389	0.405	0.414	0.471	0.476	0.414	0.431	0.366	0.330	0.243	0.237	0.189	0.190	0.194	0.201	0.338	0.690	1.242	1.924	2.318	1.955	1.039	0.671	1.197	2.563	5.093	10.22	16.35	17.14	14.80	9.033	1.996	0.210	0.183	0.150	0.145	0.177	0.129	0.113	0.154	0.119
275.0	102.7	55.97	36.35	28.71	59.59	194.5	582.4	369.8	378.8	781.3	2500	5629	1243	27.01	4.612	3.888	2.689	1.835	1.612	1.445	1.279	0.947	0.679	0.679	0.554	0.549	0.464	0.437	0.456	0.532	0.455	0.492	0.735	0.813	0.725	0.616	0.624	0.729	0.537	0.749	0.710	0.655	0.641	0.489	0.453	0.403	0.403	0.331	0.255	0.259	0.202	0.243	0.367	0.457	0.665	1.199	2.514	3.633	2.476	0.952	0.966	1.683	2.730	4.302	5.408	11.48	25.02	22.10	9.644	1.556	0.224	0.194	0.169	0.194	0.174	0.201	0.176
280.0	139.1	97.14	55.00	35.33	36.75	79.17	376.0	733.4	313.4	292.9	779.1	4388	5138	216.9	12.35	4.863	3.461	2.446	1.977	1.740	1.229	1.126	0.796	0.595	0.630	0.619	0.611	0.552	0.478	0.496	0.447	0.475	0.800	1.029	0.969	0.804	0.784	0.874	0.811	0.957	0.921	0.912	0.806	0.769	0.658	0.553	0.503	0.419	0.345	0.294	0.220	0.284	0.238	0.315	0.337	0.500	1.098	2.388	4.006	3.386	1.636	0.978	1.140	1.505	1.750	3.278	8.826	17.27	22.84	18.39	6.173	0.796	0.223	0.230	0.197	0.202	0.195
285.0	199.3	142.1	86.89	49.35	37.97	51.48	171.9	662.5	498.2	275.2	334.3	1428	5150	5323	146.9	7.000	4.288	3.555	2.184	1.753	1.447	1.332	0.934	0.813	0.502	0.755	0.580	0.577	0.563	0.519	0.603	0.571	1.002	1.235	1.237	1.084	1.022	0.931	0.911	1.129	1.006	1.044	1.102	0.882	0.809	0.845	0.616	0.542	0.545	0.370	0.315	0.285	0.277	0.311	0.277	0.373	0.580	0.982	2.117	3.980	4.401	2.250	1.215	1.182	1.117	1.520	2.615	5.022	10.89	20.23	24.31	13.28	2.734	0.305	0.196	0.284	0.223
290.0	267.4	209.3	129.8	71.50	53.04	65.78	121.9	330.8	738.7	737.0	361.4	550.8	1591	5681	2789	559.8	28.46	5.329	2.689	2.313	1.899	1.444	1.015	0.888	0.684	0.627	0.600	0.584	0.495	0.467	0.585	0.520	1.030	1.421	1.437	1.447	1.353	1.109	1.173	1.248	1.044	1.194	1.323	1.053	1.077	0.899	0.812	0.730	0.590	0.430	0.356	0.331	0.369	0.364	0.350	0.394	0.521	0.749	1.055	1.794	2.995	3.831	4.374	3.166	1.901	1.667	1.672	2.057	3.217	5.799	10.15	14.65	16.94	15.48	9.378	2.911	0.505
295.0	397.6	320.9	203.9	141.4	173.0	278.0	419.2	508.9	1005	1539	1463	860.5	608.5	1595	2308	4204	760.6	30.71	4.788	3.108	1.983	1.534	1.259	1.021	0.865	0.908	0.760	0.500	0.614	0.451	0.586	0.557	0.999	1.594	1.658	1.686	1.651	1.507	1.640	1.673	1.868	1.562	1.727	1.625	1.525	1.321	1.058	1.003	0.830	0.624	0.545	0.670	0.773	0.910	1.131	1.244	1.816	2.277	2.870	3.101	3.521	4.446	5.603	6.986	7.494	5.489	3.727	3.066	2.861	2.796	3.533	4.602	5.734	10.46	19.84	22.41	12.29
300.0	812.0	566.1	364.7	363.7	578.5	729.6	1660	2367	3037	3142	2970	2348	1416	1313	1407	3940	4401	134.7	13.07	4.913	3.099	2.479	1.636	1.444	1.065	1.175	0.765	0.848	0.755	0.753	0.725	0.625	1.209	2.127	2.056	2.787	3.169	3.367	3.863	3.910	4.069	3.595	3.152	2.832	2.861	2.551	2.020	1.922	1.422	1.134	1.140	1.486	2.177	2.585	3.704	4.888	6.500	7.656	9.170	10.39	11.94	13.19	13.65	14.35	14.77	15.46	12.69	9.265	7.361	5.173	4.407	5.272	5.596	6.178	8.998	17.18	26.19
305.0	1064	744.2	514.3	507.5	867.7	1510	2617	3783	4813	5201	4928	4409	2278	1675	1517	2310	4959	3202	94.31	7.130	3.935	2.789	1.993	2.092	1.577	1.285	0.955	1.005	0.936	0.778	0.866	0.827	1.210	2.151	2.921	3.569	4.548	5.137	5.617	5.456	5.819	4.932	4.462	4.047	4.105	3.627	2.533	2.467	1.967	1.370	1.685	2.625	2.985	4.006	5.679	7.430	10.24	12.34	14.68	16.59	18.57	20.57	21.86	21.22	19.87	19.39	19.31	16.44	12.10	7.823	6.335	7.055	7.059	6.501	6.751	9.914	16.06
310.0	1059	736.5	499.1	514.7	902.7	1605	2668	3906	4933	5351	4872	4287	2793	1809	1487	1676	2235	3128	2057	415.5	17.93	4.019	2.484	2.191	1.518	1.433	1.322	1.159	1.028	0.813	0.865	0.985	1.240	2.171	3.074	3.518	4.327	5.224	5.513	5.984	6.001	5.157	4.528	4.018	3.989	3.592	2.462	2.494	1.861	1.483	1.657	2.637	3.231	4.495	5.784	7.639	10.40	12.71	15.29	17.30	19.42	21.09	22.97	21.74	19.93	18.80	17.51	16.58	14.15	9.979	7.823	7.193	7.323	6.143	5.844	7.592	10.08
315.0	963.5	664.9	453.7	481.4	847.2	1484	2441	3574	4493	4880	4412	3631	2443	2095	1440	1403	1294	855.9	1651	4031	548.4	14.65	3.475	3.235	1.723	1.503	1.288	1.126	1.017	0.814	1.050	0.811	1.076	2.093	2.628	3.222	4.047	4.684	5.213	5.356	5.389	4.750	3.974	3.571	3.783	3.317	2.235	2.343	1.749	1.349	1.492	2.510	3.008	3.972	5.291	7.025	9.409	11.56	14.15	15.69	18.28	20.05	21.34	20.34	17.65	16.55	15.15	13.40	10.90	8.867	8.813	8.746	7.548	5.942	5.294	6.480	8.311
320.0	842.8	578.7	390.0	427.9	706.4	1225	2059	2964	3762	4089	3668	2972	1854	1808	1507	1185	938.7	310.4	467.1	3123	3027	96.58	6.719	3.541	2.117	1.572	1.438	1.136	1.054	0.992	1.098	0.766	0.971	1.775	2.351	2.826	3.636	3.903	4.134	4.364	4.674	4.083	3.518	3.143	3.243	2.772	2.218	2.073	1.450	1.222	1.444	2.270	2.848	3.405	4.579	5.672	7.924	9.871	12.03	13.21	15.25	16.88	17.82	17.00	15.02	13.68	12.40	10.94	9.007	6.705	6.376	8.163	7.963	6.507	4.842	5.580	6.836
325.0	671.7	486.2	351.9	360.9	582.5	992.0	1620	2351	2968	3224	2916	2340	1440	1281	1462	1114	743.8	191.5	155.8	948.5	3000	2574	72.07	5.505	2.701	1.876	1.565	1.523	1.095	1.038	0.992	0.762	0.895	1.395	1.780	2.399	3.129	3.418	3.571	3.743	3.903	3.392	2.979	2.632	2.621	2.405	1.846	1.764	1.457	1.229	1.242	1.768	2.462	3.032	3.875	4.611	6.401	7.840	9.533	10.22	12.08	12.76	13.86	13.61	11.86	11.08	9.736	8.916	7.156	5.308	4.553	5.379	6.177	6.789	5.508	5.101	5.544
330.0	552.8	448.2	361.5	375.3	503.9	752.8	1155	1683	2118	2337	2133	1750	1117	934.6	1046	1187	822.8	273.7	189.6	336.0	943.6	2448	1805	341.2	16.82	2.869	1.838	1.486	1.237	1.143	0.994	0.897	0.944	1.295	1.604	2.043	2.507	2.648	2.752	2.889	2.852	2.519	2.286	2.190	2.214	2.044	1.679	1.656	1.537	1.241	1.438	1.730	2.143	2.364	2.991	3.504	4.777	5.641	6.836	7.507	8.399	9.418	9.968	9.927	8.847	8.267	7.294	6.733	5.448	4.137	3.569	3.812	4.328	4.471	4.871	5.729	6.186
335.0	473.6	475.0	490.2	513.8	542.8	576.6	789.9	1138	1448	1603	1518	1325	964.3	880.3	920.7	1055	1145	632.9	416.0	372.6	427.4	706.1	1540	3072	473.2	11.76	2.594	2.172	1.298	1.303	1.205	1.006	0.896	1.305	1.589	1.615	2.040	2.053	2.237	2.126	2.142	1.946	1.833	1.747	1.728	2.009	1.726	2.005	1.932	1.719	1.696	2.232	2.241	2.509	2.485	2.531	3.227	3.680	4.630	5.287	5.919	6.869	7.176	7.163	6.398	5.978	5.304	5.645	4.538	3.704	3.297	3.678	3.743	3.999	4.034	4.684	6.004
340.0	444.6	511.2	629.0	699.2	629.8	508.6	597.5	823.4	1061	1214	1209	1141	957.3	947.1	1006	1088	1227	1071	704.9	541.2	429.3	361.4	508.9	2377	2489	79.58	5.913	2.693	1.904	1.405	1.179	1.171	1.011	1.441	1.636	1.593	1.859	2.062	2.086	1.825	1.857	1.655	1.370	1.518	1.707	1.784	1.894	2.143	2.284	2.261	2.449	2.864	2.699	2.573	2.355	1.987	2.421	2.911	3.449	3.714	4.489	4.745	5.208	5.532	4.874	4.793	4.574	4.653	4.131	3.881	3.503	3.978	4.357	4.509	4.374	4.734	5.602
345.0	444.4	581.9	796.7	851.2	729.7	478.1	475.3	630.3	809.9	972.2	1024	1062	1005	1073	1166	1228	1285	1338	1054	744.2	543.0	356.1	251.6	756.7	2381	1805	65.63	3.925	2.168	1.673	1.577	1.257	1.042	1.530	1.652	2.003	1.767	1.878	1.969	1.930	1.529	1.437	1.374	1.459	1.757	1.734	2.163	2.565	2.816	2.894	2.841	3.697	3.306	3.002	2.223	1.857	2.172	2.290	2.629	3.108	3.556	3.766	4.048	4.119	4.284	4.183	4.228	4.250	3.887	3.794	3.994	4.394	4.778	5.082	5.330	5.199	6.075
350.0	463.2	685.1	993.9	1093	889.8	483.9	372.0	474.5	628.3	784.8	907.6	1030	1104	1254	1396	1488	1495	1481	1440	1123	739.2	453.7	239.7	242.6	709.9	1701	1480	311.2	14.46	2.252	1.991	1.464	1.218	1.520	1.732	2.147	2.104	1.898	1.819	1.716	1.486	1.313	1.402	1.477	1.736	2.102	2.310	3.078	3.456	3.565	3.707	4.614	4.045	3.148	2.329	1.665	1.681	1.700	1.962	2.314	2.569	2.963	3.068	3.375	3.474	3.779	3.823	3.954	3.944	4.274	4.582	5.232	5.744	6.079	6.223	6.401	6.924
355.0	490.9	796.5	1167	1323	1013	505.9	300.6	372.6	500.0	671.2	837.1	1032	1216	1415	1605	1735	1772	1698	1575	1442	1007	567.8	283.0	147.2	195.3	417.7	1196	2994	446.7	10.89	2.530	1.660	1.318	1.795	1.894	2.130	2.020	2.283	1.936	1.590	1.324	1.219	1.524	1.552	1.795	2.120	2.584	3.771	4.155	4.085	4.237	5.359	4.653	3.603	2.332	1.567	1.278	1.343	1.611	1.806	2.047	2.489	2.551	2.950	3.249	3.419	3.929	3.902	4.340	4.950	5.193	5.796	6.315	7.013	7.065	7.908	8.227
360.0	472.5	839.8	1271	1425	1098	508.0	268.7	314.9	444.5	601.3	802.1	1035	1285	1525	1724	1867	1913	1842	1671	1467	1202	684.2	311.6	136.1	87.35	116.7	330.5	2243	2481	75.43	6.588	2.225	1.716	1.835	2.005	2.445	2.141	2.122	1.905	1.480	1.412	1.263	1.428	1.468	1.687	2.156	2.812	3.884	4.267	4.360	4.704	6.021	4.909	3.912	2.386	1.486	1.352	1.256	1.437	1.571	1.863	2.214	2.277	2.840	3.013	3.293	3.536	4.190	4.314	4.869	5.827	6.234	7.237	7.611	7.740	8.472	9.194
365.0	490.9	850.4	1302	1477	1156	515.4	254.5	288.5	404.6	572.4	777.3	1036	1305	1560	1769	1925	1984	1928	1725	1454	1212	819.7	354.7	139.8	69.56	52.66	92.88	657.1	2379	2186	65.90	3.545	1.894	2.269	2.126	2.261	2.238	2.277	1.711	1.538	1.529	1.270	1.392	1.632	1.782	2.425	2.956	3.922	4.511	4.591	5.019	6.100	5.344	4.078	2.585	1.441	1.289	0.974	1.246	1.472	1.643	1.873	2.313	2.748	2.952	3.265	3.500	4.124	4.170	5.316	5.897	6.136	6.872	7.702	8.054	9.031	9.598
370.0	499.7	845.4	1306	1474	1139	507.9	237.7	258.8	359.4	525.2	745.6	1003	1284	1539	1769	1908	1978	1925	1729	1431	1110	823.9	472.2	174.4	72.23	45.67	43.99	165.2	681.1	1927	2521	275.2	15.22	2.984	2.555	2.449	2.313	2.162	1.816	1.541	1.519	1.208	1.279	1.551	1.847	2.334	2.876	3.843	4.406	4.609	5.018	5.863	5.134	3.898	2.629	1.584	1.231	1.043	1.205	1.308	1.346	1.776	2.138	2.429	2.626	3.114	3.689	3.784	4.420	5.144	5.758	6.209	7.032	7.423	8.125	8.921	9.592
375.0	496.1	825.1	1243	1419	1111	505.5	230.3	235.7	337.0	485.5	698.3	955.3	1210	1476	1676	1823	1889	1841	1664	1373	1028	702.9	486.4	275.3	93.13	50.41	40.92	61.33	173.1	463.6	1618	2092	391.4	14.55	3.205	2.997	2.556	2.297	1.858	1.324	1.283	1.244	1.340	1.325	1.820	2.053	2.626	3.919	4.339	4.539	4.744	6.009	4.882	3.571	2.454	1.374	1.213	1.086	1.309	1.289	1.404	1.502	1.797	1.975	2.424	2.883	3.139	3.733	4.035	5.111	5.586	6.020	6.691	7.170	7.196	8.422	8.721
380.0	469.4	779.5	1154	1346	1042	479.5	216.4	218.5	302.5	445.7	644.7	883.6	1136	1372	1562	1722	1777	1730	1569	1290	971.4	638.0	400.1	322.2	150.9	57.90	42.85	42.15	62.89	124.7	432.5	1509	1785	64.85	5.911	3.219	2.578	2.373	1.895	1.496	1.440	1.250	1.349	1.402	1.739	2.028	2.473	3.663	4.219	4.166	4.555	5.405	4.935	3.546	2.183	1.269	1.175	1.084	1.122	1.109	1.270	1.477	1.614	1.805	2.262	2.630	3.068	3.344	4.194	4.898	5.200	6.021	6.112	6.747	7.274	7.937	8.443
385.0	429.3	720.9	1080	1259	992.5	455.0	210.9	210.1	285.2	411.8	595.3	816.8	1041	1277	1458	1584	1640	1605	1467	1200	899.7	587.3	335.8	264.4	223.3	84.82	46.25	39.57	40.90	49.82	116.0	443.4	1632	1713	52.80	4.648	2.518	2.539	2.288	1.469	1.270	1.237	1.200	1.255	1.711	1.832	2.336	3.313	3.649	3.810	4.182	4.975	4.574	3.535	2.194	1.240	1.041	0.951	0.990	1.000	1.098	1.506	1.692	1.759	2.174	2.549	2.765	3.054	3.797	4.190	4.588	5.548	5.520	5.891	6.687	7.032	7.273
390.0	374.7	654.1	953.8	1106	866.0	408.6	197.2	185.8	249.9	368.0	524.9	727.4	919.0	1127	1284	1384	1438	1409	1282	1052	800.2	525.2	293.4	182.8	190.4	164.5	70.63	42.22	37.07	36.05	45.52	113.2	469.0	1471	1325	638.5	13.97	2.483	1.997	1.643	1.169	1.256	1.174	1.214	1.424	1.758	2.183	2.960	3.270	3.569	3.799	4.507	4.013	3.130	1.933	1.173	1.053	0.813	0.888	0.923	1.053	1.227	1.513	1.715	1.931	2.325	2.539	2.775	3.156	3.815	3.978	4.665	4.921	5.456	5.817	6.179	6.436
395.0	327.2	566.0	834.4	939.3	756.9	362.7	177.6	168.1	218.4	313.8	447.9	623.0	784.8	957.1	1093	1182	1222	1202	1089	902.0	692.6	452.0	258.8	144.1	114.7	154.7	150.0	62.13	38.71	35.96	32.57	39.94	114.9	347.4	827.1	2387	331.6	9.972	2.067	1.801	1.349	1.267	1.155	1.068	1.434	1.760	2.023	2.621	2.941	3.017	3.282	3.928	3.390	2.817	1.842	1.189	0.943	0.833	0.726	0.787	0.931	1.109	1.411	1.482	1.666	2.094	2.012	2.601	2.677	3.110	3.452	3.707	4.202	4.680	5.014	5.181	5.688
400.0	279.7	502.1	737.6	830.4	660.5	326.0	174.0	153.6	202.0	281.2	403.8	549.4	692.0	836.8	958.6	1024	1068	1047	950.8	801.6	605.3	409.2	232.5	131.2	91.26	104.7	165.3	89.07	45.31	35.20	30.17	25.16	36.98	86.99	221.9	1532	1345	53.68	4.514	2.092	1.277	1.200	1.246	1.049	1.339	1.597	2.070	2.491	2.539	2.801	2.780	3.493	3.021	2.388	1.578	1.077	1.032	0.782	0.686	0.813	0.861	1.014	1.161	1.298	1.427	1.700	1.850	2.268	2.549	2.786	3.365	3.297	3.859	4.134	4.590	4.379	5.323
405.0	254.2	440.5	654.9	742.9	591.2	285.5	151.9	144.4	182.2	251.6	361.2	483.4	604.5	737.1	840.9	899.7	939.3	914.9	835.9	697.6	535.3	361.5	210.1	121.1	84.53	76.21	123.8	145.8	70.04	37.40	30.25	23.00	20.26	28.86	56.97	424.1	1186	978.8	45.29	2.543	1.521	1.189	1.138	1.034	1.231	1.363	1.763	2.192	2.278	2.550	2.465	3.075	2.517	2.173	1.458	0.942	0.913	0.782	0.810	0.790	0.736	1.050	1.035	1.135	1.378	1.493	1.745	2.126	2.378	2.567	2.846	3.064	3.425	3.826	4.154	4.054	4.466
410.0	228.8	380.0	548.9	612.2	500.4	251.7	140.0	130.1	157.9	223.1	308.5	398.0	508.5	609.5	696.5	742.7	775.1	761.0	691.8	581.1	448.8	304.6	183.4	109.3	77.31	65.07	74.35	115.5	124.2	61.18	32.53	23.58	18.54	17.31	20.75	101.8	334.4	799.3	744.6	198.9	11.31	1.431	1.080	1.070	1.265	1.313	1.473	1.914	2.007	2.077	1.995	2.668	2.264	1.887	1.322	0.934	0.824	0.698	0.699	0.701	0.738	0.827	0.914	1.113	1.236	1.420	1.459	1.760	2.014	2.175	2.389	2.595	2.862	3.052	3.319	3.449	3.691
415.0	209.4	296.1	431.2	487.7	417.0	215.4	125.7	117.1	138.9	187.7	263.2	331.5	418.9	505.9	564.6	608.8	628.1	622.0	563.1	473.7	361.2	250.5	154.9	97.51	69.48	59.31	57.12	66.37	108.8	111.9	48.56	25.05	18.91	14.98	13.66	29.56	79.89	189.7	531.6	1203	283.7	8.941	1.252	1.084	1.091	1.296	1.292	1.564	1.722	1.749	1.679	2.091	1.874	1.647	1.061	0.764	0.733	0.678	0.704	0.539	0.665	0.659	0.870	0.966	1.030	1.105	1.202	1.392	1.645	1.822	1.880	2.184	2.239	2.489	2.564	2.858	3.017
