Sample:	'1
File name:	Default_20230207_152037.FD3
Run date:	'15:14:17, 02/07/2023
Operator:	user
Comment:	'

Instrument
Model:	F-2700 FL Spectrophotometer
Serial number:	2190-003
ROM Version:	4J14000 07

Instrument parameters
Measurement type:	3-D scan
Data mode:	Fluorescence
EX  Start WL:	220.0 nm
EX  End WL:	600.0 nm
EX Sampling interval:	5.0 nm
EM  Start WL:	230.0 nm
EM  End WL:	650.0 nm
EM Sampling interval:	5.0 nm
Scan speed:	12000 nm/min
EX Slit:	5.0 nm
EM Slit:	5.0 nm
PMT Voltage:	700 V
Response:	Auto 
Corrected spectra:	Off
Contour interval:	50.000

Peak integration
Integration method:	Rectangular
Sensitivity:	1
Threshold:	1.000

Peaks
No.	ApexEX/EM(nm)	Height(Data)
1	245.0/265.0	48.24
2	245.0/365.0	620.5
3	245.0/530.0	-70.96
4	250.0/545.0	-59.89
5	255.0/555.0	-29.73
6	260.0/425.0	209.5
7	265.0/575.0	70.85
8	270.0/295.0	 2190
9	270.0/440.0	208.2
10	270.0/590.0	104.4
11	275.0/300.0	 2110
12	275.0/445.0	207.9
13	275.0/595.0	91.49
14	275.0/605.0	91.67
15	280.0/425.0	205.7
16	280.0/435.0	203.8
17	285.0/380.0	237.3
18	285.0/395.0	223.6
19	285.0/565.0	 1092
20	285.0/630.0	-17.04
21	290.0/425.0	205.3
22	290.0/640.0	-10.23
23	295.0/390.0	227.5
24	295.0/540.0	-5.023
25	300.0/335.0	331.8
26	300.0/400.0	222.3
27	305.0/340.0	351.8
28	310.0/345.0	318.9
29	315.0/350.0	255.4
30	320.0/360.0	264.8
31	325.0/290.0	-15.21
32	325.0/365.0	274.5
33	330.0/370.0	233.5
34	335.0/380.0	240.4
35	340.0/385.0	245.3
36	345.0/255.0	-11.66
37	345.0/390.0	209.8
38	350.0/235.0	-12.24
39	350.0/395.0	202.2
40	355.0/240.0	-11.56
41	355.0/260.0	-11.63
42	355.0/405.0	195.5
43	360.0/250.0	-11.12
44	360.0/295.0	-11.00
45	360.0/410.0	179.1
46	360.0/595.0	-7.799
47	365.0/415.0	175.1
48	370.0/425.0	168.4
49	375.0/430.0	146.9
50	380.0/335.0	-8.580
51	380.0/435.0	135.0
52	380.0/580.0	-4.472
53	385.0/445.0	124.1
54	400.0/465.0	69.14
55	405.0/625.0	-6.055
56	410.0/280.0	-6.844
57	410.0/475.0	43.45
58	415.0/335.0	-6.417
59	415.0/485.0	36.37
60	420.0/490.0	27.80
61	425.0/325.0	-5.818
62	425.0/500.0	21.92
63	430.0/505.0	19.45
64	435.0/510.0	14.05
65	440.0/515.0	11.81
66	445.0/525.0	9.299
67	450.0/320.0	-4.927
68	450.0/530.0	6.388
69	455.0/535.0	4.574
70	460.0/545.0	2.738
71	465.0/550.0	1.467
72	480.0/375.0	-3.408
73	485.0/360.0	-3.585
74	490.0/365.0	-3.653
75	500.0/605.0	-4.855
76	510.0/345.0	-4.151
77	535.0/295.0	-0.983
78	545.0/300.0	-0.834
79	550.0/305.0	-1.790
80	550.0/585.0	-4.809
81	555.0/310.0	-2.639
82	560.0/240.0	-5.620
83	565.0/245.0	-5.587
84	575.0/425.0	-5.167

Data points
	220.0	225.0	230.0	235.0	240.0	245.0	250.0	255.0	260.0	265.0	270.0	275.0	280.0	285.0	290.0	295.0	300.0	305.0	310.0	315.0	320.0	325.0	330.0	335.0	340.0	345.0	350.0	355.0	360.0	365.0	370.0	375.0	380.0	385.0	390.0	395.0	400.0	405.0	410.0	415.0	420.0	425.0	430.0	435.0	440.0	445.0	450.0	455.0	460.0	465.0	470.0	475.0	480.0	485.0	490.0	495.0	500.0	505.0	510.0	515.0	520.0	525.0	530.0	535.0	540.0	545.0	550.0	555.0	560.0	565.0	570.0	575.0	580.0	585.0	590.0	595.0	600.0
230.0	-546.4	-434.7	302.9	482.8	-160.0	-171.1	-152.5	-139.4	-119.5	-103.6	-91.25	-78.38	-63.34	-58.58	-46.82	-37.94	-31.33	-27.97	-24.09	-21.76	-19.53	-18.45	-16.34	-15.31	-14.79	-13.97	-12.82	-12.39	-12.89	-12.15	-11.75	-10.72	-10.28	-9.899	-9.093	-7.933	-8.131	-7.885	-7.572	-7.881	-6.958	-7.358	-6.843	-7.267	-6.750	-6.395	-5.738	-5.753	-4.580	-3.371	-4.503	-5.508	-5.548	-5.823	-5.736	-5.576	-6.117	-5.660	-6.015	-6.273	-6.153	-6.139	-6.224	-6.458	-6.435	-6.531	-6.239	-6.569	-6.609	-6.432	-6.791	-6.748	-6.741	-7.036	-6.785	-6.716	-7.200
235.0	-589.4	-453.6	-77.90	 1437	888.8	-109.5	-140.3	-142.4	-123.1	-109.8	-90.89	-84.56	-66.31	-58.64	-43.70	-37.38	-32.42	-26.37	-23.95	-22.43	-19.00	-19.03	-16.20	-15.71	-14.63	-14.45	-12.24	-13.32	-12.29	-12.33	-12.01	-10.37	-9.404	-9.604	-8.777	-8.518	-8.066	-8.248	-8.469	-7.795	-7.630	-7.599	-7.459	-7.481	-6.721	-6.037	-5.504	-5.631	-5.594	-3.394	-3.208	-3.378	-4.680	-5.803	-5.846	-5.274	-5.604	-5.884	-5.608	-6.446	-6.068	-6.702	-6.098	-6.254	-6.478	-6.334	-6.348	-6.639	-5.898	-6.263	-6.809	-6.717	-5.819	-6.704	-7.150	-6.739	-7.430
240.0	-645.1	-422.8	-268.8	602.0	 2137	782.1	-109.3	-138.4	-122.4	-115.8	-90.19	-81.82	-72.88	-58.14	-44.41	-39.55	-32.51	-26.65	-25.76	-23.90	-21.51	-18.36	-14.75	-15.64	-14.77	-12.61	-12.95	-11.56	-12.86	-12.36	-10.89	-11.07	-9.996	-9.021	-8.685	-8.487	-8.310	-7.791	-7.673	-7.392	-7.410	-6.874	-6.890	-7.176	-6.586	-6.316	-5.642	-5.818	-5.620	-4.223	-3.781	-3.031	-1.695	-2.816	-4.735	-5.801	-5.714	-6.025	-6.163	-6.476	-6.100	-5.939	-6.311	-6.032	-6.837	-6.359	-6.845	-6.210	-5.620	-6.378	-7.046	-6.913	-6.626	-6.421	-7.359	-6.662	-7.515
245.0	-612.0	-386.1	-339.9	-65.10	 1244	 2354	649.8	-125.2	-110.9	-106.9	-98.86	-77.92	-70.05	-59.50	-48.63	-35.34	-33.66	-26.73	-26.60	-22.01	-20.27	-16.99	-15.80	-14.90	-14.56	-14.15	-12.57	-12.72	-12.90	-12.29	-10.31	-10.27	-9.912	-9.356	-8.995	-7.992	-8.591	-8.364	-8.057	-7.471	-7.203	-7.488	-6.568	-6.883	-5.760	-6.503	-5.858	-5.965	-5.579	-4.573	-4.649	-4.670	-3.471	-0.665	-0.422	-2.809	-6.068	-6.008	-6.612	-6.230	-5.656	-6.012	-6.656	-6.324	-6.424	-6.359	-6.813	-6.746	-6.100	-5.587	-6.673	-6.539	-6.755	-6.832	-6.863	-7.242	-7.032
250.0	-601.1	-416.1	-321.3	-158.7	166.0	 1265	 2226	 1095	101.8	-97.05	-91.58	-78.86	-68.56	-53.79	-45.70	-38.97	-30.03	-27.65	-25.51	-21.97	-19.85	-17.85	-17.54	-15.00	-14.39	-12.83	-13.69	-12.72	-11.12	-12.59	-11.89	-10.45	-10.34	-9.845	-9.095	-7.801	-7.999	-7.863	-7.829	-6.870	-7.176	-7.674	-7.384	-6.478	-6.474	-6.389	-5.789	-5.775	-5.250	-4.533	-4.894	-5.166	-5.105	-4.251	-2.495	-0.234	-0.027	-1.187	-3.957	-5.665	-6.170	-6.199	-6.628	-6.256	-6.618	-6.460	-6.484	-6.750	-6.421	-6.792	-6.929	-6.740	-6.872	-7.041	-6.691	-7.050	-7.070
255.0	-531.8	-470.6	-300.5	-139.1	-34.18	150.6	821.7	 3219	 1604	120.6	-85.54	-79.83	-68.61	-47.51	-42.26	-39.04	-28.69	-29.32	-27.37	-23.92	-20.64	-16.46	-16.43	-15.49	-15.51	-11.66	-12.70	-12.59	-11.82	-11.77	-11.16	-11.35	-10.19	-9.833	-9.249	-8.489	-8.277	-8.262	-7.512	-7.709	-7.520	-7.563	-7.221	-6.374	-6.833	-6.851	-5.855	-5.643	-5.178	-4.518	-4.474	-5.110	-5.635	-5.257	-5.125	-4.376	-4.057	-0.687	3.265	2.066	-2.866	-6.073	-5.998	-6.526	-5.947	-6.252	-6.291	-6.703	-6.757	-6.909	-6.719	-6.997	-6.891	-6.791	-6.697	-6.996	-6.986
260.0	-487.1	-447.5	-355.4	-180.5	18.98	-42.27	100.8	 1461	 4075	 1332	15.55	-74.57	-63.40	-53.74	-42.42	-38.65	-34.61	-29.03	-26.28	-22.41	-19.80	-19.52	-17.37	-14.84	-14.24	-12.78	-13.59	-11.63	-12.94	-13.06	-11.57	-11.53	-9.574	-9.736	-8.502	-7.881	-8.476	-7.972	-6.997	-7.739	-7.014	-7.013	-7.299	-6.521	-7.156	-6.771	-5.934	-5.700	-5.529	-4.890	-4.104	-5.311	-5.016	-5.319	-5.201	-5.230	-5.201	-4.941	-1.963	3.097	5.888	1.355	-4.054	-6.407	-6.034	-6.529	-6.621	-6.977	-6.802	-6.359	-5.988	-6.435	-7.028	-6.635	-6.717	-6.398	-7.583
265.0	-503.2	-412.2	-297.4	-242.3	-45.87	48.24	-75.08	275.4	 2214	 4950	 1061	-26.53	-60.27	-57.97	-42.80	-36.30	-32.85	-27.33	-22.01	-19.94	-19.51	-19.09	-15.40	-15.29	-13.22	-13.04	-13.23	-12.36	-12.57	-12.76	-11.63	-9.720	-10.17	-9.659	-8.581	-8.515	-8.166	-7.983	-7.789	-8.031	-7.213	-7.992	-6.855	-6.725	-6.912	-6.513	-6.055	-5.738	-5.319	-4.613	-4.279	-5.268	-5.080	-4.707	-5.030	-5.688	-5.982	-5.632	-4.877	-2.945	1.093	6.652	7.156	-0.847	-6.040	-6.475	-6.351	-6.605	-6.469	-6.657	-5.935	-6.931	-7.351	-6.548	-6.926	-7.001	-7.326
270.0	-531.6	-418.1	-318.8	-257.5	-148.4	22.81	92.89	11.03	478.1	 2298	 4666	 3179	223.7	-53.15	-40.69	-36.07	-30.87	-28.35	-22.40	-20.04	-19.82	-17.34	-15.66	-14.09	-13.45	-13.61	-11.88	-12.47	-12.45	-11.38	-12.24	-10.36	-9.850	-9.942	-8.763	-8.406	-8.097	-8.381	-7.585	-7.760	-6.987	-7.661	-7.168	-7.246	-6.432	-7.014	-5.884	-6.097	-5.486	-4.462	-4.506	-5.429	-5.032	-5.193	-4.970	-5.728	-5.683	-5.571	-5.528	-5.560	-4.379	-1.966	0.921	4.619	6.504	3.474	-1.994	-6.014	-6.407	-6.446	-6.434	-6.951	-6.865	-6.830	-6.961	-6.922	-7.349
275.0	-586.3	-427.3	-368.0	-235.2	-207.7	-105.8	101.2	238.7	137.5	570.6	 1639	 5670	 5008	259.5	-39.38	-33.69	-29.57	-27.99	-23.40	-21.36	-20.06	-17.62	-15.77	-13.99	-13.47	-14.41	-12.40	-11.66	-11.65	-11.42	-10.75	-10.60	-10.04	-9.639	-8.246	-8.349	-7.218	-7.970	-7.237	-7.133	-7.599	-7.648	-7.357	-7.393	-6.662	-6.473	-6.080	-5.834	-5.300	-4.631	-4.921	-6.166	-5.509	-5.527	-5.445	-6.143	-5.592	-4.914	-5.340	-5.651	-6.069	-4.803	-4.433	-2.971	-1.034	5.202	11.93	8.523	-1.008	-6.006	-6.746	-6.842	-6.764	-6.530	-6.844	-7.284	-7.478
280.0	-570.9	-465.1	-329.6	-258.2	-204.6	-136.9	2.932	390.8	391.4	449.4	754.2	 2587	 7318	 3872	79.55	-34.93	-27.78	-26.74	-25.67	-23.43	-18.65	-17.28	-16.60	-14.12	-14.13	-13.64	-12.14	-11.71	-11.84	-11.70	-10.76	-10.37	-9.846	-9.425	-9.967	-8.020	-7.938	-8.020	-6.844	-7.560	-7.000	-7.020	-7.924	-7.517	-7.002	-6.758	-5.840	-5.322	-5.107	-4.963	-5.109	-5.611	-5.499	-6.350	-5.604	-5.988	-5.838	-5.086	-4.747	-4.668	-6.053	-4.995	-5.052	-4.678	-4.288	-1.638	3.068	11.80	16.00	4.860	-4.396	-6.218	-6.838	-6.768	-7.036	-6.676	-7.057
285.0	-515.1	-396.4	-328.7	-217.3	-155.1	-98.97	-5.849	309.8	759.2	764.1	884.5	 1308	 3643	 7598	620.4	7.101	-26.56	-25.01	-24.14	-20.07	-18.98	-16.11	-15.75	-14.85	-15.46	-12.96	-12.35	-13.62	-11.92	-11.79	-10.92	-10.17	-9.219	-9.722	-8.793	-7.916	-8.033	-7.168	-7.801	-7.662	-7.569	-7.020	-6.820	-7.526	-6.600	-7.221	-5.955	-5.502	-5.279	-4.331	-4.654	-5.672	-4.924	-6.191	-5.684	-5.186	-5.924	-5.236	-4.980	-4.361	-4.093	-4.736	-5.039	-4.365	-3.870	-3.537	-2.616	0.044	7.553	15.89	11.88	0.427	-6.557	-6.434	-7.056	-7.098	-7.661
290.0	-499.5	-382.4	-291.4	-199.2	-141.4	-76.86	60.56	323.1	827.2	 1421	 1518	 1400	 1509	 3208	 5171	 2381	140.5	-22.50	-21.12	-19.46	-18.24	-15.21	-16.91	-14.93	-14.54	-13.62	-12.66	-12.45	-11.37	-11.72	-11.26	-10.00	-9.920	-9.031	-8.982	-7.985	-7.769	-8.005	-8.056	-7.889	-7.701	-7.030	-7.342	-7.475	-6.571	-6.436	-5.935	-6.008	-5.203	-4.611	-4.499	-5.096	-5.095	-5.656	-5.536	-5.502	-6.095	-5.291	-4.917	-4.712	-3.953	-3.253	-2.859	-2.085	-3.142	-3.110	-3.010	-3.046	-2.336	0.838	5.071	8.900	9.598	5.505	-2.701	-6.438	-7.511
295.0	-471.8	-382.1	-255.6	-207.4	-124.2	-41.65	104.1	395.8	829.6	 1497	 2190	 1798	 1143	926.8	 1567	 5107	 3479	185.4	-20.89	-20.18	-19.22	-16.48	-16.12	-14.13	-14.90	-11.77	-11.97	-12.15	-11.00	-12.21	-11.86	-10.53	-10.40	-8.919	-8.282	-8.039	-7.559	-7.457	-8.059	-8.238	-7.244	-6.990	-7.028	-7.564	-6.526	-5.913	-5.854	-5.519	-5.095	-4.461	-4.306	-5.282	-4.964	-5.011	-5.093	-6.106	-5.613	-5.574	-4.769	-4.533	-3.421	-3.115	-2.674	-0.983	-1.627	-2.421	-2.871	-3.673	-4.160	-4.053	-3.328	-3.557	-0.255	8.372	16.64	10.43	-2.904
300.0	-543.5	-366.8	-212.4	-171.5	-111.6	-29.15	112.7	401.3	814.7	 1425	 2083	 2110	 1140	431.6	410.4	 1883	 6239	 2712	90.23	-19.93	-16.49	-15.95	-15.00	-15.80	-14.94	-13.01	-11.48	-11.58	-11.32	-12.02	-12.21	-10.40	-8.680	-8.998	-8.129	-9.053	-7.742	-8.230	-8.259	-7.982	-7.398	-7.160	-6.698	-6.477	-6.753	-6.392	-5.689	-5.510	-4.756	-4.765	-4.489	-5.260	-5.107	-5.950	-5.166	-5.704	-5.954	-4.572	-4.471	-4.175	-3.877	-3.439	-2.968	-1.817	-1.470	-0.834	-1.992	-3.993	-4.806	-4.985	-5.319	-5.343	-5.628	-3.132	5.676	16.50	16.78
305.0	-553.7	-399.6	-159.2	-138.5	-87.29	-39.52	135.3	389.9	781.2	 1308	 1803	 2106	 1339	366.6	176.2	476.1	 2778	 6501	 1921	21.53	-15.50	-15.49	-15.11	-14.15	-13.24	-12.13	-12.49	-12.98	-12.40	-12.92	-11.97	-10.43	-9.913	-9.884	-8.645	-8.221	-8.415	-8.357	-7.837	-7.503	-7.485	-6.995	-6.861	-7.436	-6.633	-6.860	-5.847	-4.962	-4.713	-4.544	-4.656	-5.588	-4.802	-5.467	-5.295	-5.136	-5.620	-5.465	-4.619	-4.761	-3.795	-3.058	-3.392	-2.417	-2.447	-2.025	-1.790	-2.968	-4.549	-5.217	-5.611	-5.846	-6.291	-6.379	-3.674	0.085	9.715
310.0	-552.0	-319.3	-210.0	-152.7	-86.59	-42.09	124.9	337.4	693.4	 1081	 1465	 1566	 1319	596.7	170.0	162.7	674.7	 2680	 4889	 2600	99.90	-14.01	-14.14	-13.18	-13.45	-12.56	-12.45	-12.46	-11.64	-11.73	-11.51	-10.82	-10.40	-9.532	-8.200	-8.309	-8.163	-8.407	-7.428	-7.603	-7.072	-7.226	-7.176	-7.281	-6.748	-6.654	-6.166	-5.532	-4.888	-4.294	-4.818	-5.369	-4.966	-5.289	-5.179	-5.393	-5.305	-5.181	-5.040	-4.357	-3.848	-3.480	-3.331	-3.020	-3.282	-3.182	-2.696	-2.639	-3.823	-4.470	-5.671	-5.578	-6.322	-6.675	-5.428	-5.045	-2.973
315.0	-450.7	-356.7	-184.6	-133.5	-87.36	-41.22	103.7	273.1	523.3	865.4	 1175	 1142	893.9	733.6	384.9	128.7	184.8	614.0	 1453	 4749	 2245	149.4	-13.52	-12.98	-13.39	-13.52	-13.03	-12.90	-12.34	-10.73	-10.10	-10.12	-9.028	-9.146	-8.586	-7.784	-8.418	-7.628	-7.965	-7.884	-7.075	-6.769	-7.732	-7.325	-6.865	-7.044	-5.556	-5.805	-5.234	-4.528	-4.478	-4.991	-5.254	-5.420	-4.815	-5.752	-5.906	-5.246	-5.282	-5.016	-4.842	-4.244	-3.997	-3.376	-3.544	-3.618	-3.896	-4.329	-5.141	-4.336	-4.777	-5.928	-6.117	-6.703	-6.056	-6.650	-6.254
320.0	-499.3	-343.8	-213.4	-123.9	-99.47	-10.29	89.97	245.5	456.0	715.3	944.0	956.6	697.9	524.7	582.3	224.2	92.10	163.6	341.9	 1784	 5379	 1928	81.46	-12.13	-12.17	-12.21	-11.96	-11.71	-12.56	-11.28	-10.29	-9.487	-9.381	-9.688	-7.923	-7.813	-8.270	-7.954	-7.592	-8.127	-7.744	-6.801	-7.380	-6.202	-6.325	-6.894	-4.927	-6.047	-5.336	-4.837	-4.364	-5.245	-4.823	-5.006	-5.433	-6.171	-5.488	-5.062	-5.467	-4.921	-4.255	-4.277	-3.975	-4.137	-3.224	-3.991	-4.440	-5.187	-5.241	-4.901	-5.115	-4.368	-5.173	-6.246	-6.124	-6.591	-7.100
325.0	-447.6	-341.0	-177.5	-77.20	-52.68	-6.087	80.84	219.1	371.8	612.8	765.8	787.2	589.2	387.6	495.2	425.6	107.8	73.57	92.30	425.5	 2489	 5599	 1496	24.85	-10.49	-12.10	-10.77	-12.41	-11.84	-11.00	-10.49	-10.60	-9.760	-8.889	-9.536	-8.021	-7.768	-8.056	-7.494	-7.600	-7.084	-5.818	-8.357	-6.604	-6.661	-7.291	-5.829	-5.810	-5.587	-4.830	-4.631	-5.818	-5.166	-5.620	-5.245	-5.357	-4.967	-5.142	-5.409	-5.308	-4.426	-4.700	-4.841	-4.635	-3.751	-4.572	-4.298	-4.881	-5.218	-5.349	-5.441	-5.510	-4.785	-5.363	-5.487	-6.265	-7.243
330.0	-495.5	-361.8	-160.8	-25.16	5.497	72.51	140.6	191.9	324.8	479.4	616.6	641.0	514.6	334.8	314.1	385.5	305.4	101.4	46.96	111.9	592.0	 2373	 4392	 2280	80.97	-9.418	-10.17	-10.54	-11.31	-10.24	-11.43	-10.95	-9.445	-9.816	-8.921	-8.326	-7.688	-7.966	-7.398	-6.804	-7.487	-6.544	-7.388	-6.792	-6.530	-6.666	-6.156	-5.691	-5.117	-4.595	-4.465	-5.294	-5.377	-5.149	-5.080	-5.449	-5.060	-4.668	-4.861	-5.141	-4.799	-4.621	-5.118	-4.944	-4.794	-4.647	-5.181	-5.480	-5.259	-5.399	-5.608	-5.999	-5.351	-5.496	-5.355	-5.274	-6.342
335.0	-521.6	-333.6	-145.4	7.105	119.5	217.4	244.8	265.2	339.4	432.2	502.8	512.2	442.6	327.9	261.9	238.1	331.8	292.9	77.85	52.64	150.3	541.4	 1363	 4492	 3529	113.6	-9.491	-10.76	-9.455	-10.35	-10.44	-9.935	-8.580	-9.211	-9.696	-8.396	-7.115	-7.906	-7.243	-6.417	-7.334	-7.616	-6.775	-6.568	-7.175	-6.293	-5.588	-6.332	-5.124	-4.091	-4.928	-5.212	-4.786	-4.875	-4.739	-4.805	-5.041	-5.170	-4.936	-5.345	-4.960	-4.599	-5.210	-4.627	-5.295	-4.682	-4.855	-5.326	-5.150	-5.449	-5.238	-6.153	-5.963	-5.623	-6.042	-6.285	-5.586
340.0	-497.0	-316.5	-141.1	80.85	214.9	307.7	317.6	314.9	347.8	441.8	461.6	438.6	393.7	320.5	252.1	194.9	215.4	351.8	188.4	53.33	58.85	138.9	319.3	 1753	 5348	 1495	68.85	-8.084	-8.913	-10.13	-10.47	-9.178	-9.670	-9.245	-8.650	-8.365	-7.527	-7.940	-7.890	-7.434	-6.840	-7.712	-6.880	-6.254	-6.804	-6.333	-5.218	-6.192	-4.488	-3.943	-4.326	-5.135	-4.913	-4.896	-4.695	-4.317	-5.299	-5.220	-5.111	-4.948	-4.715	-4.377	-5.153	-5.041	-4.591	-5.298	-5.031	-5.510	-5.707	-5.718	-6.269	-5.901	-6.136	-6.353	-5.725	-6.688	-5.801
345.0	-466.9	-348.1	-103.8	155.2	313.0	359.8	415.5	389.1	376.2	423.9	399.8	398.2	378.1	313.1	246.4	189.5	159.4	254.4	318.9	115.5	46.63	56.30	87.60	419.1	 2544	 5157	 1215	21.05	-9.295	-8.627	-10.33	-9.815	-9.744	-8.874	-8.792	-8.407	-7.407	-7.467	-7.938	-7.294	-6.812	-6.970	-7.018	-7.302	-6.526	-5.848	-5.320	-5.231	-5.021	-4.408	-4.041	-5.059	-4.667	-4.703	-4.900	-4.448	-5.163	-4.716	-4.151	-5.535	-4.848	-4.977	-5.440	-5.319	-4.923	-5.233	-4.688	-5.534	-5.399	-5.637	-5.761	-5.985	-5.690	-5.731	-6.049	-6.117	-6.620
350.0	-529.1	-343.3	-75.26	183.4	353.5	467.0	497.0	451.8	413.3	401.2	358.6	340.4	325.3	285.2	247.1	196.0	160.4	162.8	250.9	255.4	106.6	52.47	49.28	113.7	611.8	 2320	 3963	 2022	67.93	-8.030	-9.433	-9.814	-9.586	-8.726	-8.393	-8.080	-7.786	-7.671	-7.390	-7.559	-6.710	-6.988	-7.114	-6.939	-6.706	-6.095	-5.342	-5.349	-4.665	-4.008	-3.931	-4.803	-4.118	-4.512	-4.585	-4.009	-5.094	-4.754	-4.804	-5.077	-4.811	-5.019	-5.096	-5.092	-5.513	-5.495	-5.265	-5.370	-5.980	-5.883	-5.750	-6.104	-5.490	-6.348	-5.923	-6.678	-6.582
355.0	-400.9	-311.5	-106.9	214.1	416.1	524.9	569.7	512.4	446.8	403.0	340.5	325.3	294.1	271.8	238.3	200.8	163.1	145.2	163.6	230.0	246.3	101.3	48.23	55.35	156.4	533.6	 1291	 4170	 3017	94.42	-8.586	-8.360	-8.817	-9.545	-8.163	-8.184	-7.572	-8.141	-7.126	-7.297	-7.246	-7.190	-7.222	-6.657	-6.631	-6.282	-5.641	-5.440	-4.772	-4.109	-3.680	-4.511	-3.677	-4.193	-4.053	-4.365	-4.447	-4.863	-4.788	-4.898	-4.620	-5.075	-4.866	-5.506	-5.168	-5.471	-5.416	-5.845	-5.193	-5.871	-5.817	-6.028	-5.539	-6.035	-5.641	-6.781	-6.613
360.0	-503.0	-343.1	-87.95	230.5	442.9	587.4	573.7	543.4	442.1	408.0	332.1	276.2	282.4	259.8	239.0	208.6	167.9	153.5	147.4	162.4	264.8	194.7	72.92	50.71	66.21	141.6	307.3	 1727	 4919	 1286	52.11	-7.397	-7.672	-9.146	-7.474	-7.285	-8.157	-7.127	-7.386	-7.182	-6.996	-7.885	-7.227	-7.075	-6.586	-6.503	-5.407	-5.305	-4.249	-4.138	-3.856	-4.802	-4.182	-3.585	-3.714	-4.453	-4.162	-4.877	-4.644	-5.011	-4.682	-4.922	-5.224	-5.500	-5.676	-5.423	-4.961	-5.398	-5.652	-6.181	-5.941	-5.504	-5.522	-6.234	-5.855	-6.484	-6.694
365.0	-538.2	-340.0	-11.34	236.3	447.0	620.5	619.1	521.5	438.7	398.0	315.6	269.2	250.1	256.0	225.0	205.3	182.4	162.0	151.7	142.1	195.3	274.5	137.5	65.70	52.87	62.52	89.35	419.0	 2481	 4738	 1032	13.21	-7.354	-8.303	-7.785	-8.126	-7.453	-7.451	-7.516	-7.314	-7.797	-7.654	-6.750	-6.697	-6.695	-6.329	-5.317	-5.159	-4.484	-3.782	-3.949	-4.583	-4.214	-3.844	-3.653	-4.529	-4.384	-4.435	-5.134	-5.134	-5.367	-4.884	-4.901	-5.895	-4.742	-5.028	-5.427	-5.683	-5.459	-6.520	-5.651	-6.067	-5.506	-5.711	-6.190	-6.597	-6.870
370.0	-512.8	-313.2	-57.85	224.7	468.7	600.2	583.1	537.9	425.0	374.0	292.1	242.7	236.1	239.4	229.1	207.3	193.8	177.5	161.4	148.8	158.0	212.5	233.5	132.9	71.36	57.18	49.79	112.4	601.4	 2254	 3887	 1822	51.86	-7.417	-6.825	-7.176	-7.229	-7.186	-6.840	-6.827	-7.652	-7.401	-6.729	-7.328	-6.623	-6.107	-5.080	-5.541	-4.623	-3.778	-4.267	-4.664	-3.977	-4.201	-3.940	-4.155	-4.282	-4.659	-5.067	-4.836	-4.926	-4.925	-5.320	-5.636	-5.307	-5.606	-4.936	-5.853	-5.652	-6.410	-5.778	-6.516	-5.349	-5.913	-6.155	-6.586	-6.240
375.0	-496.5	-400.9	-92.71	158.8	418.5	547.6	557.3	481.3	384.8	368.4	265.2	220.9	227.9	228.4	217.0	212.0	195.7	190.6	181.7	159.7	158.1	164.9	202.9	233.9	126.6	69.52	53.82	55.77	153.8	516.0	 1371	 4142	 2568	65.03	-5.760	-5.552	-7.408	-7.087	-7.363	-6.238	-6.943	-7.308	-6.984	-7.447	-7.025	-6.346	-5.351	-5.804	-4.627	-3.821	-3.932	-4.018	-3.408	-3.681	-4.060	-4.100	-4.964	-4.917	-5.037	-5.279	-5.586	-5.112	-5.444	-5.867	-5.418	-5.355	-5.428	-6.098	-5.250	-5.970	-5.646	-6.069	-5.752	-5.345	-6.210	-6.521	-6.069
380.0	-459.0	-361.6	-102.5	176.7	387.8	523.8	533.5	453.4	376.3	335.3	280.2	224.0	230.3	237.3	230.1	217.1	206.2	200.0	193.9	179.7	164.3	156.9	160.2	240.4	200.8	94.24	62.30	52.06	60.87	132.0	324.9	 1863	 4631	999.4	31.02	-5.698	-6.680	-6.722	-6.679	-6.589	-6.559	-7.236	-6.228	-7.213	-6.927	-6.833	-5.672	-5.852	-4.619	-4.063	-4.122	-4.297	-4.253	-3.966	-3.873	-4.330	-4.583	-4.948	-5.331	-4.603	-5.006	-5.161	-5.577	-5.574	-5.804	-4.740	-5.715	-5.569	-5.332	-5.680	-5.930	-6.058	-5.920	-5.969	-5.984	-6.110	-6.677
385.0	-483.3	-322.1	-114.9	155.5	366.6	457.3	494.2	416.0	351.3	321.1	251.6	211.4	224.2	228.7	224.9	225.8	210.6	207.5	201.2	189.2	177.3	164.4	148.9	186.5	245.3	146.9	78.95	58.09	49.26	51.22	87.81	457.2	 2608	 4088	725.2	3.225	-6.665	-5.831	-6.469	-6.740	-5.713	-8.112	-6.475	-5.819	-6.773	-6.438	-5.751	-5.300	-5.166	-4.258	-4.109	-4.562	-4.450	-4.558	-4.063	-4.542	-4.921	-4.347	-4.690	-4.776	-4.901	-4.723	-5.302	-5.507	-5.506	-5.235	-5.774	-5.523	-5.661	-6.306	-6.269	-5.789	-5.871	-5.921	-6.146	-6.409	-6.653
