Sample:	'1
File name:	T2025041702 279ÏçµÀ.FD3
Run date:	'09:58:10, 04/21/2025
Operator:	Administrator
Comment:	'

Instrument
Model:	F-2700 FL Spectrophotometer
Serial number:	23B8-004
ROM Version:	4J14000 07

Instrument parameters
Measurement type:	3-D scan
Data mode:	Fluorescence
EX  Start WL:	220.0 nm
EX  End WL:	600.0 nm
EX Sampling interval:	5.0 nm
EM  Start WL:	230.0 nm
EM  End WL:	650.0 nm
EM Sampling interval:	5.0 nm
Scan speed:	12000 nm/min
EX Slit:	5.0 nm
EM Slit:	5.0 nm
PMT Voltage:	700 V
Response:	Auto 
Corrected spectra:	Off
Contour interval:	50.000

Peak integration
Integration method:	Rectangular
Sensitivity:	1
Threshold:	1.000

Peaks
No.	ApexEX/EM(nm)	Height(Data)
1	225.0/300.0	529.1
2	225.0/585.0	53.23
3	225.0/620.0	36.12
4	230.0/345.0	1210
5	230.0/500.0	293.1
6	230.0/575.0	56.05
7	230.0/625.0	37.03
8	235.0/510.0	274.7
9	240.0/265.0	351.0
10	240.0/525.0	240.4
11	245.0/270.0	361.8
12	245.0/535.0	195.8
13	250.0/275.0	434.3
14	250.0/545.0	161.6
15	255.0/280.0	582.6
16	255.0/560.0	133.9
17	260.0/285.0	598.1
18	260.0/570.0	110.2
19	265.0/585.0	110.7
20	270.0/300.0	994.6
21	270.0/595.0	95.06
22	275.0/305.0	1180
23	275.0/340.0	917.7
24	275.0/610.0	85.33
25	280.0/310.0	1052
26	280.0/345.0	914.7
27	280.0/625.0	70.95
28	285.0/315.0	952.9
29	285.0/635.0	55.14
30	290.0/325.0	916.4
31	305.0/345.0	614.5
32	315.0/355.0	485.1
33	320.0/365.0	459.1
34	330.0/375.0	421.0
35	335.0/380.0	409.1
36	430.0/505.0	30.92
37	445.0/525.0	17.94
38	460.0/545.0	9.374
39	465.0/345.0	3.151
40	505.0/275.0	2.837
41	510.0/280.0	3.069
42	520.0/285.0	3.610
43	530.0/290.0	3.599
44	540.0/295.0	4.896
45	545.0/300.0	5.269
46	555.0/305.0	5.672
47	560.0/310.0	5.224
48	570.0/315.0	5.205
49	580.0/320.0	5.000
50	585.0/325.0	5.163

Data points
	220.0	225.0	230.0	235.0	240.0	245.0	250.0	255.0	260.0	265.0	270.0	275.0	280.0	285.0	290.0	295.0	300.0	305.0	310.0	315.0	320.0	325.0	330.0	335.0	340.0	345.0	350.0	355.0	360.0	365.0	370.0	375.0	380.0	385.0	390.0	395.0	400.0	405.0	410.0	415.0	420.0	425.0	430.0	435.0	440.0	445.0	450.0	455.0	460.0	465.0	470.0	475.0	480.0	485.0	490.0	495.0	500.0	505.0	510.0	515.0	520.0	525.0	530.0	535.0	540.0	545.0	550.0	555.0	560.0	565.0	570.0	575.0	580.0	585.0	590.0	595.0	600.0
230.0	24.60	465.1	1655	670.3	34.40	3.824	3.018	2.705	2.033	1.946	1.885	1.956	1.673	1.377	1.224	0.957	0.872	0.883	0.628	0.607	0.583	0.479	0.486	0.446	0.410	0.428	0.357	0.293	0.348	0.298	0.275	0.274	0.209	0.195	0.188	0.202	0.191	0.233	0.198	0.177	0.178	0.245	0.215	0.190	0.168	0.141	0.427	2.381	5.302	4.721	2.003	0.449	0.126	0.108	0.103	0.108	0.115	0.103	0.096	0.100	0.110	0.093	0.078	0.108	0.082	0.071	0.084	0.079	0.089	0.085	0.099	0.088	0.080	0.084	0.086	0.103	0.077
235.0	68.89	139.5	964.6	2065	576.5	61.04	5.107	3.398	2.830	2.720	1.848	1.855	1.773	1.689	1.232	0.936	0.941	0.988	0.699	0.688	0.790	0.536	0.552	0.447	0.360	0.332	0.303	0.367	0.292	0.343	0.358	0.267	0.212	0.175	0.183	0.191	0.242	0.279	0.183	0.157	0.188	0.182	0.241	0.332	0.292	0.200	0.284	0.674	1.883	3.858	6.292	8.110	4.072	0.870	0.150	0.077	0.116	0.116	0.099	0.085	0.132	0.088	0.058	0.086	0.076	0.113	0.094	0.083	0.083	0.077	0.095	0.088	0.072	0.074	0.077	0.129	0.095
240.0	106.5	106.0	289.1	1541	2472	464.4	35.58	3.641	3.580	2.929	2.401	2.837	2.187	1.794	1.359	1.010	0.853	0.910	0.679	0.741	0.707	0.491	0.609	0.481	0.443	0.376	0.340	0.391	0.353	0.292	0.283	0.324	0.269	0.201	0.216	0.197	0.206	0.226	0.266	0.166	0.209	0.137	0.188	0.227	0.372	0.374	0.377	0.317	0.566	1.107	2.981	8.425	11.60	9.097	3.498	0.544	0.187	0.118	0.148	0.097	0.107	0.108	0.077	0.074	0.064	0.112	0.088	0.095	0.060	0.106	0.109	0.077	0.094	0.084	0.125	0.080	0.137
245.0	77.30	181.9	134.8	488.5	2292	2700	356.3	17.05	4.694	3.735	2.974	2.867	2.379	1.791	1.368	1.279	0.993	0.863	0.735	0.607	0.719	0.583	0.648	0.478	0.394	0.437	0.285	0.411	0.299	0.264	0.326	0.257	0.191	0.199	0.234	0.224	0.271	0.271	0.177	0.174	0.217	0.169	0.221	0.245	0.221	0.434	0.582	0.638	0.451	0.373	0.802	2.599	6.918	12.79	14.99	8.453	2.702	0.264	0.100	0.110	0.146	0.111	0.112	0.076	0.109	0.097	0.096	0.092	0.071	0.133	0.093	0.065	0.091	0.107	0.093	0.066	0.065
250.0	32.59	116.2	227.9	213.8	689.7	2198	3196	1258	89.17	5.978	3.943	3.249	2.570	2.075	1.696	1.336	1.249	1.094	0.919	0.879	0.679	0.784	0.656	0.456	0.510	0.453	0.457	0.350	0.363	0.347	0.311	0.215	0.221	0.242	0.241	0.210	0.261	0.221	0.182	0.236	0.212	0.227	0.175	0.211	0.184	0.264	0.328	0.556	0.767	0.657	0.559	0.792	1.765	3.785	7.442	12.05	16.70	15.51	9.122	2.826	0.377	0.140	0.126	0.098	0.110	0.106	0.116	0.109	0.104	0.119	0.125	0.108	0.084	0.099	0.095	0.072	0.080
255.0	19.07	40.26	144.3	315.7	267.7	544.7	1978	4837	1803	106.8	6.486	5.331	3.672	3.117	1.801	1.711	1.515	1.287	1.035	0.887	0.739	0.764	0.565	0.626	0.608	0.501	0.554	0.461	0.324	0.351	0.341	0.362	0.292	0.294	0.246	0.247	0.195	0.171	0.254	0.230	0.225	0.260	0.165	0.240	0.229	0.184	0.205	0.273	0.372	0.645	1.138	1.191	0.844	1.054	1.853	2.909	5.164	11.92	24.57	27.21	15.49	3.265	0.304	0.148	0.134	0.121	0.126	0.145	0.103	0.111	0.147	0.129	0.089	0.134	0.129	0.098	0.073
260.0	17.43	21.74	57.92	238.3	349.5	198.1	551.3	3246	5846	1442	54.82	6.574	4.209	3.701	2.338	2.052	1.707	1.278	1.158	0.863	0.719	0.876	0.737	0.639	0.573	0.569	0.535	0.426	0.414	0.384	0.349	0.377	0.327	0.281	0.273	0.281	0.223	0.240	0.176	0.218	0.204	0.233	0.175	0.244	0.203	0.158	0.213	0.199	0.192	0.289	0.684	1.304	1.724	1.035	0.732	0.773	1.371	3.121	9.301	21.33	34.36	26.70	12.43	1.881	0.241	0.119	0.163	0.159	0.111	0.138	0.119	0.100	0.126	0.107	0.091	0.092	0.089
265.0	22.20	18.45	24.97	104.4	351.0	286.4	165.9	981.1	4858	6374	235.1	22.50	6.449	4.794	3.295	2.380	1.731	1.587	1.432	1.029	0.834	0.795	0.739	0.588	0.528	0.532	0.468	0.431	0.449	0.486	0.350	0.366	0.224	0.334	0.290	0.319	0.251	0.304	0.153	0.198	0.218	0.203	0.266	0.236	0.211	0.194	0.187	0.188	0.182	0.167	0.255	0.634	1.374	1.817	1.517	0.721	0.527	0.956	2.281	5.831	15.83	31.21	42.02	24.04	8.027	0.737	0.223	0.191	0.141	0.157	0.142	0.115	0.103	0.126	0.140	0.124	0.128
270.0	41.75	42.42	37.84	46.15	152.7	361.8	300.3	282.0	1392	4665	6823	2643	66.99	6.984	4.646	3.317	2.262	2.060	1.605	1.310	0.991	0.927	0.829	0.773	0.663	0.597	0.586	0.502	0.504	0.475	0.390	0.370	0.382	0.384	0.340	0.322	0.291	0.354	0.167	0.231	0.238	0.262	0.225	0.269	0.280	0.288	0.253	0.211	0.220	0.217	0.220	0.307	0.492	0.856	1.447	1.839	1.736	1.031	0.867	1.540	3.829	8.438	17.54	27.89	30.52	34.61	16.31	7.026	0.741	0.205	0.207	0.154	0.160	0.157	0.133	0.132	0.146
275.0	103.9	117.9	116.1	68.21	64.80	144.0	434.3	356.1	370.5	1127	3524	9694	1290	71.07	7.981	5.075	3.471	2.921	2.101	1.600	1.226	1.088	1.030	0.875	0.805	0.721	0.769	0.638	0.629	0.562	0.521	0.471	0.513	0.434	0.489	0.377	0.380	0.322	0.211	0.305	0.321	0.274	0.280	0.330	0.417	0.361	0.469	0.359	0.336	0.387	0.275	0.306	0.324	0.367	0.529	0.879	1.499	2.837	2.270	1.091	1.206	2.180	4.284	6.558	8.681	19.46	42.66	56.76	25.95	7.700	0.543	0.226	0.177	0.153	0.198	0.146	0.156
280.0	159.7	205.1	188.7	115.2	60.63	67.89	251.4	582.6	287.4	328.9	968.0	5586	9702	971.9	37.64	6.727	4.639	3.166	2.474	1.978	1.446	1.222	1.002	0.799	0.895	0.737	0.658	0.742	0.677	0.588	0.497	0.569	0.603	0.473	0.499	0.527	0.354	0.325	0.298	0.387	0.368	0.337	0.318	0.418	0.429	0.581	0.621	0.648	0.617	0.577	0.467	0.412	0.294	0.255	0.306	0.439	0.644	1.698	3.069	3.040	1.776	0.935	1.422	1.873	2.360	4.983	13.23	33.44	55.31	33.74	20.74	3.889	0.308	0.219	0.217	0.175	0.198
285.0	231.2	299.6	283.1	177.2	74.87	56.65	117.0	438.2	598.1	246.6	343.4	1594	7280	8020	656.7	15.11	5.834	3.552	2.553	2.104	1.798	1.525	1.190	0.951	1.040	0.802	0.645	0.876	0.581	0.584	0.564	0.548	0.662	0.520	0.626	0.587	0.504	0.518	0.361	0.431	0.315	0.358	0.338	0.406	0.592	0.731	0.708	0.838	0.856	0.755	0.558	0.489	0.423	0.312	0.344	0.366	0.442	0.725	1.479	2.851	3.610	2.339	1.185	1.042	1.191	1.771	3.635	8.512	20.20	39.68	61.61	30.97	14.08	1.515	0.279	0.245	0.169
290.0	295.9	399.1	398.8	238.2	115.4	79.89	101.7	212.9	530.7	635.3	364.6	558.3	2037	5747	7155	2198	36.30	6.086	3.971	2.881	2.246	1.657	1.476	1.227	0.892	0.991	0.898	0.848	0.656	0.684	0.664	0.535	0.633	0.605	0.694	0.649	0.596	0.623	0.474	0.486	0.408	0.499	0.388	0.535	0.707	0.869	0.943	1.267	1.094	1.014	0.699	0.682	0.539	0.488	0.367	0.414	0.462	0.541	0.800	1.268	2.087	3.092	3.599	3.054	1.831	1.472	1.839	2.913	5.487	10.41	21.23	30.90	44.21	40.35	20.70	10.30	1.773
295.0	359.7	465.9	480.3	301.4	165.4	122.5	134.0	183.4	315.5	652.7	860.3	487.2	715.9	1466	3409	8610	718.4	38.75	6.003	3.761	2.722	2.306	1.692	1.369	1.080	1.031	0.963	0.868	0.691	0.788	0.687	0.627	0.626	0.690	0.820	0.673	0.574	0.646	0.541	0.449	0.502	0.534	0.552	0.630	0.854	0.957	0.941	1.416	1.213	1.153	0.922	0.866	0.647	0.648	0.626	0.566	0.634	0.623	0.848	1.151	1.277	1.577	2.266	3.877	4.896	3.484	2.143	2.084	2.625	3.499	5.695	7.842	11.37	17.74	37.95	59.38	32.27
300.0	374.2	529.1	506.8	345.9	202.7	171.1	180.0	226.2	308.4	492.2	994.6	818.9	513.3	552.6	964.0	4847	7725	572.1	18.57	5.380	3.534	2.777	2.097	1.526	1.364	1.216	1.115	0.862	0.689	0.783	0.653	0.799	0.717	0.691	0.829	0.760	0.646	0.607	0.638	0.455	0.509	0.511	0.631	0.587	0.833	1.044	1.155	1.484	1.301	1.231	0.974	0.910	0.774	0.746	0.707	0.763	0.822	0.823	0.976	1.238	1.428	1.501	1.718	2.354	3.933	5.269	4.611	3.211	2.396	2.386	2.548	2.812	3.597	4.846	10.93	27.66	50.87
305.0	361.5	524.1	535.4	373.8	236.4	206.6	230.0	282.5	362.0	482.7	805.8	1180	687.2	423.2	399.9	1363	5936	5127	78.60	9.272	4.221	3.082	2.451	1.781	1.516	1.220	1.110	0.811	0.794	0.698	0.647	0.853	0.771	0.678	0.813	0.747	0.770	0.655	0.622	0.685	0.552	0.637	0.635	0.665	0.896	1.064	1.223	1.459	1.484	1.357	1.120	1.054	1.000	0.839	0.912	0.938	0.955	1.062	1.361	1.320	1.577	1.782	1.943	2.435	3.062	3.920	5.606	5.672	4.037	2.822	2.050	2.146	1.949	2.037	3.329	7.117	16.24
310.0	383.4	526.3	537.8	406.5	267.3	239.2	275.4	334.3	419.9	523.4	689.6	975.9	1052	591.4	344.2	445.7	1636	4343	5002	1438	22.97	4.797	3.163	2.219	1.789	1.493	1.261	1.009	0.895	0.799	0.714	0.763	0.737	0.687	0.707	0.839	0.706	0.690	0.654	0.617	0.667	0.692	0.536	0.691	0.820	1.077	1.188	1.438	1.585	1.412	1.219	1.149	1.192	0.998	0.947	1.001	1.195	1.285	1.515	1.590	1.776	2.083	2.303	2.477	2.821	3.048	3.784	4.707	5.224	5.155	3.808	2.637	1.982	1.853	1.793	2.412	4.350
315.0	401.1	521.4	559.4	426.5	307.5	279.7	317.1	379.7	467.6	577.9	700.3	810.9	918.9	952.9	491.3	292.4	491.6	1071	2768	6363	504.9	21.37	4.535	2.942	2.189	1.719	1.381	1.324	1.156	0.906	0.817	0.815	0.674	0.671	0.763	0.820	0.741	0.702	0.628	0.663	0.522	0.542	0.581	0.729	0.851	1.078	1.236	1.488	1.516	1.431	1.141	1.385	1.228	1.108	1.131	1.191	1.449	1.528	1.607	1.715	1.842	2.254	2.408	2.641	2.806	3.316	3.249	3.793	3.726	4.389	5.205	4.987	3.366	2.300	1.897	1.495	1.737
320.0	408.5	584.3	634.8	475.8	355.1	320.9	355.9	418.2	509.7	617.8	730.1	801.5	820.2	943.2	783.2	347.9	285.1	355.5	762.1	4063	4195	396.5	10.27	4.122	2.803	2.116	1.594	1.433	1.280	1.204	0.981	0.796	0.817	0.824	0.778	0.689	0.708	0.726	0.667	0.596	0.536	0.546	0.656	0.818	0.859	1.054	1.334	1.580	1.719	1.523	1.290	1.423	1.260	1.122	1.282	1.186	1.552	1.604	1.771	1.855	2.157	2.227	2.609	2.616	2.781	3.230	3.361	3.639	3.466	3.610	4.117	4.936	5.000	4.007	2.454	1.960	1.557
325.0	451.4	700.0	777.0	577.9	406.7	358.7	381.4	443.2	534.6	650.5	770.7	830.2	821.5	804.0	916.4	535.1	285.8	228.6	265.3	1172	4513	3663	57.64	6.471	3.667	2.761	2.180	1.639	1.452	1.187	1.014	0.835	0.793	0.874	0.763	0.689	0.700	0.883	0.639	0.605	0.587	0.674	0.707	0.784	0.932	1.238	1.483	1.936	2.243	1.947	1.613	1.601	1.439	1.271	1.300	1.313	1.676	1.704	1.927	1.875	1.993	2.524	2.586	3.153	3.136	3.295	3.573	3.602	3.541	3.686	3.600	4.044	4.531	5.163	3.870	2.573	1.958
330.0	506.5	799.9	977.2	778.7	517.6	410.3	417.2	470.8	566.9	678.9	807.5	871.4	868.5	778.6	778.3	725.0	464.9	257.4	190.6	355.1	1308	3472	3830	1010	17.20	3.607	2.756	1.843	1.651	1.396	1.114	0.967	0.845	0.868	0.803	0.756	0.702	0.734	0.642	0.671	0.683	0.684	0.735	0.845	1.029	1.380	1.799	2.425	2.676	2.515	2.233	2.236	2.070	1.602	1.582	1.476	1.818	1.724	1.986	2.212	2.265	2.478	2.808	3.132	3.234	3.478	3.685	3.694	3.872	4.048	3.740	3.843	3.813	4.030	4.353	4.120	3.515
335.0	537.6	870.8	1122	939.7	619.1	478.7	461.9	514.6	594.4	711.9	838.1	907.4	900.0	819.0	745.0	657.8	681.8	413.5	225.7	209.7	372.5	850.9	2503	4993	404.6	16.76	3.764	2.659	1.878	1.555	1.231	1.180	1.078	0.809	0.876	0.848	0.776	0.750	0.653	0.680	0.779	0.649	0.812	0.904	1.171	1.574	2.043	2.729	2.877	3.005	2.503	2.492	2.335	2.081	1.841	1.664	1.917	1.985	2.091	2.281	2.312	2.747	3.049	3.141	3.411	3.587	3.684	4.003	4.038	4.231	3.913	3.942	3.863	3.827	3.567	3.445	3.695
340.0	539.0	929.3	1182	1037	703.3	513.0	493.5	521.8	606.7	719.9	846.8	917.7	914.1	841.1	762.1	629.0	642.6	588.7	300.9	207.0	189.1	255.4	685.8	3566	3410	323.9	7.387	3.180	2.357	1.836	1.482	1.232	1.102	0.816	0.902	0.814	0.699	0.796	0.757	0.667	0.683	0.701	0.690	0.829	1.178	1.751	2.051	2.626	2.881	3.021	2.710	2.840	2.550	2.358	1.897	1.883	1.877	2.056	2.160	2.323	2.594	2.684	2.821	3.362	3.586	3.454	3.738	4.009	4.253	4.316	4.246	4.001	3.965	3.833	3.476	3.367	3.173
345.0	564.7	925.7	1210	1085	747.5	564.9	512.1	545.9	618.6	718.1	835.4	901.8	914.7	846.0	768.7	631.8	560.9	614.5	437.8	237.4	167.5	143.3	211.6	1061	3963	2979	48.72	5.168	2.976	2.313	1.596	1.270	1.107	0.932	0.838	0.797	0.806	0.645	0.728	0.657	0.742	0.629	0.720	0.908	1.087	1.660	2.068	2.689	2.999	3.151	2.815	2.975	2.807	2.415	2.103	1.974	2.080	2.146	2.153	2.403	2.554	2.625	2.821	3.182	3.327	3.489	3.740	4.059	3.910	3.953	4.059	4.055	3.784	4.005	3.556	3.406	3.131
350.0	530.9	882.1	1177	1087	776.5	609.9	545.9	555.9	627.0	704.4	808.5	872.9	883.9	823.7	772.6	651.2	559.1	519.4	510.3	378.3	212.5	151.2	133.0	296.8	1180	2943	3028	748.0	14.06	3.007	2.062	1.471	1.288	1.051	0.899	0.885	0.762	0.648	0.721	0.650	0.641	0.740	0.761	0.921	1.066	1.533	1.936	2.509	2.963	2.992	2.855	3.007	2.816	2.517	2.249	2.299	2.193	2.105	2.252	2.470	2.487	2.579	2.876	3.289	3.464	3.620	3.655	3.943	3.761	3.955	3.978	3.971	3.951	4.136	3.755	3.370	3.314
355.0	490.5	795.2	1071	1030	809.0	661.4	582.9	589.2	640.1	708.2	781.7	839.5	855.9	809.3	770.9	664.6	575.4	506.8	456.5	485.1	344.2	200.1	150.4	153.5	320.3	719.7	2108	3314	358.4	13.83	2.978	1.947	1.637	1.142	1.000	0.906	0.741	0.793	0.664	0.565	0.676	0.658	0.713	0.830	1.029	1.364	1.921	2.379	2.829	2.819	2.707	3.048	3.012	2.591	2.470	2.349	2.441	2.338	2.466	2.368	2.742	2.670	2.954	3.235	3.415	3.449	3.451	3.713	3.865	3.913	3.912	3.973	3.646	3.972	4.101	3.602	3.514
360.0	443.9	750.8	1019	1012	812.0	673.7	612.0	605.7	651.5	701.1	767.3	815.8	833.0	787.3	763.2	673.7	593.4	522.0	450.8	452.4	454.7	275.0	180.6	145.7	147.6	208.1	581.4	2806	3035	290.0	6.647	2.611	1.685	1.371	1.097	0.864	0.832	0.767	0.594	0.639	0.659	0.699	0.787	0.721	0.937	1.326	1.787	2.381	2.597	2.639	2.624	3.094	2.897	2.429	2.693	2.290	2.516	2.464	2.307	2.638	2.734	2.609	3.038	3.167	3.405	3.402	3.476	3.549	3.857	3.733	4.004	3.786	3.662	3.757	3.936	3.448	3.488
365.0	473.8	724.5	986.0	970.8	841.4	690.0	632.8	625.6	658.0	705.8	758.0	801.4	812.1	771.3	751.8	676.5	606.7	539.9	471.7	432.7	459.1	383.3	230.3	166.2	129.4	113.4	175.0	862.0	3420	2668	45.10	4.115	2.397	1.553	1.297	1.145	0.880	0.805	0.716	0.685	0.653	0.733	0.767	0.791	0.940	1.209	1.604	2.113	2.386	2.381	2.495	3.045	2.959	2.733	2.565	2.436	2.666	2.465	2.400	2.811	2.777	2.833	2.908	3.059	3.374	3.366	3.303	3.595	3.732	3.601	3.782	3.691	3.542	3.810	3.756	3.564	3.638
370.0	433.1	692.1	912.5	947.0	832.5	726.6	655.0	642.0	667.7	705.8	742.0	775.4	784.6	751.6	738.9	670.5	618.0	562.3	502.5	454.4	426.2	428.1	354.4	223.6	160.3	119.1	103.9	236.8	1032	2665	2724	195.6	12.18	2.443	1.671	1.214	0.949	0.845	0.724	0.697	0.656	0.691	0.724	0.784	0.877	1.220	1.524	1.999	2.320	2.297	2.377	3.078	2.927	2.777	2.612	2.630	2.633	2.597	2.468	2.688	2.824	2.888	3.029	3.076	3.287	3.347	3.266	3.258	3.577	3.539	3.653	3.808	3.741	3.854	3.715	3.661	3.680
375.0	409.8	645.7	853.8	920.5	844.1	742.0	690.1	660.1	680.3	697.7	735.5	756.0	760.2	722.5	725.5	667.1	625.2	582.1	531.3	487.1	434.8	401.5	421.0	336.8	212.4	152.5	115.0	119.7	275.1	656.7	2003	2875	308.7	11.73	2.275	1.559	1.218	0.912	0.860	0.744	0.645	0.773	0.654	0.859	0.911	1.093	1.581	1.906	2.156	2.196	2.245	2.690	2.829	2.663	2.642	2.620	2.778	2.627	2.597	2.588	2.704	2.945	2.906	2.968	3.164	3.367	3.242	3.286	3.328	3.304	3.300	3.572	3.692	3.790	3.599	3.701	3.680
380.0	402.5	623.1	798.1	899.9	841.8	748.7	709.2	666.7	675.4	703.4	721.0	748.7	751.8	706.8	712.0	663.4	626.7	589.2	547.2	505.9	450.7	407.6	399.5	409.1	276.6	182.0	138.1	110.8	120.0	186.3	563.0	2532	2576	236.4	4.970	2.210	1.472	1.092	0.941	0.881	0.643	0.811	0.736	0.846	0.865	1.026	1.443	1.717	2.228	2.185	2.201	2.702	2.928	2.855	2.968	2.728	2.854	2.887	2.786	2.518	2.816	2.954	2.977	2.866	3.014	3.112	3.200	3.167	3.415	3.381	3.455	3.827	3.451	3.485	3.616	3.538	3.802
385.0	383.0	623.0	789.0	859.6	821.9	762.9	701.8	674.6	677.5	695.6	714.5	726.5	735.5	687.7	693.2	648.5	625.0	590.3	551.4	516.8	467.7	426.1	387.4	402.8	361.3	227.7	164.3	126.0	100.4	94.15	163.1	782.5	2807	2164	37.16	3.400	1.775	1.299	1.055	0.908	0.766	0.768	0.889	0.861	0.819	1.053	1.427	1.741	2.050	2.210	2.277	2.669	2.872	2.909	2.992	2.791	2.926	2.719	2.814	2.758	2.991	2.820	2.936	2.946	3.111	3.011	2.973	3.197	3.496	3.455	3.390	3.548	3.470	3.549	3.487	3.498	3.700
390.0	367.0	611.8	783.3	848.0	833.1	767.9	713.6	684.9	679.1	687.7	701.5	705.7	710.7	665.3	674.0	633.5	614.9	587.2	559.4	524.9	486.5	445.0	406.2	381.5	375.7	320.1	217.4	159.3	123.2	95.74	89.45	211.3	830.5	2030	2026	530.6	11.19	1.947	1.271	1.032	0.880	0.792	0.811	0.835	0.890	1.139	1.270	1.743	2.110	2.085	2.100	2.672	2.820	2.880	2.898	2.643	2.910	2.827	2.878	2.739	2.904	2.996	2.923	3.122	2.968	2.971	2.837	3.052	3.186	3.350	3.228	3.314	3.199	3.501	3.391	3.459	3.550
395.0	363.1	577.0	739.2	826.1	810.4	775.1	725.7	684.1	675.9	671.1	681.1	692.5	685.1	652.5	652.3	619.9	596.5	576.4	556.8	524.1	490.0	459.4	425.1	392.6	361.1	361.4	306.8	210.6	157.8	122.8	95.15	98.48	218.8	495.4	1398	2349	262.9	11.58	2.022	1.253	1.023	0.993	0.910	0.929	0.951	1.148	1.326	1.688	1.915	2.038	2.087	2.540	2.673	2.925	2.737	2.750	2.928	2.736	2.864	2.935	2.896	2.928	2.828	2.774	2.808	2.880	3.021	3.124	3.176	3.227	3.150	3.200	3.186	3.444	3.462	3.401	3.232
400.0	355.1	535.3	717.9	807.8	804.5	781.4	741.1	686.5	678.2	671.9	675.3	673.9	675.7	642.0	641.8	602.8	581.9	565.5	546.3	519.6	499.0	470.0	436.9	404.0	368.3	348.2	352.4	266.4	189.5	147.4	113.4	86.85	90.57	139.6	383.9	1755	2105	218.3	5.922	1.619	1.157	1.000	0.931	0.974	1.123	1.222	1.374	1.632	1.928	1.971	1.971	2.538	2.697	2.769	2.766	2.632	2.828	2.778	2.751	2.927	2.904	2.820	2.655	2.730	2.760	3.124	2.708	2.970	3.051	3.049	2.759	3.188	3.249	3.448	3.098	3.465	3.317
405.0	374.2	556.3	706.6	785.0	805.4	767.1	728.7	698.4	672.5	665.6	675.3	671.2	664.2	626.5	620.4	590.6	567.4	553.8	539.2	511.0	492.5	473.3	441.5	412.9	379.2	346.2	344.0	324.5	230.1	171.6	133.9	97.84	74.83	68.05	110.8	512.3	1941	1778	34.52	3.228	1.467	1.208	0.991	0.908	1.086	1.152	1.439	1.638	1.758	1.918	1.996	2.510	2.546	2.862	2.751	2.853	2.779	2.865	2.938	2.962	2.783	2.668	2.696	2.647	2.900	2.857	2.839	2.968	3.007	2.998	2.896	3.206	3.035	3.108	3.339	3.378	3.165
410.0	341.6	534.9	690.6	771.4	783.8	755.3	720.5	700.2	674.8	661.6	657.1	654.3	641.9	606.9	599.6	566.7	544.7	530.2	516.9	498.4	480.5	463.3	442.2	419.1	387.6	356.9	328.7	329.6	293.9	213.4	157.8	117.9	85.64	63.85	58.64	138.1	548.9	1434	1594	481.8	11.13	1.625	1.229	1.104	1.053	1.097	1.266	1.556	1.771	1.838	2.071	2.507	2.656	2.663	2.860	2.582	2.932	2.931	2.934	2.840	2.786	2.768	2.712	2.775	2.747	2.832	2.768	2.720	2.828	2.843	2.960	3.158	2.977	3.154	3.108	3.045	3.256
