Sample:	'1
File name:	章丘二厂6.23 10.15 厂内进水 75倍.FD3
Run date:	'10:30:12, 06/24/2025
Operator:	Administrator
Comment:	'

Instrument
Model:	F-2700 FL Spectrophotometer
Serial number:	23B8-004
ROM Version:	4J14000 07

Instrument parameters
Measurement type:	3-D scan
Data mode:	Fluorescence
EX  Start WL:	220.0 nm
EX  End WL:	600.0 nm
EX Sampling interval:	5.0 nm
EM  Start WL:	230.0 nm
EM  End WL:	650.0 nm
EM Sampling interval:	5.0 nm
Scan speed:	12000 nm/min
EX Slit:	5.0 nm
EM Slit:	5.0 nm
PMT Voltage:	700 V
Response:	Auto 
Corrected spectra:	Off
Contour interval:	50.000

Peak integration
Integration method:	Rectangular
Sensitivity:	1
Threshold:	1.000

Peaks
No.	ApexEX/EM(nm)	Height(Data)
1	225.0/305.0	3557
2	225.0/490.0	197.6
3	225.0/535.0	37.75
4	225.0/590.0	274.8
5	230.0/505.0	183.2
6	235.0/260.0	381.3
7	235.0/515.0	152.9
8	240.0/265.0	464.4
9	240.0/525.0	140.0
10	245.0/270.0	465.9
11	245.0/540.0	131.0
12	250.0/275.0	587.1
13	250.0/550.0	110.7
14	255.0/285.0	669.0
15	255.0/565.0	107.2
16	260.0/575.0	121.2
17	265.0/590.0	140.0
18	270.0/300.0	1887
19	270.0/600.0	150.9
20	275.0/305.0	1781
21	275.0/610.0	114.9
22	280.0/625.0	76.88
23	285.0/635.0	42.59
24	290.0/325.0	514.5
25	295.0/330.0	369.9
26	300.0/335.0	343.8
27	305.0/340.0	290.3
28	310.0/350.0	230.1
29	315.0/355.0	209.8
30	320.0/360.0	206.1
31	325.0/370.0	161.5
32	330.0/375.0	155.6
33	335.0/380.0	162.2
34	345.0/395.0	114.3
35	350.0/400.0	120.8
36	355.0/405.0	101.4
37	360.0/415.0	89.85
38	365.0/420.0	95.37
39	370.0/425.0	84.02
40	380.0/440.0	66.85
41	385.0/445.0	56.54
42	390.0/305.0	8.504
43	395.0/460.0	40.91
44	400.0/465.0	33.66
45	410.0/480.0	23.85
46	415.0/485.0	21.15
47	425.0/500.0	16.50
48	430.0/505.0	14.36
49	440.0/520.0	10.90
50	445.0/525.0	9.453
51	455.0/300.0	9.215
52	455.0/540.0	6.684
53	470.0/560.0	3.372
54	485.0/265.0	2.244
55	495.0/270.0	2.350
56	505.0/275.0	3.634
57	510.0/280.0	3.774
58	520.0/285.0	4.274
59	530.0/290.0	5.280
60	545.0/300.0	9.331
61	550.0/305.0	9.523
62	560.0/310.0	7.260
63	585.0/325.0	3.455

Data points
	220.0	225.0	230.0	235.0	240.0	245.0	250.0	255.0	260.0	265.0	270.0	275.0	280.0	285.0	290.0	295.0	300.0	305.0	310.0	315.0	320.0	325.0	330.0	335.0	340.0	345.0	350.0	355.0	360.0	365.0	370.0	375.0	380.0	385.0	390.0	395.0	400.0	405.0	410.0	415.0	420.0	425.0	430.0	435.0	440.0	445.0	450.0	455.0	460.0	465.0	470.0	475.0	480.0	485.0	490.0	495.0	500.0	505.0	510.0	515.0	520.0	525.0	530.0	535.0	540.0	545.0	550.0	555.0	560.0	565.0	570.0	575.0	580.0	585.0	590.0	595.0	600.0
230.0	133.5	1839	2817	493.6	18.96	6.322	4.508	3.898	3.899	3.162	2.988	2.525	2.475	1.942	1.453	1.256	1.239	1.001	1.006	0.878	0.775	0.655	0.692	0.633	0.626	0.551	0.650	0.478	0.548	0.529	0.456	0.465	0.435	0.382	0.404	0.408	0.398	0.376	0.405	0.462	0.658	0.962	0.770	0.450	0.391	0.470	2.509	7.761	9.320	5.268	1.611	0.401	0.253	0.251	0.257	0.239	0.252	0.250	0.240	0.252	0.223	0.230	0.222	0.268	0.241	0.234	0.225	0.241	0.264	0.226	0.233	0.239	0.226	0.244	0.243	0.302	0.249
235.0	204.6	528.5	2188	2422	471.8	25.69	4.583	4.657	3.922	3.636	2.308	2.899	2.455	1.432	1.647	1.362	1.350	0.993	1.032	0.797	0.906	0.743	0.742	0.701	0.473	0.560	0.616	0.470	0.580	0.544	0.607	0.433	0.442	0.373	0.362	0.347	0.444	0.419	0.341	0.427	0.426	0.656	0.821	0.934	0.785	0.464	0.801	2.197	4.367	7.711	9.057	8.227	3.101	0.750	0.301	0.235	0.276	0.248	0.243	0.207	0.201	0.252	0.275	0.291	0.297	0.206	0.239	0.221	0.280	0.246	0.213	0.247	0.278	0.237	0.246	0.264	0.235
240.0	315.0	242.6	728.0	2558	2391	356.9	13.70	5.195	5.420	3.775	3.248	3.211	2.870	1.761	1.253	1.237	1.433	1.086	1.114	0.886	0.758	0.660	0.674	0.621	0.641	0.608	0.551	0.504	0.548	0.498	0.531	0.524	0.467	0.399	0.406	0.332	0.420	0.379	0.371	0.428	0.402	0.390	0.493	0.697	1.064	0.979	0.662	0.716	1.266	2.695	6.095	12.95	13.50	7.635	2.396	0.413	0.264	0.268	0.242	0.214	0.220	0.266	0.247	0.241	0.258	0.250	0.232	0.219	0.295	0.253	0.275	0.234	0.261	0.227	0.224	0.217	0.232
245.0	241.4	327.8	240.9	1013	3232	2196	242.0	7.856	6.266	4.362	4.732	3.618	2.698	2.028	1.643	1.413	1.436	1.224	1.231	0.890	0.747	0.751	0.654	0.669	0.718	0.549	0.653	0.519	0.527	0.524	0.453	0.499	0.442	0.402	0.401	0.356	0.414	0.366	0.392	0.369	0.343	0.272	0.369	0.448	0.720	1.036	1.065	0.828	0.549	0.839	1.705	5.107	12.03	15.82	13.95	6.289	1.507	0.328	0.240	0.244	0.281	0.211	0.280	0.194	0.265	0.248	0.248	0.255	0.263	0.239	0.287	0.216	0.273	0.242	0.209	0.232	0.283
250.0	96.78	261.5	319.5	316.8	1171	2856	2887	866.5	53.91	5.989	5.087	4.410	3.277	2.677	1.770	1.711	1.560	1.313	1.150	0.963	0.844	0.692	0.679	0.741	0.639	0.539	0.640	0.579	0.599	0.545	0.495	0.486	0.399	0.369	0.435	0.365	0.426	0.357	0.407	0.390	0.359	0.359	0.336	0.383	0.376	0.532	0.730	1.063	1.152	0.918	0.840	1.419	3.181	5.620	10.37	14.54	17.46	14.45	7.148	2.052	0.341	0.259	0.273	0.214	0.258	0.253	0.236	0.256	0.327	0.257	0.261	0.237	0.235	0.281	0.252	0.246	0.251
255.0	46.53	87.59	263.6	372.1	340.7	799.2	2873	4462	1538	33.11	7.095	5.580	3.632	3.057	2.438	1.854	1.648	1.368	1.250	1.017	0.963	0.857	0.778	0.726	0.612	0.605	0.646	0.495	0.549	0.572	0.453	0.498	0.356	0.394	0.486	0.401	0.454	0.348	0.381	0.391	0.364	0.388	0.305	0.369	0.436	0.357	0.381	0.433	0.717	1.085	1.544	1.451	1.210	1.516	2.636	3.840	7.820	18.24	28.74	25.86	10.58	1.548	0.335	0.213	0.322	0.265	0.258	0.244	0.242	0.278	0.279	0.275	0.265	0.269	0.255	0.259	0.241
260.0	34.30	36.99	114.3	381.3	332.3	235.6	983.0	4468	7727	248.9	17.46	6.496	4.101	4.593	2.665	2.191	1.825	1.662	1.394	1.168	0.916	0.921	0.887	0.765	0.684	0.705	0.668	0.539	0.600	0.752	0.584	0.509	0.488	0.519	0.501	0.420	0.391	0.427	0.358	0.413	0.389	0.403	0.405	0.364	0.339	0.312	0.314	0.326	0.407	0.535	1.233	2.168	1.856	1.112	0.954	1.280	2.092	5.438	14.86	32.07	32.41	21.59	8.929	0.754	0.332	0.338	0.292	0.356	0.291	0.286	0.297	0.294	0.345	0.249	0.238	0.291	0.287
265.0	33.73	29.09	45.21	196.3	464.4	241.8	277.9	1730	9999.9	4763	186.6	10.86	5.915	5.098	3.146	2.498	2.436	1.780	1.472	1.171	1.108	1.059	0.804	0.749	0.730	0.651	0.723	0.559	0.720	0.711	0.670	0.456	0.497	0.550	0.509	0.466	0.412	0.357	0.378	0.366	0.425	0.442	0.448	0.313	0.379	0.375	0.300	0.268	0.320	0.369	0.520	1.121	2.005	2.244	1.468	0.807	0.866	1.559	3.787	10.40	22.47	37.49	32.80	17.54	3.855	0.449	0.300	0.307	0.366	0.285	0.302	0.276	0.350	0.244	0.289	0.291	0.315
270.0	68.62	57.49	51.53	80.27	270.6	465.9	302.5	460.1	3577	5961	4978	757.6	35.58	6.955	4.082	3.073	2.858	1.980	1.484	1.267	1.349	1.042	0.958	0.851	0.814	0.658	0.804	0.599	0.762	0.609	0.644	0.597	0.565	0.641	0.609	0.486	0.489	0.402	0.433	0.461	0.439	0.470	0.457	0.434	0.471	0.421	0.460	0.364	0.380	0.357	0.378	0.584	0.864	1.495	2.205	2.350	1.913	1.281	1.339	2.712	5.737	11.78	24.36	31.11	33.78	33.00	12.54	3.488	0.514	0.298	0.344	0.302	0.337	0.307	0.284	0.291	0.302
275.0	184.1	161.3	117.7	65.95	113.8	287.2	587.1	339.0	859.0	1564	5038	8670	993.5	36.94	6.417	3.880	3.462	2.555	1.874	1.446	1.517	1.189	1.041	0.856	0.834	0.843	0.855	0.710	0.885	0.738	0.678	0.719	0.681	0.926	0.842	0.717	0.665	0.547	0.497	0.543	0.579	0.610	0.541	0.572	0.740	0.768	0.693	0.753	0.599	0.536	0.459	0.481	0.548	0.686	1.019	1.483	2.713	3.634	2.256	1.214	1.701	3.017	5.919	7.635	11.74	30.00	48.76	32.26	20.11	3.547	0.458	0.375	0.321	0.333	0.354	0.341	0.285
280.0	437.2	423.1	297.3	133.4	92.20	157.9	450.9	627.1	360.7	460.7	1622	7773	7406	149.5	14.42	5.329	4.568	2.808	2.284	1.572	1.622	1.397	1.281	1.028	0.918	0.809	0.962	0.714	0.788	0.739	0.821	0.850	1.074	1.293	1.555	1.274	1.083	0.756	0.684	0.739	0.843	0.774	0.890	0.973	1.144	1.412	1.257	1.325	1.042	0.825	0.695	0.634	0.508	0.520	0.812	0.814	1.543	2.790	3.774	2.896	1.538	1.400	1.962	2.302	3.357	8.196	19.05	39.15	63.89	31.17	14.14	1.326	0.476	0.365	0.390	0.334	0.335
285.0	973.2	1052	750.3	320.4	131.8	129.4	257.2	669.0	629.3	335.7	659.1	2779	8628	6943	106.8	9.337	6.348	3.673	2.626	1.982	2.038	1.417	1.331	1.109	1.111	1.026	1.126	0.892	0.832	0.816	0.720	0.942	1.482	2.419	2.705	2.458	1.807	1.235	1.163	1.118	1.146	1.383	1.664	1.663	2.237	2.529	2.776	2.753	2.487	1.754	1.265	0.896	0.655	0.599	0.718	0.723	1.095	1.515	2.453	3.914	4.274	2.818	1.827	1.797	2.069	3.375	5.928	11.86	30.82	52.29	62.36	25.15	7.533	0.867	0.443	0.425	0.446
290.0	2090	2129	1546	682.7	221.6	156.8	229.5	451.8	909.3	972.0	836.2	1241	3010	8223	6100	438.2	27.36	5.282	3.521	2.416	2.453	1.918	1.431	1.362	1.181	1.176	1.221	0.947	0.931	0.805	0.974	1.321	2.499	4.220	5.258	4.602	3.190	2.076	1.874	1.870	1.868	2.421	3.005	3.301	4.132	4.615	5.198	5.470	5.081	3.436	2.378	1.788	1.011	0.824	0.759	0.806	1.119	1.343	1.756	2.500	3.572	4.863	5.280	4.610	3.971	3.969	4.462	5.684	9.887	15.97	27.75	34.68	34.61	45.43	17.42	6.732	1.107
295.0	2964	3168	2343	1025	310.5	196.4	258.2	428.0	749.1	1377	1509	1175	1294	2166	4494	6623	657.4	20.27	5.375	3.311	3.010	2.320	1.688	1.401	1.347	1.202	1.503	1.062	1.119	0.854	0.983	1.618	3.423	6.310	7.463	6.284	4.546	3.009	2.514	2.510	2.780	3.243	4.096	4.927	5.670	6.784	7.859	7.946	7.032	4.967	3.251	2.421	1.370	0.982	0.805	0.970	1.155	1.538	1.730	2.264	2.693	3.773	5.138	7.348	8.339	6.796	5.675	5.340	6.199	6.576	8.359	9.022	10.25	27.48	45.22	56.68	28.64
300.0	3318	3539	2646	1156	355.7	214.9	279.4	443.8	711.7	1205	1887	1424	969.8	736.2	1260	6036	5910	87.77	10.77	4.356	3.564	2.498	2.034	1.593	1.457	1.235	1.655	1.024	1.174	1.060	1.017	1.818	3.862	7.289	7.981	6.949	4.787	3.418	2.758	2.999	2.795	3.505	4.405	5.228	6.383	7.974	8.313	9.215	7.895	5.874	3.820	2.578	1.618	1.132	0.959	1.073	1.252	1.566	1.774	2.287	2.808	3.650	4.513	5.833	8.648	9.331	8.309	5.834	5.579	4.734	4.383	3.443	3.173	7.043	14.21	34.03	60.51
305.0	3334	3557	2638	1181	362.0	210.9	280.2	442.5	698.3	1051	1629	1781	974.7	416.9	352.3	1823	9026	4525	70.31	6.945	4.965	2.737	2.167	1.804	1.596	1.420	1.587	1.097	1.150	0.929	1.284	2.104	3.764	6.869	8.504	7.143	4.667	3.305	2.754	2.789	2.966	3.676	4.355	5.447	6.177	7.729	8.444	9.064	8.277	5.854	3.975	2.703	1.536	1.133	0.987	1.065	1.222	1.572	1.991	2.348	2.964	3.683	4.322	5.365	6.475	8.013	9.523	8.319	6.596	4.568	3.401	2.093	1.577	2.272	3.923	8.954	21.88
310.0	2918	3150	2302	1038	331.1	199.8	267.2	416.9	635.1	905.9	1220	1453	1211	431.3	155.6	450.7	2660	4927	5227	305.0	21.16	4.253	2.847	2.599	1.927	1.622	1.799	1.160	1.420	0.993	1.303	1.822	3.272	6.203	7.378	6.388	4.249	3.057	2.495	2.608	2.774	3.275	3.799	4.856	5.547	7.084	7.557	7.959	7.229	5.229	3.447	2.450	1.517	1.095	1.049	1.049	1.299	1.461	1.823	2.170	2.704	3.461	3.896	4.760	5.217	5.875	6.505	7.007	7.260	6.489	4.044	2.181	1.325	1.291	1.573	2.653	5.563
315.0	2266	2473	1842	825.8	287.7	183.3	243.0	369.2	550.6	749.3	944.7	981.3	954.0	699.6	151.2	148.8	629.9	1168	3522	5777	504.9	17.43	4.149	3.294	2.229	1.930	2.037	1.265	1.546	1.084	1.208	1.808	2.893	4.809	6.122	5.396	3.551	2.696	2.236	2.161	2.319	2.818	3.073	3.883	4.561	5.820	5.966	6.572	6.035	4.163	2.805	2.073	1.400	0.995	1.144	1.042	1.238	1.372	1.737	1.813	2.377	2.861	3.421	3.884	4.229	4.584	4.666	4.772	4.853	5.037	4.911	3.966	2.269	1.224	1.111	1.321	1.907
320.0	1855	2043	1508	682.5	253.8	184.7	229.5	329.1	478.9	642.4	784.1	772.7	667.4	654.6	387.5	106.6	183.6	292.4	918.6	4163	4333	382.4	8.475	3.905	2.775	2.099	2.142	1.377	1.588	1.272	1.303	1.639	2.685	4.038	5.243	4.636	3.206	2.233	1.958	1.968	2.049	2.430	2.553	3.328	4.020	4.852	4.886	5.413	4.614	3.314	2.309	1.586	1.196	0.911	0.925	1.039	1.241	1.313	1.646	1.944	2.254	2.680	2.995	3.294	3.377	3.751	4.205	3.604	3.827	3.488	3.300	3.697	3.912	2.565	1.486	0.972	1.065
325.0	1538	1674	1217	577.2	237.7	180.0	221.3	306.1	418.8	549.5	668.0	648.7	518.3	419.5	514.5	218.1	93.73	100.2	231.4	1178	5615	3672	57.89	6.197	3.053	2.740	2.623	1.387	1.645	1.340	1.437	1.465	2.178	3.561	4.295	3.569	2.660	2.153	1.836	1.837	1.813	2.062	2.287	2.763	3.294	3.875	4.145	4.223	3.863	2.696	2.041	1.586	1.027	1.019	0.899	1.018	1.229	1.291	1.491	1.771	2.010	2.283	2.661	2.939	3.026	3.305	3.584	3.042	3.017	2.775	2.365	2.214	2.853	3.455	2.980	1.575	1.022
330.0	1213	1301	933.1	458.3	214.1	175.0	215.2	281.0	360.5	468.0	544.3	523.6	426.8	283.7	311.1	369.9	184.1	69.14	80.38	285.5	1595	3610	3788	1087	16.71	3.553	3.348	1.753	1.855	1.424	1.548	1.411	1.988	2.842	3.505	2.966	2.186	1.686	1.568	1.527	1.549	1.730	1.910	2.313	2.568	3.132	3.164	3.308	2.949	2.196	1.708	1.420	1.006	0.932	0.911	1.045	1.192	1.206	1.423	1.542	1.807	1.888	2.251	2.457	2.617	2.787	2.926	2.653	2.523	2.314	1.920	1.696	1.611	2.069	2.563	2.506	2.205
335.0	957.1	948.6	717.0	379.5	206.1	182.5	204.7	248.0	327.1	394.3	454.5	445.2	364.9	248.8	193.9	226.3	343.8	153.1	54.17	88.06	374.2	846.5	2419	5430	414.8	18.21	4.836	2.426	2.255	1.555	1.770	1.462	1.770	2.405	2.541	2.369	1.870	1.625	1.535	1.297	1.477	1.437	1.793	1.954	2.242	2.593	2.411	2.558	2.366	1.693	1.370	1.305	0.972	0.920	0.988	0.911	1.094	1.183	1.338	1.474	1.673	1.808	2.154	2.239	2.452	2.510	2.479	2.305	2.322	1.894	1.657	1.549	1.441	1.371	1.485	1.471	2.094
340.0	803.5	790.2	609.0	333.1	197.2	178.5	197.7	237.4	307.4	353.0	399.6	395.6	328.1	230.2	167.5	145.5	262.9	290.3	76.33	46.99	104.5	205.1	626.8	3689	3483	349.5	9.633	3.164	2.626	1.912	1.746	1.759	1.770	2.078	2.355	1.957	1.638	1.459	1.333	1.170	1.394	1.305	1.445	1.745	1.876	2.070	2.147	2.209	2.037	1.508	1.231	1.176	0.961	0.907	0.877	0.907	1.007	1.096	1.339	1.483	1.708	1.720	1.969	1.748	2.060	2.180	2.062	2.134	2.174	1.771	1.503	1.488	1.342	1.340	1.250	1.120	1.274
345.0	684.7	682.4	516.6	305.0	194.1	175.8	185.2	230.1	278.8	332.6	364.2	355.2	295.8	222.6	160.2	123.3	149.9	283.9	190.1	49.42	45.87	63.98	154.8	1027	3687	3177	51.80	4.661	3.293	2.212	1.821	1.756	1.637	1.852	1.907	1.749	1.520	1.338	1.278	1.147	1.342	1.134	1.344	1.571	1.705	1.857	1.839	1.882	1.752	1.387	1.094	1.136	0.933	0.945	0.855	0.955	1.029	1.070	1.298	1.470	1.449	1.544	1.744	1.831	1.803	1.967	1.888	1.793	1.880	1.715	1.512	1.479	1.334	1.249	1.146	1.029	1.030
350.0	605.9	563.0	440.4	267.0	179.9	169.1	180.9	213.9	256.7	297.2	320.7	311.7	269.6	211.0	158.0	115.7	107.7	151.7	230.1	135.7	48.73	35.17	51.60	243.3	1040	2930	4582	834.1	16.07	3.134	2.467	1.927	1.705	1.727	1.700	1.579	1.373	1.189	1.129	1.090	1.091	1.121	1.221	1.377	1.484	1.573	1.595	1.615	1.444	1.183	0.968	1.012	0.882	0.953	0.839	0.883	1.042	1.019	1.174	1.337	1.331	1.394	1.667	1.744	1.706	1.759	1.657	1.655	1.664	1.560	1.360	1.434	1.331	1.090	1.139	1.100	0.964
355.0	508.8	493.9	355.6	231.1	169.5	166.8	178.6	201.6	234.0	261.6	287.7	278.4	243.9	201.5	153.5	118.9	99.85	96.70	126.4	209.8	131.2	39.11	31.88	70.35	244.9	686.2	3010	3941	388.5	16.78	3.734	2.415	1.927	1.679	1.637	1.559	1.323	1.214	1.154	1.080	1.083	1.103	1.184	1.215	1.306	1.342	1.444	1.351	1.178	1.033	0.859	0.923	0.985	0.838	0.886	1.027	0.978	1.059	1.060	1.114	1.381	1.283	1.555	1.538	1.544	1.639	1.424	1.447	1.650	1.555	1.362	1.300	1.178	1.147	0.988	1.102	0.990
360.0	459.5	433.4	320.2	206.5	161.1	157.1	171.3	194.2	226.5	249.3	265.3	256.9	227.3	192.3	153.9	120.7	100.1	87.88	85.25	145.9	206.1	67.12	31.32	34.67	68.60	164.4	764.4	2753	4618	326.5	8.918	3.340	2.256	1.660	1.596	1.427	1.260	1.101	1.091	1.055	1.021	0.942	1.041	1.153	1.283	1.271	1.319	1.263	1.193	0.921	0.857	0.860	0.854	0.871	0.908	0.907	0.942	1.037	1.075	1.156	1.330	1.317	1.413	1.402	1.421	1.399	1.540	1.492	1.396	1.271	1.281	1.316	1.156	1.235	1.049	1.028	0.982
365.0	396.1	367.9	282.7	198.6	163.1	154.0	162.9	187.9	217.9	235.7	247.6	238.3	214.2	183.7	150.0	120.4	101.5	89.05	78.94	91.53	179.1	157.6	48.43	28.64	32.27	50.04	183.2	783.6	4467	2974	49.67	5.019	2.634	1.895	1.629	1.485	1.257	1.092	1.120	0.953	1.234	1.035	1.072	1.088	1.337	1.173	1.164	1.183	1.059	0.829	0.852	0.923	0.830	0.744	0.880	0.835	0.872	1.004	0.990	1.084	1.223	1.228	1.310	1.324	1.413	1.482	1.326	1.487	1.622	1.277	1.278	1.229	1.190	1.179	1.044	1.009	1.002
370.0	378.2	339.8	258.7	193.4	159.1	147.1	158.8	181.5	206.2	225.7	231.5	224.7	203.2	179.7	148.5	122.3	108.1	94.07	83.85	78.46	103.3	161.5	130.4	45.15	27.60	26.87	54.61	184.9	1268	2889	3650	907.8	13.78	2.477	1.924	1.599	1.326	1.201	1.202	1.035	1.088	1.004	1.066	0.989	1.170	1.031	1.184	1.124	1.003	0.875	0.824	0.770	0.833	0.813	0.782	0.805	0.847	0.955	1.022	0.998	1.228	1.255	1.275	1.185	1.336	1.344	1.377	1.416	1.435	1.282	1.346	1.132	1.180	1.136	0.988	1.013	0.971
375.0	346.8	289.4	230.7	177.4	154.6	145.6	154.1	170.6	197.4	209.4	214.4	213.3	193.0	169.9	146.1	123.1	111.2	97.98	91.41	80.28	79.50	94.54	155.6	119.5	40.12	26.12	27.95	52.84	291.6	677.6	2363	4372	333.4	12.26	2.248	1.783	1.532	1.446	1.143	1.037	0.940	0.986	1.052	1.025	0.984	0.981	1.141	1.064	0.873	0.785	0.660	0.855	0.807	0.737	0.706	0.740	0.861	0.966	0.991	0.951	1.125	1.170	1.240	1.173	1.316	1.274	1.337	1.257	1.298	1.330	1.144	1.165	1.217	1.193	0.920	1.115	0.996
380.0	316.9	290.8	220.6	170.8	147.4	144.9	148.2	166.7	187.0	201.6	204.7	203.0	185.1	164.6	141.0	126.0	114.3	102.5	92.98	83.60	77.43	74.66	106.8	162.2	62.86	29.93	23.71	24.42	75.39	159.9	613.2	3149	2793	246.1	5.360	2.324	1.627	1.476	1.119	1.175	0.971	1.015	1.100	1.089	1.021	1.031	1.024	0.957	0.964	0.786	0.684	0.776	0.778	0.766	0.727	0.842	0.723	0.911	0.973	0.850	1.012	1.135	1.115	1.159	1.210	1.255	1.284	1.229	1.151	1.216	1.101	1.053	1.108	1.131	1.027	1.098	1.060
385.0	297.7	267.0	212.3	165.4	138.2	142.0	147.1	157.4	179.3	189.6	196.5	193.4	179.0	157.7	137.1	125.9	114.2	106.5	96.83	87.62	79.92	69.40	75.89	134.0	130.3	47.52	25.25	20.59	29.16	45.07	146.5	902.0	2986	2154	38.31	3.168	1.818	1.580	1.312	1.162	1.015	1.059	1.166	1.040	1.017	1.076	0.960	0.914	0.858	0.738	0.731	0.761	0.802	0.679	0.705	0.695	0.816	0.899	0.930	1.044	1.074	1.108	1.049	1.199	1.207	1.370	1.176	1.218	1.067	1.214	1.111	1.058	1.087	1.095	1.078	1.029	0.985
390.0	280.7	258.4	191.6	154.5	133.7	132.9	139.0	151.0	170.8	177.8	190.3	185.9	168.7	152.5	136.6	121.4	114.2	108.7	99.66	92.28	82.78	73.36	68.02	81.27	122.9	106.2	42.61	23.49	21.87	22.57	43.32	210.7	849.9	1912	2149	584.2	10.14	2.137	1.468	1.376	1.145	1.136	1.129	0.949	0.999	0.923	0.957	0.878	0.838	0.688	0.720	0.704	0.741	0.707	0.729	0.728	0.852	0.924	0.906	0.889	0.969	1.068	0.996	1.139	1.173	1.164	1.152	1.133	1.009	1.084	1.087	1.109	1.081	1.047	1.136	1.127	1.001
395.0	262.4	239.3	182.3	154.8	131.6	130.2	136.6	145.5	156.9	167.4	174.8	174.6	162.9	146.6	135.1	122.3	113.8	109.0	99.17	93.04	83.52	75.20	68.03	66.78	75.03	114.3	98.48	36.93	23.74	20.10	22.23	56.56	196.8	450.3	1498	2830	261.5	11.08	2.059	1.693	1.356	1.147	1.092	1.096	0.903	0.976	1.033	0.951	0.723	0.777	0.618	0.765	0.785	0.714	0.794	0.736	0.835	0.845	0.839	0.834	0.850	0.960	1.044	0.997	1.089	1.124	1.037	1.027	1.016	1.055	1.060	1.058	0.954	0.957	1.149	1.165	1.056
400.0	250.0	233.5	181.2	150.8	132.1	122.2	129.0	143.2	149.3	156.8	169.4	168.1	154.2	144.3	128.2	118.0	113.4	108.0	98.85	92.25	85.72	78.42	69.11	62.07	59.99	79.27	120.8	58.21	28.35	22.00	18.94	24.31	52.73	107.3	402.6	2151	2048	213.1	4.273	1.830	1.423	1.294	1.136	1.071	0.973	0.927	0.961	0.906	0.740	0.707	0.649	0.811	0.709	0.762	0.757	0.772	0.776	0.813	0.867	0.881	0.864	0.942	1.027	0.906	1.001	1.121	1.018	0.920	1.038	0.962	1.140	1.070	0.967	1.013	1.087	1.051	1.115
405.0	226.0	210.4	176.5	144.4	123.6	123.1	128.6	132.2	140.7	150.1	162.4	158.8	149.6	136.1	124.2	116.1	110.6	106.0	98.08	90.24	84.30	79.00	70.10	63.35	56.36	58.24	96.25	101.4	44.74	24.23	20.49	18.44	22.05	31.50	96.06	629.4	2062	1917	33.70	2.463	1.479	1.251	1.224	1.085	0.919	0.934	0.968	0.901	0.755	0.660	0.613	0.772	0.720	0.802	0.646	0.783	0.880	0.823	0.908	0.812	0.913	0.858	0.915	1.149	0.862	1.077	1.074	0.965	0.998	0.993	1.039	1.040	0.888	0.913	1.060	0.958	1.061
410.0	223.4	195.4	163.8	136.1	122.1	117.9	121.1	125.1	135.0	143.4	151.0	149.4	139.7	132.3	118.7	111.8	105.4	101.4	94.84	88.85	82.70	76.77	69.47	63.63	56.38	53.65	62.25	91.42	88.63	40.46	24.37	19.72	16.81	16.09	28.44	146.8	598.4	1827	1677	148.9	8.794	1.569	1.484	1.132	0.910	0.907	0.922	0.870	0.690	0.681	0.605	0.736	0.681	0.800	0.738	0.723	0.717	0.818	0.793	0.848	0.833	0.829	0.851	0.924	0.812	1.036	1.008	0.961	0.996	0.855	1.002	0.917	0.937	0.983	0.970	0.957	0.927
