Sample:	'1
File name:	G2025070113∫Í §≥¡µÌ≥ÿ 50±∂.FD3
Run date:	'15:46:11, 07/03/2025
Operator:	Administrator
Comment:	'

Instrument
Model:	F-2700 FL Spectrophotometer
Serial number:	23B8-004
ROM Version:	4J14000 07

Instrument parameters
Measurement type:	3-D scan
Data mode:	Fluorescence
EX  Start WL:	220.0 nm
EX  End WL:	600.0 nm
EX Sampling interval:	5.0 nm
EM  Start WL:	230.0 nm
EM  End WL:	650.0 nm
EM Sampling interval:	5.0 nm
Scan speed:	12000 nm/min
EX Slit:	5.0 nm
EM Slit:	5.0 nm
PMT Voltage:	700 V
Response:	Auto 
Corrected spectra:	Off
Contour interval:	50.000

Peak integration
Integration method:	Rectangular
Sensitivity:	1
Threshold:	1.000

Peaks
No.	ApexEX/EM(nm)	Height(Data)
1	225.0/340.0	3187
2	225.0/620.0	35.09
3	230.0/500.0	295.4
4	235.0/510.0	231.2
5	240.0/265.0	478.4
6	240.0/525.0	215.2
7	245.0/270.0	520.8
8	245.0/540.0	190.8
9	250.0/275.0	666.5
10	250.0/550.0	146.0
11	255.0/285.0	661.3
12	255.0/565.0	125.6
13	260.0/290.0	574.3
14	260.0/575.0	105.6
15	265.0/295.0	694.6
16	265.0/585.0	89.56
17	270.0/300.0	877.1
18	270.0/600.0	80.78
19	275.0/305.0	808.1
20	275.0/340.0	785.3
21	275.0/415.0	1538
22	275.0/435.0	1548
23	275.0/610.0	62.06
24	280.0/625.0	53.58
25	285.0/320.0	694.5
26	285.0/635.0	40.27
27	290.0/325.0	637.9
28	300.0/335.0	509.5
29	305.0/345.0	443.9
30	310.0/350.0	337.7
31	315.0/355.0	290.6
32	320.0/360.0	258.5
33	325.0/370.0	202.9
34	330.0/375.0	186.7
35	335.0/380.0	183.1
36	350.0/435.0	690.5
37	355.0/410.0	692.1
38	360.0/415.0	695.3
39	425.0/500.0	14.28
40	430.0/505.0	12.56
41	440.0/520.0	9.488
42	445.0/525.0	7.957
43	450.0/535.0	6.432
44	455.0/340.0	9.571
45	455.0/540.0	5.669
46	470.0/560.0	3.141
47	485.0/265.0	2.649
48	505.0/275.0	4.470
49	505.0/445.0	4.799
50	510.0/280.0	4.674
51	520.0/285.0	4.315
52	525.0/290.0	3.834
53	535.0/270.0	64.52
54	540.0/295.0	4.767
55	540.0/420.0	5.059
56	545.0/300.0	5.213
57	550.0/305.0	5.426
58	550.0/340.0	4.709
59	550.0/440.0	4.977
60	555.0/415.0	5.086
61	560.0/310.0	4.506
62	560.0/435.0	4.970
63	570.0/315.0	4.506
64	580.0/320.0	4.797
65	585.0/325.0	4.839

Data points
	220.0	225.0	230.0	235.0	240.0	245.0	250.0	255.0	260.0	265.0	270.0	275.0	280.0	285.0	290.0	295.0	300.0	305.0	310.0	315.0	320.0	325.0	330.0	335.0	340.0	345.0	350.0	355.0	360.0	365.0	370.0	375.0	380.0	385.0	390.0	395.0	400.0	405.0	410.0	415.0	420.0	425.0	430.0	435.0	440.0	445.0	450.0	455.0	460.0	465.0	470.0	475.0	480.0	485.0	490.0	495.0	500.0	505.0	510.0	515.0	520.0	525.0	530.0	535.0	540.0	545.0	550.0	555.0	560.0	565.0	570.0	575.0	580.0	585.0	590.0	595.0	600.0
230.0	110.6	2079	4498	1178	38.22	8.829	6.364	6.012	4.875	4.524	4.458	3.806	2.992	3.568	2.360	2.123	2.022	1.682	1.575	1.603	1.483	1.475	1.174	0.972	0.929	0.885	0.832	0.835	0.822	0.894	0.784	0.727	0.741	0.645	0.619	0.596	0.578	0.517	0.482	0.510	0.745	1.082	0.983	0.595	0.425	0.495	2.339	9.175	12.94	7.853	2.912	0.562	0.379	0.324	0.357	0.362	0.363	0.399	0.362	0.318	0.318	0.344	0.304	0.316	0.338	0.321	0.321	0.331	0.307	0.301	0.316	0.309	0.339	0.339	0.337	0.328	0.314
235.0	206.5	571.6	2927	4349	541.7	43.03	8.339	5.952	5.510	4.701	4.382	3.952	3.218	3.796	2.569	1.978	2.233	1.651	1.554	1.822	1.555	1.424	1.598	1.034	0.819	1.026	0.836	0.944	0.724	0.864	0.802	0.711	0.652	0.690	0.624	0.633	0.547	0.529	0.539	0.424	0.500	0.617	0.873	1.175	0.853	0.724	0.853	2.499	5.190	8.220	11.63	10.16	4.301	0.899	0.375	0.352	0.415	0.387	0.367	0.337	0.334	0.393	0.332	0.335	0.354	0.351	0.353	0.344	0.316	0.384	0.331	0.318	0.309	0.336	0.334	0.317	0.330
240.0	314.9	247.9	910.8	4167	3849	396.8	20.11	7.485	6.252	5.039	5.319	4.379	3.370	4.138	2.681	2.003	2.289	1.750	1.604	1.790	1.485	1.555	1.340	0.951	0.969	1.023	0.823	0.841	0.828	0.963	0.737	0.735	0.638	0.691	0.591	0.648	0.616	0.546	0.493	0.476	0.436	0.491	0.524	0.920	1.204	1.180	0.735	0.947	1.430	2.665	6.801	13.82	15.20	9.293	3.813	0.803	0.430	0.410	0.343	0.349	0.315	0.397	0.297	0.289	0.308	0.379	0.367	0.347	0.383	0.396	0.361	0.296	0.306	0.302	0.366	0.321	0.297
245.0	222.3	328.5	295.5	1548	4988	3220	266.9	13.05	7.213	5.836	5.915	5.485	3.500	4.169	2.633	2.337	2.556	1.818	1.701	1.931	1.624	1.520	1.255	1.169	0.912	0.916	0.821	0.768	0.932	0.911	0.819	0.786	0.669	0.647	0.611	0.578	0.586	0.502	0.554	0.523	0.428	0.553	0.454	0.587	0.862	1.070	1.296	1.047	0.700	0.888	1.846	4.910	11.66	18.68	22.72	12.57	3.886	0.520	0.359	0.364	0.342	0.392	0.386	0.323	0.357	0.329	0.376	0.405	0.343	0.314	0.337	0.326	0.320	0.321	0.380	0.356	0.344
250.0	91.51	237.2	323.3	448.3	1765	4354	4035	1067	53.95	8.966	7.564	5.480	4.288	5.213	3.029	2.678	2.446	1.905	1.795	1.953	1.700	1.627	1.295	1.099	0.933	1.050	0.996	0.941	1.004	1.002	0.857	0.835	0.689	0.722	0.663	0.646	0.632	0.548	0.504	0.524	0.497	0.502	0.541	0.574	0.555	0.605	0.903	1.222	1.297	1.065	0.954	1.450	3.126	6.601	15.91	26.08	34.39	36.55	10.84	2.264	0.491	0.357	0.400	0.383	0.362	0.343	0.337	0.356	0.372	0.329	0.300	0.309	0.334	0.332	0.366	0.343	0.367
255.0	55.18	85.85	261.5	407.3	483.7	1198	4199	7061	1422	48.47	10.94	7.583	5.358	6.572	3.633	3.448	2.957	2.369	1.890	2.115	1.837	1.836	1.424	1.162	1.083	1.157	1.096	0.967	1.057	1.008	1.011	0.809	0.716	0.742	0.681	0.595	0.600	0.557	0.490	0.612	0.497	0.529	0.579	0.548	0.454	0.513	0.511	0.629	0.805	1.298	1.665	1.565	1.257	1.825	4.003	6.530	14.81	44.54	47.18	27.23	15.00	2.478	0.462	0.432	0.409	0.401	0.318	0.385	0.381	0.379	0.346	0.346	0.345	0.360	0.311	0.355	0.302
260.0	45.74	48.56	111.9	374.3	383.4	347.1	1441	7205	7293	242.0	26.87	9.601	7.249	7.741	4.158	3.901	2.975	2.264	2.267	2.228	1.836	1.689	1.720	1.167	1.180	1.188	1.073	1.085	0.979	1.055	0.951	0.872	0.755	0.704	0.696	0.623	0.648	0.535	0.458	0.597	0.582	0.561	0.612	0.561	0.505	0.582	0.448	0.470	0.464	0.709	1.223	2.312	2.135	1.413	1.460	1.921	3.913	12.60	23.52	35.40	50.74	25.97	11.88	1.658	0.536	0.401	0.387	0.357	0.351	0.380	0.350	0.365	0.335	0.348	0.360	0.398	0.392
265.0	41.46	42.12	52.51	206.4	478.4	295.9	404.4	2806	9643	7277	195.1	14.30	8.267	8.493	4.668	4.328	3.472	2.609	2.200	2.367	2.118	1.933	1.614	1.191	1.218	1.176	1.161	1.112	1.000	1.101	1.004	0.971	0.801	0.722	0.824	0.704	0.665	0.569	0.517	0.590	0.545	0.550	0.568	0.459	0.452	0.538	0.508	0.456	0.404	0.450	0.598	1.547	2.348	2.649	1.850	1.183	1.555	3.464	6.051	11.58	32.28	53.64	62.73	25.44	6.733	0.629	0.401	0.403	0.358	0.384	0.371	0.377	0.324	0.405	0.290	0.361	0.440
270.0	63.04	50.99	45.35	92.88	306.4	520.8	343.3	724.4	3361	9471	9999.9	755.8	39.96	14.92	6.730	5.516	4.531	3.379	2.666	2.799	2.585	2.290	1.546	1.510	1.377	1.332	1.215	1.283	1.124	1.227	1.055	1.051	0.986	0.939	0.803	0.798	0.768	0.697	0.653	0.639	0.653	0.571	0.655	0.525	0.534	0.515	0.558	0.534	0.415	0.416	0.446	0.787	1.276	1.907	2.669	2.805	2.572	1.920	2.088	3.198	8.057	16.58	34.63	64.52	46.72	46.04	14.72	5.683	0.677	0.468	0.426	0.421	0.385	0.395	0.419	0.391	0.426
275.0	104.5	74.60	53.54	68.10	156.0	367.1	666.5	410.6	811.2	2456	9669	9999.9	1016	58.34	10.48	8.087	5.972	3.881	3.357	3.553	2.799	2.667	1.754	1.555	1.393	1.401	1.377	1.352	1.196	1.433	1.039	1.249	1.123	1.212	0.969	0.952	0.939	0.710	0.742	0.687	0.697	0.672	0.696	0.553	0.643	0.578	0.603	0.572	0.442	0.433	0.478	0.557	0.855	1.162	1.434	2.007	3.630	4.470	2.827	1.594	2.387	4.313	8.227	15.35	16.40	39.10	64.77	76.12	23.30	6.831	0.688	0.460	0.574	0.451	0.441	0.431	0.451
280.0	127.8	103.7	65.43	64.22	118.5	226.0	527.6	643.2	308.1	603.7	2903	9999.9	9147	859.1	20.74	10.34	7.782	4.780	3.864	4.403	3.414	2.783	2.031	1.647	1.650	1.489	1.351	1.242	1.244	1.325	1.215	1.190	1.305	1.301	1.128	1.094	1.040	0.881	0.755	0.790	0.691	0.775	0.816	0.593	0.759	0.685	0.678	0.643	0.487	0.506	0.464	0.604	0.753	0.825	1.090	1.407	2.129	3.590	4.674	3.513	1.900	1.535	2.431	4.030	4.199	10.16	24.70	62.88	79.60	34.63	18.42	1.967	0.641	0.481	0.551	0.423	0.465
285.0	162.9	129.2	90.61	67.36	105.6	167.2	279.9	661.3	333.4	219.4	722.9	3644	9999.9	8678	112.7	15.27	9.654	5.795	4.459	4.739	3.285	3.098	2.013	1.868	1.653	1.391	1.342	1.268	1.330	1.547	1.287	1.334	1.262	1.279	1.352	1.251	1.099	0.911	0.820	0.824	0.839	0.822	0.881	0.785	0.830	0.751	0.664	0.678	0.544	0.481	0.527	0.595	0.713	0.827	0.904	1.144	1.284	1.822	2.913	4.165	4.315	2.285	1.316	1.525	1.459	2.915	6.201	16.93	36.72	81.44	95.68	28.89	11.86	1.055	0.566	0.508	0.453
290.0	225.5	184.0	120.2	78.89	90.09	130.0	160.3	305.4	574.3	466.8	292.0	930.8	3449	9999.9	9632	1893	31.28	8.276	6.141	6.433	4.511	3.612	2.555	2.049	1.664	1.808	1.589	1.554	1.410	1.656	1.459	1.456	1.318	1.470	1.405	1.271	1.229	1.066	0.962	0.968	0.951	0.836	0.916	0.866	0.934	0.896	0.843	0.879	0.726	0.600	0.546	0.607	0.604	0.752	0.831	0.870	1.009	1.166	1.408	1.958	2.814	3.834	3.824	2.778	1.536	1.384	2.146	4.641	9.171	21.65	40.04	45.60	66.83	57.01	19.71	9.406	1.466
295.0	275.4	230.7	153.8	93.23	84.32	104.0	115.8	150.0	266.8	694.6	586.5	364.9	887.3	2569	8120	9999.9	653.1	24.16	8.408	8.716	6.090	4.294	3.113	2.207	2.076	2.051	1.740	1.474	1.510	1.656	1.396	1.660	1.612	1.681	1.821	1.341	1.431	1.172	1.017	1.048	1.033	1.044	1.055	0.993	1.042	1.029	0.986	1.092	0.855	0.650	0.584	0.742	0.681	0.637	0.767	0.811	0.888	0.932	1.051	1.160	1.250	1.765	2.542	4.536	4.767	2.702	1.739	2.187	2.936	5.773	9.759	11.04	17.94	34.35	79.13	100.6	32.19
300.0	309.4	256.6	177.1	100.4	79.84	90.69	102.8	117.3	170.1	424.3	877.1	441.9	341.0	680.2	2297	9999.9	9999.9	459.9	14.39	11.85	7.393	5.503	3.829	2.939	2.306	2.385	1.798	1.540	1.746	1.847	1.653	1.560	1.566	1.674	1.814	1.452	1.660	1.274	1.077	1.075	1.093	1.057	1.138	0.995	1.132	1.107	1.044	1.057	0.869	0.755	0.697	0.684	0.601	0.644	0.698	0.861	0.844	0.894	0.963	1.029	1.044	1.259	1.501	2.571	4.249	5.213	3.914	2.352	1.739	2.473	3.220	3.427	4.736	8.724	24.93	60.64	104.6
305.0	349.2	286.0	204.1	111.9	85.42	89.27	105.0	129.2	161.8	271.1	673.6	808.1	305.8	273.9	583.6	3392	9999.9	4937	72.13	16.04	9.747	6.633	4.222	3.280	2.462	2.421	1.971	1.879	1.647	1.970	1.564	1.557	1.577	1.819	1.957	1.506	1.521	1.359	1.171	1.052	1.184	1.000	1.171	1.108	1.150	1.249	1.175	1.145	1.011	0.762	0.757	0.821	0.641	0.697	0.781	0.930	0.881	0.862	1.001	1.255	1.301	1.357	1.393	1.778	2.496	3.912	5.426	4.923	2.788	1.964	1.816	1.715	1.906	2.714	6.366	15.18	39.53
310.0	359.3	319.7	222.7	128.3	95.07	97.51	113.3	139.8	177.7	242.9	389.2	688.5	654.9	276.3	210.1	821.4	3769	8336	8420	1738	27.63	9.577	5.376	3.808	2.799	2.870	2.131	2.364	1.657	2.077	1.651	1.754	1.620	1.953	1.897	1.617	1.499	1.316	1.265	1.160	1.293	1.178	1.290	1.205	1.242	1.419	1.196	1.282	1.018	0.901	0.771	0.740	0.757	0.855	0.862	0.939	1.033	1.009	0.987	1.159	1.195	1.462	1.528	1.742	1.943	2.315	3.038	3.949	4.506	4.153	2.895	1.779	1.315	1.437	2.251	4.054	9.562
315.0	486.8	445.4	300.3	161.5	115.1	119.7	139.0	171.7	213.9	268.0	337.6	421.1	604.6	604.2	161.6	249.7	893.1	2022	7178	9999.9	512.1	24.78	7.660	5.224	3.703	3.429	2.685	2.394	1.823	2.211	1.809	1.776	1.606	1.954	1.889	1.592	1.730	1.459	1.259	1.278	1.252	1.379	1.365	1.407	1.506	1.730	1.807	1.637	1.290	1.136	0.814	0.860	0.838	0.878	0.999	0.948	1.114	1.152	1.231	1.367	1.427	1.543	1.538	1.858	1.857	2.104	2.269	2.563	2.657	3.533	4.506	4.191	2.286	1.588	1.383	1.732	2.897
320.0	1022	1063	648.5	251.4	157.1	156.5	188.8	243.7	292.7	355.1	415.5	441.4	476.7	694.5	415.7	151.2	263.8	496.9	1974	9999.9	9999.9	392.2	14.18	6.329	4.099	3.758	2.768	2.609	2.286	2.471	2.161	1.985	1.879	1.964	1.966	1.702	1.739	1.751	1.528	1.500	1.504	1.982	1.877	2.143	2.517	3.067	3.175	3.474	2.543	1.587	1.139	1.084	0.974	0.898	1.181	1.169	1.309	1.446	1.485	1.742	1.722	2.075	2.001	2.363	2.365	2.587	2.640	2.749	2.475	2.715	3.490	4.424	4.797	3.165	1.684	1.326	1.575
325.0	1622	1718	1142	458.1	239.2	215.6	250.6	315.0	391.9	479.7	534.8	544.5	501.1	567.5	637.9	269.4	145.5	170.8	488.5	3591	9999.9	4022	59.49	8.789	5.415	4.565	3.091	2.995	2.405	2.417	2.232	2.229	2.038	1.938	2.005	1.907	2.107	1.822	1.778	1.953	1.983	2.334	2.563	3.039	3.855	4.735	5.418	5.675	4.564	2.606	1.687	1.568	1.233	1.147	1.314	1.341	1.569	1.828	1.698	2.037	2.257	2.638	2.655	2.772	2.944	3.112	3.150	3.178	3.156	2.869	2.948	3.429	4.186	4.839	3.717	2.026	1.497
330.0	1999	2350	1762	862.4	480.1	351.2	346.4	397.8	475.6	560.0	625.6	650.2	586.6	530.7	541.8	515.1	268.2	139.2	182.4	868.9	3457	9626	7495	1193	18.61	6.521	4.186	3.673	2.677	2.888	2.606	2.350	2.135	2.170	2.011	2.047	2.149	1.979	1.970	2.127	2.333	2.623	3.206	3.781	4.764	6.024	6.474	7.060	5.994	3.963	3.105	2.717	2.317	2.138	1.908	1.896	1.974	2.116	2.105	2.341	2.631	2.850	3.231	3.392	3.660	3.717	3.779	3.621	3.514	3.426	3.362	3.234	3.287	3.609	3.897	3.978	3.258
335.0	2501	3036	2328	1303	801.6	530.5	461.2	487.0	573.2	653.1	738.7	757.9	699.6	608.8	506.5	479.5	509.5	253.7	151.6	279.2	840.0	2322	6209	8599	415.9	20.17	5.941	4.740	3.138	3.416	2.653	2.782	2.215	2.196	2.304	2.119	2.298	2.342	2.275	2.638	2.573	3.289	3.838	4.287	5.643	6.950	7.748	8.895	7.583	5.559	4.351	4.348	3.818	3.258	2.634	2.451	2.421	2.715	2.648	2.634	3.162	3.487	3.584	3.709	4.032	4.121	4.323	4.143	4.215	3.914	3.856	3.630	3.771	3.649	3.225	3.261	3.928
340.0	2637	3187	2563	1476	931.0	608.5	489.3	516.8	596.6	685.5	766.9	785.3	733.1	642.9	513.9	414.0	475.1	416.7	179.1	152.7	261.9	573.6	1675	6905	6928	356.8	11.60	6.160	4.356	4.047	3.167	3.012	2.433	2.479	2.313	2.271	2.384	2.597	2.284	2.691	2.993	3.239	3.768	4.622	5.946	7.455	8.416	9.571	8.210	6.052	4.924	4.757	4.228	3.666	3.104	2.654	2.669	2.574	2.878	2.910	3.187	3.663	3.671	3.896	4.160	4.376	4.709	4.283	4.341	4.292	4.145	3.992	3.704	3.599	3.242	3.060	3.286
345.0	2449	2965	2487	1515	972.0	649.1	498.6	503.7	568.0	653.6	729.3	751.5	715.1	625.9	500.6	389.7	354.2	443.9	278.6	132.0	131.5	185.4	415.5	2060	7266	3390	52.34	8.559	5.200	5.090	3.685	2.989	2.567	2.402	2.359	2.252	2.887	2.528	2.378	2.800	2.762	3.180	3.617	4.368	5.578	7.048	7.674	8.667	7.961	5.900	5.112	5.170	4.345	3.726	3.157	2.771	2.702	2.752	2.752	2.911	3.151	3.379	3.631	3.549	3.880	3.972	4.346	4.165	4.163	4.308	4.222	3.834	3.526	3.546	3.326	2.941	2.708
350.0	2160	2607	2235	1480	980.1	648.9	483.7	467.8	523.8	596.5	655.0	683.6	664.6	590.5	481.2	376.6	304.9	308.9	337.7	223.4	115.6	104.0	138.7	488.4	2090	5616	5092	1269	18.63	7.090	4.436	3.522	2.698	2.634	2.458	2.261	2.693	2.414	2.422	2.767	2.752	3.107	3.382	3.992	5.029	6.269	6.809	7.922	7.093	5.430	4.848	5.210	4.497	3.875	3.086	2.834	2.664	2.613	2.619	2.553	2.823	3.195	3.438	3.362	3.463	3.809	3.877	3.851	3.936	3.841	3.796	3.696	3.601	3.219	3.032	2.795	2.686
355.0	1833	2194	1956	1360	936.5	614.3	454.6	421.1	459.5	521.2	576.7	607.8	582.0	533.5	445.2	351.3	280.0	232.6	228.6	290.6	184.9	91.00	80.07	140.5	488.4	1323	3617	8216	402.7	25.89	6.201	4.502	3.009	3.100	2.482	2.282	2.625	2.523	2.329	2.671	2.631	2.825	3.270	3.390	4.625	5.128	6.051	6.691	5.979	5.121	4.518	4.925	4.013	3.687	3.095	2.638	2.237	2.511	2.375	2.273	2.592	2.864	2.933	3.039	3.128	3.241	3.404	3.357	3.587	3.200	3.222	3.342	3.371	2.786	2.591	2.786	2.778
360.0	1629	1890	1704	1196	842.0	560.3	406.3	373.2	410.9	454.7	516.1	531.9	515.9	476.0	410.3	325.6	256.0	205.7	178.2	221.3	258.5	125.7	68.44	65.81	133.7	317.3	931.3	5689	6553	376.5	16.07	5.390	3.731	3.359	2.755	2.452	2.769	2.324	2.482	2.577	2.550	2.746	2.865	3.119	3.799	4.623	5.122	5.449	5.260	4.675	4.125	4.329	3.898	3.267	2.923	2.651	2.423	2.177	2.280	2.182	2.382	2.659	2.694	2.701	3.034	2.990	2.871	3.314	3.124	3.095	3.144	2.974	3.147	2.709	2.621	2.556	2.550
365.0	1329	1578	1424	1095	775.9	525.6	382.6	339.2	365.7	400.8	453.1	465.2	463.7	428.4	369.0	302.6	241.5	192.0	159.5	156.7	232.9	199.4	73.02	51.33	57.34	94.31	226.7	1568	6024	7674	305.1	8.580	4.391	4.077	2.835	2.450	2.742	2.449	2.448	2.342	2.520	2.528	2.533	3.046	3.468	3.945	4.391	4.855	4.476	4.063	3.530	3.935	3.653	2.970	2.670	2.248	2.258	2.122	2.042	1.921	2.244	2.157	2.312	2.450	2.630	2.718	2.702	3.080	2.802	2.765	2.853	2.687	2.736	2.647	2.384	2.359	2.264
370.0	1149	1310	1186	921.7	683.3	474.3	345.6	305.4	317.1	345.4	379.4	398.6	392.3	371.4	324.3	272.4	227.0	184.4	152.5	134.4	150.3	202.9	162.0	61.11	44.73	47.62	70.21	365.4	1663	6238	5599	1246	18.64	5.434	3.804	3.097	2.863	2.642	2.285	2.362	2.243	2.260	2.469	2.743	2.943	3.249	3.706	4.054	3.850	3.357	3.061	3.505	3.278	2.802	2.497	2.039	2.084	1.923	1.833	1.803	1.952	1.942	2.197	2.167	2.227	2.193	2.438	2.530	2.429	2.601	2.389	2.375	2.426	2.200	2.370	2.212	2.143
375.0	941.0	1069	979.7	763.3	598.3	415.1	314.7	265.2	268.7	291.2	320.7	330.1	334.0	321.3	285.6	246.8	207.8	179.7	150.9	131.3	119.5	133.7	186.7	142.8	56.18	41.70	38.86	98.05	382.4	1436	3698	7413	1815	23.24	5.466	3.681	3.676	2.630	2.347	2.206	2.297	2.213	2.203	2.370	2.538	2.691	3.171	3.253	3.175	2.652	2.680	3.083	2.798	2.379	2.215	1.828	1.886	1.750	1.898	1.709	1.645	1.718	1.875	1.818	1.860	1.841	2.078	2.022	2.098	2.179	2.064	1.977	2.072	1.984	2.117	1.904	2.011
380.0	839.9	888.1	819.1	676.7	544.4	395.7	294.2	250.1	242.8	258.0	284.4	301.8	301.8	292.4	262.5	230.9	198.8	178.3	155.5	136.3	119.5	113.2	138.5	183.1	97.87	46.28	35.05	42.40	100.7	334.8	938.4	4859	6654	318.8	14.40	5.106	4.093	3.216	2.412	2.394	2.234	2.358	2.311	2.224	2.322	2.522	2.710	2.938	2.742	2.384	2.328	2.687	2.535	2.434	2.154	1.862	1.684	1.707	1.571	1.463	1.579	1.705	1.754	1.687	1.719	1.872	1.820	1.817	1.909	1.984	1.893	1.937	1.826	1.727	1.993	1.902	1.967
385.0	721.4	757.6	715.0	612.2	495.9	383.4	290.0	249.9	230.4	242.1	274.2	281.6	288.4	276.9	254.2	224.6	199.2	176.6	159.2	142.6	124.2	116.1	112.3	157.0	162.3	61.96	42.59	36.46	44.56	95.38	228.1	1321	5449	6020	257.4	9.288	5.624	3.754	2.796	2.596	2.289	1.933	2.072	2.200	2.248	2.399	2.375	2.675	2.526	2.445	2.187	2.578	2.406	2.361	1.937	1.789	1.757	1.692	1.511	1.398	1.551	1.524	1.505	1.594	1.630	1.707	1.774	1.677	1.926	1.724	1.792	1.795	1.875	1.926	1.862	1.777	1.831
390.0	651.5	668.1	640.1	557.8	484.3	390.0	317.9	278.2	273.5	291.2	323.1	336.6	332.9	319.5	284.5	249.5	218.2	197.8	182.5	168.2	153.9	145.8	136.6	142.2	179.8	165.4	95.08	70.86	67.48	74.30	90.39	330.7	1480	4695	4089	1017	20.53	7.420	4.041	2.947	2.618	2.163	2.094	2.078	2.168	2.264	2.085	2.376	2.286	2.128	2.000	2.299	2.194	2.342	1.947	1.743	1.882	1.695	1.692	1.578	1.541	1.556	1.589	1.697	1.719	1.742	1.718	1.816	1.805	1.939	1.887	1.901	1.959	2.063	1.938	1.896	1.740
395.0	610.9	604.6	618.5	552.8	508.1	456.4	414.2	367.3	413.5	463.6	522.8	546.0	510.4	474.8	408.1	337.4	284.1	250.7	236.9	230.7	227.2	225.5	220.9	218.6	230.4	262.7	253.3	187.3	165.2	157.1	150.8	187.3	421.4	1148	2633	5686	1691	26.39	7.807	4.066	3.055	2.553	2.351	2.231	2.327	2.127	2.046	2.383	2.221	2.108	1.984	2.344	2.305	2.314	2.255	2.052	2.121	2.236	2.152	1.925	1.867	1.785	2.144	2.222	2.322	2.271	2.329	2.436	2.350	2.389	2.342	2.255	2.204	2.182	2.268	2.192	2.119
400.0	642.7	614.0	633.5	614.8	576.2	547.2	546.0	548.0	615.0	710.7	804.8	826.9	772.3	689.9	583.0	464.5	376.7	329.7	311.2	309.5	315.0	325.5	337.3	339.0	347.5	363.4	411.3	363.1	307.2	293.8	270.7	251.1	263.4	394.8	763.6	3697	6285	278.8	18.75	5.859	3.642	2.860	2.662	2.348	2.565	2.378	2.251	2.194	2.276	2.123	2.055	2.681	2.468	2.592	2.661	2.393	2.669	2.650	2.567	2.477	2.484	2.508	2.886	2.782	2.813	3.171	3.145	3.096	3.087	2.956	3.064	2.744	2.964	2.898	2.699	2.530	2.738
405.0	664.1	653.3	675.5	675.2	672.4	679.8	692.7	730.9	841.0	998.9	1127	1148	1078	949.7	783.2	608.3	485.7	418.3	396.1	399.5	418.3	439.6	469.2	484.4	491.7	486.6	546.5	562.1	457.4	439.6	417.2	377.8	324.0	301.5	349.3	1118	5047	4256	220.6	10.41	4.561	3.475	3.035	2.642	2.565	2.663	2.390	2.378	2.399	2.320	2.353	2.750	2.705	2.868	2.887	2.859	3.274	3.188	3.051	3.027	3.014	3.386	3.604	3.544	3.837	3.930	3.667	3.877	4.012	3.576	3.699	3.537	3.660	3.727	3.081	2.977	2.992
410.0	671.5	688.1	714.0	733.0	763.5	795.9	835.2	917.5	1065	1268	1436	1463	1365	1192	975.2	753.4	585.3	496.4	472.5	487.0	512.8	547.3	588.4	617.5	636.0	647.0	664.7	692.1	676.1	617.5	568.0	503.2	415.1	345.1	308.8	434.8	1455	3230	2848	885.9	15.85	4.405	3.523	3.042	2.913	2.968	2.690	2.695	2.591	2.500	2.442	3.109	3.060	3.139	3.200	3.255	3.445	3.498	3.498	3.661	3.718	3.855	4.250	4.416	4.545	4.833	4.633	4.852	4.711	4.693	4.555	4.396	4.386	4.072	3.889	3.545	3.492
