Sample:	'1
File name:	J2025051406二环西高架路下.FD3
Run date:	'16:22:53, 05/15/2025
Operator:	Administrator
Comment:	'

Instrument
Model:	F-2700 FL Spectrophotometer
Serial number:	23B8-004
ROM Version:	4J14000 07

Instrument parameters
Measurement type:	3-D scan
Data mode:	Fluorescence
EX  Start WL:	220.0 nm
EX  End WL:	600.0 nm
EX Sampling interval:	5.0 nm
EM  Start WL:	230.0 nm
EM  End WL:	650.0 nm
EM Sampling interval:	5.0 nm
Scan speed:	12000 nm/min
EX Slit:	5.0 nm
EM Slit:	5.0 nm
PMT Voltage:	700 V
Response:	Auto 
Corrected spectra:	Off
Contour interval:	50.000

Peak integration
Integration method:	Rectangular
Sensitivity:	1
Threshold:	1.000

Peaks
No.	ApexEX/EM(nm)	Height(Data)
1	225.0/305.0	369.5
2	225.0/565.0	52.51
3	225.0/600.0	43.57
4	225.0/620.0	35.92
5	230.0/345.0	898.7
6	230.0/500.0	276.3
7	230.0/560.0	52.69
8	230.0/580.0	48.20
9	235.0/515.0	242.4
10	240.0/265.0	385.9
11	240.0/525.0	218.6
12	245.0/270.0	385.6
13	245.0/540.0	179.1
14	250.0/275.0	508.0
15	250.0/550.0	150.6
16	255.0/280.0	566.5
17	255.0/565.0	129.3
18	260.0/290.0	546.7
19	260.0/575.0	107.5
20	265.0/295.0	680.6
21	265.0/585.0	95.80
22	270.0/300.0	932.7
23	270.0/600.0	84.64
24	275.0/305.0	927.2
25	275.0/610.0	71.69
26	280.0/340.0	692.3
27	280.0/625.0	59.88
28	285.0/320.0	832.9
29	285.0/635.0	46.47
30	290.0/325.0	740.7
31	300.0/340.0	568.0
32	305.0/345.0	529.4
33	310.0/350.0	434.3
34	315.0/355.0	412.9
35	320.0/365.0	389.8
36	325.0/370.0	358.2
37	330.0/375.0	353.8
38	335.0/380.0	344.4
39	340.0/390.0	319.6
40	350.0/400.0	294.6
41	365.0/420.0	242.2
42	410.0/480.0	56.27
43	425.0/500.0	33.77
44	440.0/520.0	19.47
45	455.0/540.0	10.74
46	485.0/265.0	2.132
47	495.0/270.0	2.048
48	505.0/275.0	3.185
49	510.0/280.0	3.396
50	520.0/285.0	3.545
51	530.0/290.0	3.242
52	540.0/295.0	4.478
53	545.0/300.0	5.117
54	550.0/305.0	5.081
55	560.0/310.0	4.513
56	570.0/315.0	4.531
57	580.0/320.0	4.860
58	585.0/325.0	4.455

Data points
	220.0	225.0	230.0	235.0	240.0	245.0	250.0	255.0	260.0	265.0	270.0	275.0	280.0	285.0	290.0	295.0	300.0	305.0	310.0	315.0	320.0	325.0	330.0	335.0	340.0	345.0	350.0	355.0	360.0	365.0	370.0	375.0	380.0	385.0	390.0	395.0	400.0	405.0	410.0	415.0	420.0	425.0	430.0	435.0	440.0	445.0	450.0	455.0	460.0	465.0	470.0	475.0	480.0	485.0	490.0	495.0	500.0	505.0	510.0	515.0	520.0	525.0	530.0	535.0	540.0	545.0	550.0	555.0	560.0	565.0	570.0	575.0	580.0	585.0	590.0	595.0	600.0
230.0	36.93	551.8	1778	640.0	33.92	5.790	4.648	3.853	3.593	2.991	2.905	2.571	2.198	1.732	1.676	1.279	1.145	1.006	0.869	0.890	0.817	0.767	0.655	0.614	0.581	0.532	0.498	0.512	0.525	0.447	0.422	0.431	0.365	0.316	0.333	0.338	0.358	0.390	0.318	0.350	0.321	0.349	0.392	0.330	0.303	0.257	0.591	2.739	5.554	4.473	1.884	0.519	0.213	0.217	0.211	0.207	0.234	0.208	0.210	0.219	0.202	0.211	0.205	0.224	0.233	0.204	0.223	0.197	0.238	0.228	0.208	0.207	0.212	0.222	0.207	0.233	0.226
235.0	73.84	161.5	1085	2180	567.1	51.10	5.837	5.084	3.740	2.938	3.523	2.603	2.281	1.821	1.690	1.389	1.204	1.059	0.913	0.908	0.735	0.728	0.643	0.625	0.583	0.609	0.501	0.613	0.527	0.533	0.483	0.452	0.384	0.321	0.326	0.343	0.418	0.385	0.355	0.307	0.328	0.335	0.413	0.433	0.405	0.333	0.318	0.835	2.112	3.830	6.243	7.005	3.540	0.970	0.261	0.233	0.255	0.182	0.215	0.220	0.186	0.219	0.196	0.214	0.216	0.264	0.206	0.206	0.213	0.203	0.250	0.199	0.224	0.212	0.220	0.252	0.229
240.0	140.7	119.2	321.1	1740	2448	447.4	24.96	5.805	4.674	4.237	3.765	2.998	2.466	2.058	2.201	1.593	1.349	1.167	0.971	0.970	0.733	0.753	0.642	0.601	0.696	0.685	0.514	0.488	0.567	0.473	0.458	0.421	0.402	0.312	0.364	0.291	0.332	0.375	0.353	0.309	0.301	0.307	0.352	0.401	0.532	0.547	0.500	0.437	0.713	1.182	3.329	8.834	11.67	7.916	3.141	0.624	0.237	0.211	0.214	0.242	0.201	0.211	0.212	0.229	0.233	0.206	0.224	0.224	0.265	0.211	0.204	0.199	0.210	0.210	0.236	0.252	0.244
245.0	108.6	183.2	139.7	566.8	2522	2525	318.5	11.06	5.455	4.446	3.695	3.051	2.586	2.417	1.823	1.735	1.350	1.181	0.923	0.823	0.749	0.929	0.697	0.731	0.612	0.703	0.601	0.496	0.570	0.493	0.468	0.416	0.378	0.347	0.383	0.269	0.324	0.420	0.386	0.313	0.360	0.302	0.301	0.314	0.375	0.488	0.744	0.646	0.463	0.419	0.950	2.950	7.745	13.70	14.07	7.338	1.949	0.366	0.231	0.231	0.222	0.268	0.258	0.227	0.268	0.210	0.245	0.245	0.262	0.211	0.211	0.209	0.197	0.202	0.216	0.244	0.230
250.0	47.18	137.7	235.8	230.4	783.8	2381	3114	1075	59.92	6.130	4.791	3.773	2.972	2.436	1.847	1.992	1.433	1.238	1.085	0.846	0.788	0.761	0.785	0.730	0.635	0.605	0.554	0.599	0.584	0.500	0.470	0.422	0.418	0.374	0.413	0.336	0.344	0.395	0.341	0.367	0.327	0.311	0.284	0.307	0.327	0.391	0.481	0.635	0.835	0.740	0.642	0.906	2.040	4.337	8.001	12.65	16.00	14.15	7.574	2.212	0.398	0.235	0.240	0.237	0.261	0.215	0.236	0.242	0.263	0.224	0.242	0.214	0.224	0.217	0.206	0.232	0.250
255.0	29.49	51.08	163.8	333.7	277.4	602.9	2365	4731	1439	51.41	6.820	4.926	3.754	2.858	2.008	1.899	1.438	1.619	1.100	0.980	0.933	0.798	0.861	0.775	0.609	0.670	0.553	0.579	0.521	0.548	0.548	0.442	0.368	0.489	0.389	0.396	0.396	0.409	0.331	0.335	0.332	0.396	0.356	0.330	0.312	0.309	0.316	0.342	0.484	0.836	1.254	1.350	0.971	1.229	2.032	3.197	5.881	13.77	24.31	24.13	11.98	2.370	0.366	0.258	0.303	0.225	0.260	0.367	0.241	0.227	0.219	0.215	0.205	0.228	0.233	0.223	0.216
260.0	25.91	27.19	64.54	286.7	327.3	192.0	727.3	3919	5159	266.6	22.68	7.047	4.305	3.467	2.649	2.025	1.960	1.504	1.123	0.945	1.062	0.967	0.788	0.872	0.707	0.700	0.673	0.536	0.600	0.571	0.510	0.464	0.379	0.417	0.426	0.342	0.383	0.366	0.344	0.346	0.330	0.352	0.364	0.351	0.291	0.318	0.265	0.307	0.294	0.399	0.862	1.495	1.519	1.062	0.776	0.963	1.617	3.827	10.78	23.68	31.40	23.02	8.828	1.212	0.274	0.244	0.253	0.279	0.253	0.232	0.241	0.252	0.273	0.210	0.223	0.214	0.256
265.0	29.85	21.74	32.10	133.4	385.9	246.6	198.2	1329	5545	4840	204.1	10.76	5.879	3.844	2.997	2.221	1.900	1.592	1.161	1.270	1.029	1.132	0.920	0.715	0.670	0.681	0.725	0.628	0.634	0.678	0.554	0.461	0.409	0.436	0.392	0.376	0.377	0.331	0.330	0.418	0.285	0.412	0.372	0.301	0.336	0.353	0.290	0.288	0.289	0.310	0.358	0.762	1.680	2.132	1.379	0.666	0.613	1.161	2.796	7.017	17.10	33.03	32.23	19.72	5.157	0.499	0.327	0.270	0.246	0.271	0.256	0.237	0.251	0.237	0.254	0.279	0.241
270.0	40.88	36.92	34.98	51.19	191.2	385.6	276.5	348.1	1802	5187	4827	783.6	38.55	6.193	4.111	3.059	2.293	1.915	1.417	1.257	1.303	1.104	0.927	0.851	0.790	0.749	0.666	0.611	0.652	0.664	0.526	0.474	0.471	0.488	0.440	0.401	0.373	0.388	0.357	0.385	0.321	0.352	0.327	0.371	0.314	0.368	0.328	0.321	0.298	0.292	0.311	0.413	0.677	1.226	1.765	2.048	1.682	1.033	1.011	1.883	4.259	9.810	17.48	28.41	30.52	29.94	14.07	4.528	0.540	0.313	0.265	0.261	0.288	0.274	0.264	0.290	0.253
275.0	75.20	85.87	75.01	54.87	70.36	192.5	508.0	309.0	450.7	1331	4564	8456	1006	24.67	6.573	3.958	3.041	2.451	1.806	1.428	1.459	1.120	1.029	1.013	0.822	0.862	0.747	0.783	0.677	0.691	0.562	0.533	0.541	0.562	0.543	0.441	0.472	0.415	0.404	0.450	0.345	0.432	0.407	0.391	0.400	0.441	0.413	0.418	0.431	0.353	0.335	0.402	0.404	0.495	0.731	1.127	2.276	3.185	1.987	1.016	1.304	2.528	4.304	6.914	9.657	23.44	43.51	32.78	21.31	4.506	0.456	0.345	0.313	0.316	0.332	0.267	0.357
280.0	122.6	147.5	141.0	73.27	53.37	82.97	336.8	566.5	240.9	361.2	1411	7359	7418	142.3	12.60	5.930	3.882	2.746	1.951	1.936	1.676	1.125	1.169	1.017	0.935	0.945	0.786	0.809	0.747	0.671	0.600	0.673	0.594	0.651	0.617	0.525	0.559	0.490	0.443	0.488	0.414	0.420	0.431	0.420	0.537	0.592	0.576	0.539	0.552	0.514	0.400	0.403	0.379	0.347	0.462	0.609	1.039	2.342	3.396	2.767	1.417	0.988	1.391	2.037	2.716	6.202	16.11	33.05	51.87	31.32	15.18	1.925	0.333	0.350	0.320	0.263	0.296
285.0	168.0	201.6	189.3	106.5	59.24	58.04	145.8	519.1	352.5	186.3	410.3	2420	8690	5493	100.5	8.022	4.889	3.310	2.579	2.125	1.659	1.246	1.266	1.146	1.146	0.881	0.807	0.817	0.701	0.709	0.617	0.623	0.635	0.745	0.601	0.588	0.596	0.538	0.491	0.479	0.425	0.453	0.469	0.516	0.540	0.634	0.597	0.733	0.775	0.589	0.520	0.515	0.474	0.363	0.423	0.428	0.617	1.015	1.955	3.489	3.545	2.016	1.021	1.002	1.299	2.052	4.185	9.013	22.42	42.22	54.52	26.74	9.160	0.864	0.371	0.299	0.299
290.0	222.7	274.9	250.2	153.8	80.98	69.81	92.79	238.0	546.7	481.4	256.1	681.0	2727	6322	5484	411.7	18.93	4.636	3.637	2.460	1.992	1.633	1.361	1.356	1.090	0.853	0.861	0.809	0.764	0.732	0.681	0.648	0.696	0.751	0.677	0.736	0.641	0.577	0.561	0.507	0.456	0.478	0.528	0.552	0.599	0.782	0.794	0.971	0.932	0.729	0.635	0.613	0.517	0.447	0.464	0.485	0.523	0.680	0.964	1.499	2.425	3.138	3.242	2.375	1.512	1.292	1.764	2.836	5.797	11.42	21.84	31.05	31.69	35.43	17.70	7.477	0.943
295.0	264.8	334.3	318.0	207.0	108.5	94.99	104.6	155.9	287.8	680.6	625.5	345.5	762.3	1624	4624	6314	548.8	13.34	5.005	3.285	2.476	1.969	1.723	1.647	1.222	0.989	1.088	0.845	0.929	0.785	0.838	0.702	0.691	0.748	0.743	0.809	0.757	0.629	0.620	0.592	0.508	0.597	0.505	0.739	0.719	0.796	0.860	1.086	1.008	0.901	0.704	0.725	0.688	0.522	0.564	0.580	0.602	0.702	0.784	0.917	1.214	1.589	2.316	3.834	4.478	2.785	1.651	1.728	2.295	3.466	5.751	7.693	8.808	18.69	38.66	50.99	27.33
300.0	283.0	351.0	350.0	231.9	138.9	117.2	133.9	169.2	235.5	473.5	932.7	520.5	384.8	500.8	1361	5956	5123	81.33	7.595	4.486	3.111	2.384	1.935	1.689	1.431	1.105	1.288	1.007	0.917	0.858	0.782	0.758	0.816	0.863	0.842	0.772	0.746	0.575	0.589	0.543	0.523	0.605	0.604	0.675	0.715	0.801	1.091	1.164	1.028	0.948	0.816	0.818	0.735	0.728	0.722	0.653	0.805	0.791	0.980	0.949	1.144	1.319	1.591	2.429	4.342	5.117	3.633	2.264	1.814	1.903	2.292	2.699	2.779	4.918	11.98	29.20	48.21
305.0	282.4	369.5	367.2	253.7	158.9	143.9	165.6	211.2	266.2	382.8	775.9	927.2	419.5	306.0	428.5	1939	6633	3771	59.44	5.834	3.857	3.063	2.054	1.929	1.555	1.274	1.031	1.068	0.852	0.958	0.845	0.750	0.788	0.804	0.744	0.826	0.724	0.715	0.576	0.535	0.568	0.557	0.616	0.668	0.713	0.851	1.101	1.171	1.083	0.967	0.871	0.909	0.823	0.757	0.821	0.776	0.965	1.011	1.102	1.104	1.322	1.378	1.400	1.943	2.761	4.201	5.081	4.704	3.059	1.857	1.950	1.784	1.726	1.948	3.422	7.488	17.16
310.0	283.8	361.2	378.7	270.8	186.0	171.1	200.9	250.9	308.1	385.9	551.4	846.5	808.6	386.5	256.5	532.9	2074	4614	4042	278.6	12.75	4.131	2.883	2.060	1.720	1.539	1.270	1.099	0.912	0.956	0.836	0.840	0.807	0.886	0.827	0.858	0.757	0.652	0.654	0.572	0.556	0.552	0.635	0.639	0.794	0.845	1.050	1.202	1.218	1.031	0.878	1.020	0.903	0.939	0.898	0.920	1.051	1.153	1.275	1.298	1.567	1.643	1.711	1.979	2.225	2.618	3.257	4.140	4.513	4.188	3.094	2.094	1.677	1.527	1.679	2.404	4.529
315.0	286.0	369.3	381.0	289.0	216.8	206.7	236.9	287.3	341.4	410.3	506.1	605.3	792.8	739.5	304.7	246.5	547.2	1154	3422	4367	395.4	9.411	3.570	2.552	2.263	1.872	1.511	1.076	1.087	1.059	0.942	0.908	0.759	0.902	0.914	0.820	0.718	0.689	0.674	0.553	0.562	0.585	0.651	0.690	0.770	0.874	1.047	1.185	1.250	1.116	0.954	0.971	0.974	1.016	0.996	1.018	1.203	1.327	1.446	1.423	1.612	1.733	1.876	2.187	2.246	2.454	2.783	2.894	3.150	3.489	4.531	4.285	2.971	1.834	1.569	1.330	1.897
320.0	280.7	396.3	434.6	326.6	246.7	233.3	264.6	315.1	371.0	441.6	524.8	572.5	635.0	832.9	529.1	237.6	249.6	337.6	996.4	4239	3691	60.95	6.030	3.493	2.548	1.893	1.829	1.263	1.263	1.133	0.931	0.768	0.933	0.848	0.883	0.792	0.673	0.791	0.606	0.601	0.657	0.686	0.609	0.693	0.755	0.955	1.114	1.255	1.281	1.183	1.085	1.053	1.126	1.070	1.100	1.129	1.339	1.585	1.601	1.744	1.651	1.759	2.069	2.212	2.488	2.463	2.712	2.793	2.971	2.698	3.683	4.465	4.860	3.104	2.103	1.506	1.520
325.0	315.2	476.4	524.7	406.7	292.7	267.6	294.4	340.2	389.6	465.6	551.7	600.6	596.4	683.1	740.7	360.2	216.1	187.5	295.9	1398	4684	2839	46.15	4.724	3.049	2.109	2.112	1.423	1.523	1.070	0.937	0.813	0.924	0.875	1.002	0.695	0.691	0.797	0.685	0.624	0.653	0.637	0.660	0.733	0.820	1.131	1.303	1.552	1.622	1.442	1.260	1.408	1.243	1.193	1.219	1.345	1.336	1.529	1.607	1.687	1.706	1.880	2.166	2.345	2.457	2.551	2.566	2.840	2.883	2.676	2.838	3.345	4.395	4.455	4.085	2.337	1.856
330.0	360.7	587.0	680.1	562.1	379.0	326.0	325.8	369.1	426.6	501.7	578.9	630.5	619.3	601.0	632.0	595.1	333.7	188.2	165.5	385.0	1484	3432	3020	228.6	11.17	2.985	2.451	1.764	1.522	1.190	1.055	0.947	0.885	0.826	0.860	0.707	0.720	0.730	0.764	0.637	0.699	0.641	0.699	0.751	0.925	1.232	1.503	1.762	1.935	1.868	1.679	1.905	1.509	1.431	1.367	1.451	1.570	1.568	1.724	1.739	1.829	2.092	2.243	2.581	2.695	2.599	2.876	2.941	2.984	3.115	2.846	3.185	3.294	3.544	3.899	3.830	3.508
335.0	401.2	665.1	785.3	685.3	499.6	398.8	376.2	403.9	453.6	530.3	606.2	670.4	662.3	614.0	561.0	548.7	566.9	291.2	174.4	185.2	389.8	859.6	2621	3492	338.3	8.112	3.135	2.419	1.673	1.377	1.207	1.019	1.031	0.987	0.836	0.834	0.800	0.697	0.732	0.716	0.713	0.755	0.659	0.741	0.974	1.319	1.634	1.822	2.300	2.138	1.995	2.204	1.855	1.708	1.476	1.748	1.914	1.831	1.898	1.844	1.991	2.293	2.265	2.729	2.868	2.881	3.032	3.088	3.236	3.062	3.284	3.118	3.105	3.282	3.098	2.964	3.771
340.0	438.5	682.5	837.4	768.2	561.9	438.1	423.2	425.5	477.7	550.2	622.6	681.5	692.3	639.3	561.1	490.2	568.0	459.1	216.1	159.8	163.2	239.5	763.5	3339	3031	52.33	4.669	2.957	2.206	1.846	1.372	1.087	1.034	1.029	0.881	0.815	0.769	0.730	0.688	0.745	0.612	0.685	0.615	0.761	1.031	1.293	1.626	1.891	2.391	2.339	2.224	2.433	2.083	2.074	1.751	1.810	1.868	1.848	1.807	2.047	2.213	2.288	2.382	2.902	2.793	2.854	3.109	3.274	3.096	3.201	3.363	3.019	3.307	3.377	2.826	2.808	3.259
345.0	431.8	707.0	898.7	815.1	603.7	497.9	459.3	448.1	498.7	550.7	622.9	680.1	692.1	644.9	575.3	476.8	462.9	529.4	328.0	176.7	130.1	113.6	215.1	1093	3690	2348	41.92	4.274	2.710	1.971	1.367	1.138	1.189	1.013	0.957	0.700	0.650	0.708	0.713	0.662	0.628	0.781	0.734	0.834	1.023	1.294	1.596	2.056	2.406	2.490	2.253	2.671	2.271	2.188	1.860	1.922	1.948	1.968	1.969	2.033	2.200	2.437	2.561	2.964	2.704	2.948	3.114	3.079	3.201	3.409	3.246	3.525	3.352	3.310	3.043	2.948	2.862
350.0	416.5	674.5	884.4	840.3	652.7	551.2	490.3	478.3	510.1	554.9	615.8	665.3	681.5	644.3	578.0	487.2	433.5	429.6	434.3	287.2	156.7	112.9	111.3	292.3	1161	2587	2394	207.4	10.87	2.540	1.798	1.383	1.197	1.104	1.005	0.763	0.795	0.792	0.674	0.680	0.642	0.726	0.717	0.847	1.086	1.189	1.460	2.051	2.492	2.369	2.346	2.652	2.475	2.287	2.238	2.163	2.157	2.064	2.058	2.160	2.179	2.405	2.559	2.775	2.837	2.879	2.811	3.080	3.221	3.335	3.325	3.455	3.242	3.298	3.034	2.858	2.834
355.0	397.9	656.1	845.4	845.3	702.5	606.4	536.7	517.9	529.4	569.2	617.2	655.6	659.2	636.7	585.4	499.7	440.6	392.7	374.4	412.9	255.0	145.3	114.9	132.8	305.1	644.3	1907	2960	323.4	8.799	2.324	1.858	1.317	1.028	0.998	0.852	0.836	0.754	0.695	0.665	0.621	0.670	0.753	0.906	1.103	1.198	1.426	1.952	2.240	2.278	2.263	2.557	2.471	2.570	2.350	2.370	2.350	2.167	2.168	2.121	2.363	2.699	2.547	2.873	2.743	2.730	3.030	2.958	3.143	3.243	3.244	3.559	3.293	3.295	3.060	2.864	2.778
360.0	406.0	613.0	828.1	828.6	733.8	631.1	575.6	547.2	552.6	589.2	620.8	641.0	657.7	630.9	586.8	519.0	457.8	400.1	353.3	383.8	367.4	200.5	137.3	115.1	129.1	182.0	537.7	2453	2666	51.24	4.818	2.286	1.643	1.367	1.051	0.856	0.871	0.732	0.673	0.643	0.577	0.737	0.783	0.762	1.035	1.217	1.481	1.797	2.156	2.292	2.278	2.766	2.541	2.452	2.332	2.363	2.431	2.379	2.246	2.426	2.476	2.418	2.773	2.903	2.710	2.849	3.012	2.893	3.105	3.197	3.189	3.169	3.334	3.369	3.220	3.128	3.077
365.0	395.3	637.0	788.6	824.2	750.6	658.0	591.2	568.3	569.5	598.0	613.6	644.8	647.8	623.4	580.4	523.2	469.5	419.3	361.2	344.9	389.8	301.6	175.1	130.6	105.6	91.27	157.1	760.6	2832	2162	43.01	3.290	1.926	1.556	1.127	1.072	0.919	0.784	0.740	0.741	0.650	0.784	0.712	0.736	1.042	1.266	1.299	1.795	2.067	2.152	2.221	2.819	2.790	2.555	2.447	2.414	2.523	2.548	2.448	2.554	2.526	2.505	2.885	2.701	2.775	3.063	2.867	3.003	3.092	3.392	3.177	3.137	3.344	3.523	3.093	3.112	3.149
370.0	350.7	571.8	762.8	811.4	753.8	686.2	630.7	584.7	586.0	598.2	620.5	633.9	636.3	616.5	575.7	527.6	483.1	434.0	388.5	349.9	340.9	358.2	284.0	176.0	129.0	97.92	89.20	207.8	848.7	2109	2131	195.3	11.64	2.013	1.579	1.194	0.970	0.837	0.765	0.767	0.705	0.727	0.753	0.799	0.978	1.219	1.389	1.798	1.980	2.042	2.175	2.620	2.688	2.672	2.456	2.505	2.643	2.421	2.610	2.620	2.578	2.668	2.809	2.897	2.791	2.917	2.920	2.813	2.801	3.042	3.033	3.264	3.101	3.247	3.031	3.273	2.972
375.0	357.9	547.2	744.4	799.8	759.1	700.0	643.7	600.0	595.0	603.2	617.8	621.9	619.3	601.6	569.1	522.1	488.5	452.6	410.3	372.2	337.7	324.0	353.8	273.3	168.1	123.0	94.90	101.1	224.8	517.3	1492	2535	301.9	10.64	2.105	1.369	1.029	0.983	0.839	0.751	0.783	0.779	0.767	0.829	0.963	1.088	1.427	1.756	1.933	1.941	2.122	2.502	2.800	2.610	2.472	2.727	2.602	2.618	2.730	2.588	2.449	2.642	2.894	2.823	2.823	2.914	2.827	2.870	2.930	2.852	2.929	3.079	3.123	3.036	3.043	3.327	2.969
380.0	352.1	528.0	708.5	779.6	757.1	702.3	635.6	615.5	588.7	608.5	608.6	613.5	609.4	594.0	557.3	521.0	492.0	458.4	422.0	386.4	349.3	319.4	329.6	344.4	225.6	147.7	111.9	88.67	97.00	148.4	411.1	1900	2209	234.7	4.725	1.975	1.370	1.057	0.817	0.851	0.797	0.786	0.806	0.863	0.986	1.132	1.354	1.695	1.876	1.943	2.143	2.500	2.788	2.648	2.701	2.727	2.629	2.787	2.603	2.838	2.578	2.763	2.854	2.924	2.710	3.052	2.849	2.791	3.001	2.975	2.993	2.946	2.954	3.036	3.194	3.089	3.055
385.0	338.4	541.6	693.6	759.5	751.1	702.3	643.9	619.5	600.3	605.4	599.4	606.5	596.9	577.9	547.7	515.0	487.7	459.8	428.8	397.6	364.1	330.1	313.8	342.2	301.7	185.1	132.3	102.6	81.76	75.40	120.6	559.1	2054	1786	37.88	2.852	1.550	1.182	0.871	0.980	0.763	0.775	0.692	0.761	0.946	1.120	1.248	1.764	1.965	1.872	2.101	2.521	2.625	2.725	2.721	2.605	2.672	2.854	2.502	2.499	2.545	2.697	2.852	2.805	2.820	2.781	2.848	2.669	3.024	2.980	2.971	2.892	2.812	3.059	3.126	2.985	3.068
390.0	332.3	514.2	671.7	735.7	730.1	693.2	652.1	608.4	593.6	590.4	588.5	590.9	572.2	563.2	535.7	501.4	478.8	455.6	432.0	407.2	380.1	347.7	323.3	308.8	319.6	271.3	177.6	128.3	99.27	78.30	69.11	153.4	583.8	1460	1539	159.5	11.26	1.639	1.139	1.018	0.728	0.768	0.794	0.769	1.016	1.096	1.310	1.534	1.937	1.780	2.046	2.491	2.555	2.672	2.641	2.567	2.603	2.750	2.709	2.567	2.719	2.669	2.753	2.736	2.805	2.576	2.735	2.673	2.845	2.707	2.895	2.809	2.946	2.979	2.952	3.052	3.042
395.0	313.9	491.0	631.0	700.1	700.6	675.3	646.6	597.7	596.2	575.4	580.1	570.8	556.1	539.2	520.8	492.2	467.5	447.4	428.8	410.2	387.3	363.2	335.7	311.7	293.8	300.2	256.4	167.1	125.7	99.92	75.67	76.39	157.8	353.7	913.3	1763	269.0	12.15	1.582	1.272	1.007	0.880	0.781	0.785	0.863	0.984	1.410	1.503	1.918	1.688	2.006	2.416	2.603	2.557	2.566	2.699	2.668	2.703	2.706	2.556	2.668	2.706	2.625	2.731	2.628	2.486	2.689	2.622	2.528	2.645	2.781	2.720	2.854	2.832	2.804	3.033	2.931
400.0	297.5	470.4	615.4	689.9	704.1	667.2	637.0	589.1	581.0	562.7	567.0	564.4	550.0	530.0	506.4	477.9	456.4	435.2	418.3	408.5	388.7	366.4	345.3	320.7	293.4	283.8	294.6	221.5	150.1	118.1	87.76	68.98	70.74	103.8	244.1	1148	1611	215.9	5.688	1.544	1.210	0.899	0.894	0.731	0.987	1.065	1.255	1.565	1.808	1.511	1.944	2.353	2.414	2.638	2.460	2.625	2.819	2.631	2.610	2.615	2.806	2.702	2.662	2.528	2.765	2.506	2.525	2.572	2.489	2.564	2.594	2.670	2.810	2.583	2.804	2.647	2.715
405.0	298.5	466.5	583.9	666.5	688.7	659.6	631.1	595.9	569.7	564.5	555.3	558.2	538.1	515.3	492.6	463.9	443.4	422.9	412.8	399.0	382.6	367.4	347.2	327.2	296.6	276.2	282.0	271.5	186.3	136.4	104.5	77.82	58.78	53.08	75.26	317.1	1269	1365	35.70	2.807	1.362	1.155	0.832	0.820	1.026	1.173	1.187	1.504	1.729	1.710	1.795	2.303	2.456	2.634	2.534	2.707	2.491	2.618	2.541	2.516	2.716	2.521	2.539	2.465	2.584	2.395	2.673	2.493	2.693	2.401	2.472	2.580	2.653	2.743	2.828	2.692	2.736
410.0	295.7	444.7	575.6	645.9	653.6	653.2	617.8	597.7	570.1	555.2	547.4	538.6	519.1	499.3	470.7	440.0	421.1	406.5	396.9	387.5	374.5	360.0	347.8	331.6	308.4	282.4	263.9	267.9	244.8	173.5	125.4	94.13	69.36	52.50	44.62	90.87	344.1	954.9	1131	384.6	11.14	1.481	1.024	1.000	1.028	1.273	1.280	1.525	1.585	1.739	1.753	2.232	2.386	2.395	2.393	2.502	2.654	2.598	2.558	2.530	2.526	2.627	2.566	2.611	2.529	2.440	2.563	2.518	2.519	2.496	2.544	2.716	2.539	2.599	2.622	2.516	2.725
