Sample:	'1
File name:	G2025070203»ãÊ¢ÐõÄý³Áµí.FD3
Run date:	'12:36:21, 07/04/2025
Operator:	Administrator
Comment:	'

Instrument
Model:	F-2700 FL Spectrophotometer
Serial number:	23B8-004
ROM Version:	4J14000 07

Instrument parameters
Measurement type:	3-D scan
Data mode:	Fluorescence
EX  Start WL:	220.0 nm
EX  End WL:	600.0 nm
EX Sampling interval:	5.0 nm
EM  Start WL:	230.0 nm
EM  End WL:	650.0 nm
EM Sampling interval:	5.0 nm
Scan speed:	12000 nm/min
EX Slit:	5.0 nm
EM Slit:	5.0 nm
PMT Voltage:	700 V
Response:	Auto 
Corrected spectra:	Off
Contour interval:	50.000

Peak integration
Integration method:	Rectangular
Sensitivity:	1
Threshold:	1.000

Peaks
No.	ApexEX/EM(nm)	Height(Data)
1	225.0/600.0	82.32
2	245.0/400.0	3182
3	255.0/285.0	391.8
4	265.0/445.0	3195
5	270.0/600.0	145.0
6	275.0/615.0	140.1
7	280.0/625.0	123.5
8	285.0/640.0	101.5
9	310.0/395.0	2572
10	510.0/280.0	2.848
11	520.0/440.0	15.13
12	530.0/450.0	15.08
13	535.0/445.0	15.12

Data points
	220.0	225.0	230.0	235.0	240.0	245.0	250.0	255.0	260.0	265.0	270.0	275.0	280.0	285.0	290.0	295.0	300.0	305.0	310.0	315.0	320.0	325.0	330.0	335.0	340.0	345.0	350.0	355.0	360.0	365.0	370.0	375.0	380.0	385.0	390.0	395.0	400.0	405.0	410.0	415.0	420.0	425.0	430.0	435.0	440.0	445.0	450.0	455.0	460.0	465.0	470.0	475.0	480.0	485.0	490.0	495.0	500.0	505.0	510.0	515.0	520.0	525.0	530.0	535.0	540.0	545.0	550.0	555.0	560.0	565.0	570.0	575.0	580.0	585.0	590.0	595.0	600.0
230.0	42.15	559.6	1320	403.0	23.67	8.594	8.191	6.866	6.137	6.066	5.581	6.073	5.036	4.693	4.095	3.646	3.397	3.029	2.832	2.507	2.645	2.488	2.249	2.163	2.090	1.939	1.691	1.684	1.533	1.508	1.443	1.381	1.252	1.161	1.043	0.987	0.859	0.870	0.763	0.687	0.736	0.696	0.677	0.619	0.565	0.592	1.047	3.191	5.306	4.152	1.899	0.691	0.482	0.438	0.421	0.456	0.459	0.438	0.440	0.443	0.401	0.422	0.438	0.402	0.401	0.445	0.422	0.451	0.407	0.379	0.434	0.395	0.424	0.416	0.383	0.394	0.433
235.0	51.64	172.8	1063	1879	460.1	34.57	8.128	7.408	6.689	6.230	6.796	6.104	5.418	4.750	4.373	4.015	3.480	3.048	2.968	2.575	2.880	2.276	2.307	2.039	2.085	1.860	1.830	1.696	1.622	1.529	1.401	1.293	1.235	1.100	1.093	1.063	0.860	0.863	0.764	0.709	0.584	0.602	0.633	0.574	0.686	0.681	0.627	1.192	2.398	4.527	7.194	7.519	3.915	1.074	0.457	0.496	0.434	0.488	0.503	0.454	0.443	0.400	0.433	0.396	0.461	0.459	0.412	0.406	0.422	0.441	0.422	0.389	0.413	0.422	0.407	0.415	0.442
240.0	61.21	78.57	366.5	1986	2412	369.7	19.40	9.361	7.537	7.438	7.034	6.048	5.511	5.508	4.372	4.242	3.448	3.065	3.199	2.707	2.856	2.460	2.402	2.269	2.131	1.876	1.799	1.685	1.598	1.635	1.390	1.340	1.394	1.253	1.120	1.022	0.876	0.837	0.861	0.749	0.624	0.601	0.672	0.634	0.691	0.607	0.589	0.692	1.023	1.713	4.527	11.26	13.68	9.517	3.663	0.782	0.467	0.525	0.483	0.433	0.466	0.425	0.441	0.428	0.457	0.451	0.407	0.404	0.446	0.414	0.483	0.449	0.399	0.404	0.414	0.405	0.502
245.0	52.76	74.79	108.3	789.7	3277	2768	267.3	13.46	9.674	8.398	7.999	7.007	6.028	5.658	4.862	4.158	3.830	3.636	3.279	2.824	2.808	2.387	2.486	2.268	2.234	2.115	1.898	1.721	1.606	1.558	1.474	1.421	1.254	1.181	1.126	0.887	0.837	0.859	0.876	0.793	0.668	0.611	0.669	0.674	0.699	0.640	0.741	0.665	0.676	0.801	1.435	4.306	11.21	18.82	18.88	9.833	2.619	0.599	0.575	0.482	0.472	0.395	0.462	0.440	0.517	0.443	0.408	0.418	0.389	0.407	0.464	0.428	0.434	0.388	0.396	0.470	0.469
250.0	44.93	68.75	93.83	216.0	1187	3576	4096	1064	58.07	10.86	8.937	8.479	6.705	6.033	5.356	4.443	4.319	3.545	3.297	3.072	2.816	2.496	2.498	2.401	2.217	2.089	1.999	1.728	1.742	1.646	1.605	1.391	1.291	1.147	1.028	0.991	0.925	0.875	0.838	0.873	0.773	0.796	0.682	0.679	0.625	0.630	0.675	0.660	0.754	0.696	0.796	1.330	3.183	6.939	13.15	20.96	25.81	18.94	11.08	3.060	0.611	0.481	0.487	0.422	0.487	0.469	0.472	0.456	0.428	0.434	0.451	0.471	0.474	0.404	0.402	0.487	0.471
255.0	39.81	40.96	81.97	145.2	302.5	994.0	4370	7201	1468	52.87	12.33	9.652	7.900	6.798	5.866	4.959	4.709	3.830	3.565	3.321	2.914	2.855	2.618	2.414	2.361	2.129	2.124	2.002	1.759	1.665	1.668	1.594	1.211	1.308	1.051	0.986	0.950	0.890	0.934	0.864	0.796	0.779	0.775	0.674	0.651	0.653	0.528	0.628	0.621	0.660	0.905	1.014	1.182	2.043	3.353	5.596	11.57	27.03	47.03	29.37	17.62	3.372	0.751	0.489	0.526	0.489	0.534	0.451	0.423	0.430	0.469	0.512	0.436	0.484	0.455	0.438	0.458
260.0	41.07	37.35	47.61	135.9	168.6	263.3	1508	7403	8087	245.0	28.99	13.42	9.978	8.377	6.584	5.789	5.053	4.269	3.744	3.278	3.432	2.838	2.593	2.631	2.297	2.354	2.299	1.990	1.710	1.713	1.787	1.615	1.285	1.274	1.093	1.121	1.122	0.915	0.864	0.848	0.728	0.795	0.795	0.633	0.699	0.623	0.579	0.587	0.538	0.524	0.759	1.054	1.040	1.082	1.207	1.796	3.112	8.036	23.13	45.05	62.02	27.74	13.48	1.773	0.606	0.470	0.556	0.506	0.421	0.534	0.450	0.513	0.433	0.464	0.479	0.440	0.527
265.0	48.38	32.85	34.25	83.91	190.1	153.0	386.2	2831	9999.9	7953	196.3	20.49	12.60	10.53	8.269	6.150	5.386	4.807	3.977	3.897	3.234	3.214	2.633	2.604	2.389	2.364	2.177	2.053	1.995	1.851	1.746	1.722	1.309	1.387	1.166	1.114	0.971	0.915	0.907	0.882	0.801	0.786	0.732	0.701	0.689	0.664	0.598	0.527	0.518	0.480	0.527	0.857	1.208	1.376	0.991	1.042	1.282	2.347	6.070	14.76	38.65	67.28	73.32	25.24	8.589	0.863	0.613	0.519	0.542	0.602	0.471	0.488	0.525	0.465	0.439	0.475	0.539
270.0	61.77	50.57	40.38	49.18	130.2	230.8	217.5	703.1	3551	9999.9	9999.9	796.8	53.98	14.92	10.89	7.885	6.274	5.416	4.575	4.416	3.771	3.339	2.989	2.805	2.736	2.399	2.348	2.155	2.056	1.934	1.933	1.754	1.574	1.482	1.202	1.178	1.091	0.980	0.994	0.890	0.864	0.902	0.842	0.783	0.788	0.693	0.710	0.614	0.605	0.512	0.539	0.664	0.867	1.087	1.294	1.514	1.492	1.329	1.992	3.898	9.598	20.68	40.18	59.57	77.35	63.97	17.09	7.634	0.997	0.586	0.561	0.574	0.542	0.582	0.529	0.532	0.556
275.0	103.9	95.84	70.28	58.67	89.08	172.0	321.8	299.7	856.3	2624	9999.9	9999.9	1145	55.09	14.89	11.05	8.305	6.930	5.321	4.711	4.159	3.698	3.231	3.154	3.000	2.714	2.544	2.116	2.367	2.102	2.000	1.825	1.549	1.627	1.367	1.419	1.197	0.955	1.040	1.035	0.963	0.959	0.831	0.952	0.849	0.891	0.813	0.784	0.719	0.617	0.607	0.694	0.750	0.920	0.984	1.186	1.932	2.340	1.799	1.664	2.796	5.287	9.681	14.35	24.85	56.32	106.3	114.2	27.04	8.855	0.843	0.732	0.629	0.619	0.624	0.550	0.611
280.0	160.4	158.9	132.0	94.66	93.37	139.0	277.4	356.3	314.5	693.9	3099	9999.9	9999.9	828.1	30.10	14.86	10.52	8.054	6.337	5.795	4.682	4.057	3.666	3.234	3.356	2.881	2.558	2.155	2.235	2.187	1.951	1.983	1.755	1.699	1.564	1.486	1.510	1.221	1.028	1.182	1.006	1.003	1.075	0.987	1.134	1.012	0.947	1.007	0.780	0.730	0.746	0.817	0.793	0.910	0.873	1.059	1.293	1.953	2.848	2.258	1.750	1.992	2.963	4.054	6.590	14.72	40.36	95.02	134.5	110.4	22.15	3.930	0.766	0.697	0.600	0.574	0.714
285.0	235.6	230.7	199.7	147.9	124.3	139.8	201.6	391.8	323.7	315.9	877.2	4131	9999.9	8392	119.5	21.39	13.51	10.47	7.855	6.455	4.985	4.722	4.232	3.641	3.604	3.019	2.927	2.507	2.574	2.328	2.270	1.865	1.869	1.604	1.582	1.588	1.597	1.278	1.258	1.127	1.092	1.112	1.135	1.113	1.197	1.181	1.201	1.046	0.966	0.910	0.898	0.929	0.920	0.950	0.977	1.127	1.201	1.418	1.932	2.757	2.706	2.076	1.869	1.966	2.614	4.394	10.45	25.83	63.07	129.1	150.2	32.94	15.30	1.590	0.878	0.672	0.663
290.0	351.9	372.8	338.0	249.4	197.8	198.2	224.5	314.9	508.7	530.9	543.9	1275	4370	9999.9	9999.9	2229	39.74	15.10	10.60	8.169	6.256	5.481	4.587	4.299	3.809	3.410	3.003	2.753	2.830	2.619	2.317	2.115	2.098	1.774	1.726	1.740	1.600	1.472	1.426	1.310	1.304	1.355	1.255	1.341	1.359	1.433	1.423	1.588	1.435	1.351	1.185	1.275	1.244	1.203	1.250	1.339	1.475	1.556	1.753	2.030	2.519	3.116	3.338	3.070	2.649	2.925	4.375	7.639	16.30	35.15	64.61	86.60	120.5	97.57	70.08	11.40	2.094
295.0	454.8	507.1	500.6	376.5	308.1	300.6	325.8	361.5	487.6	804.5	850.6	858.0	1454	2891	9999.9	9999.9	696.2	41.53	15.95	11.05	8.004	7.185	5.847	4.961	4.654	4.036	3.331	3.066	3.131	2.690	2.473	2.328	2.016	2.165	1.978	1.625	1.773	1.753	1.630	1.456	1.482	1.488	1.585	1.330	1.562	1.694	1.840	2.054	1.902	1.666	1.707	1.650	1.523	1.577	1.593	1.673	1.856	2.070	2.075	2.043	2.276	2.856	3.471	4.733	5.296	4.296	4.130	4.836	6.735	10.52	16.92	21.71	33.04	63.60	144.3	175.9	34.61
300.0	525.1	619.2	616.1	500.8	391.9	398.0	430.4	471.9	572.8	831.8	1231	1072	1031	1154	3283	9999.9	9999.9	536.9	28.23	13.89	10.20	8.090	6.768	5.511	5.003	4.528	3.734	3.424	3.415	2.899	2.739	2.467	2.250	2.107	1.931	1.866	1.754	1.855	1.756	1.805	1.613	1.633	1.743	1.556	1.723	2.037	2.047	2.477	2.285	1.949	1.852	2.232	1.948	1.925	1.942	2.195	2.298	2.427	2.600	2.688	2.755	3.140	3.652	4.474	5.631	6.779	6.415	5.327	5.672	5.844	7.479	7.982	9.809	16.93	44.94	107.1	169.3
305.0	595.5	742.2	728.7	600.1	499.8	486.0	557.0	636.8	752.4	990.5	1389	1587	1256	1017	1236	4329	9999.9	9999.9	79.79	22.08	13.94	9.949	7.936	6.363	6.004	4.903	4.220	3.776	3.588	3.208	3.043	2.434	2.172	2.223	1.939	1.885	1.942	2.035	1.928	1.908	1.579	1.896	1.834	1.838	1.936	2.100	2.282	2.609	2.722	2.201	2.135	2.506	2.365	2.356	2.365	2.406	2.827	2.921	3.046	3.520	3.640	4.142	4.637	5.103	5.994	7.616	8.510	8.374	7.381	6.515	6.890	5.989	6.086	7.101	12.82	27.86	64.12
310.0	668.6	857.0	865.1	699.3	608.4	608.4	698.2	796.9	946.3	1198	1510	1852	1791	1316	1006	1410	4406	9999.9	9999.9	1835	34.04	14.66	10.63	7.909	7.056	5.748	4.904	4.270	3.848	3.490	3.345	2.958	2.577	2.468	2.213	1.992	2.120	2.092	2.068	1.840	1.896	1.859	1.961	2.041	2.274	2.392	2.649	2.888	2.915	2.573	2.508	2.905	2.772	2.686	2.837	3.029	3.315	3.542	3.887	4.360	4.436	5.052	5.567	5.863	6.713	7.784	8.373	9.126	9.904	9.335	8.731	7.287	6.571	6.258	6.712	9.233	17.00
315.0	756.8	952.0	981.3	821.4	696.2	721.7	808.0	937.0	1090	1347	1660	1911	2028	1805	1189	893.9	1368	2682	9999.9	9999.9	525.1	36.04	15.43	10.81	8.926	6.878	5.911	4.913	4.384	3.946	3.550	3.124	2.789	2.620	2.354	2.209	2.086	2.039	2.127	1.965	1.936	1.911	2.113	2.153	2.330	2.722	2.942	3.401	3.315	3.010	2.916	3.453	3.196	3.218	3.102	3.429	3.821	4.219	4.308	4.664	5.274	5.867	6.031	6.628	7.528	8.267	8.682	9.676	9.773	10.20	10.62	9.730	8.504	7.490	6.425	5.895	7.053
320.0	836.0	1103	1132	914.2	777.5	786.9	903.4	1032	1209	1464	1791	2036	2091	2033	1506	924.1	788.5	869.5	2979	9999.9	9999.9	446.6	26.92	14.27	10.60	8.220	6.554	5.520	4.680	4.420	3.959	3.578	3.065	2.635	2.488	2.288	2.244	2.174	2.254	2.027	2.180	1.911	2.249	2.388	2.572	3.060	3.152	3.738	3.642	3.309	3.216	3.378	3.453	3.429	3.600	3.942	4.331	4.583	4.928	4.854	5.688	5.924	6.753	7.396	8.162	8.869	9.447	9.934	10.14	10.23	10.60	11.03	10.82	9.119	7.203	6.310	5.537
325.0	992.2	1270	1355	1041	855.9	865.4	970.0	1111	1278	1551	1893	2125	2159	2038	1776	1103	749.8	533.4	851.4	3812	9999.9	9999.9	65.32	20.44	13.80	9.585	7.909	6.375	5.364	4.542	4.187	3.900	3.450	2.818	2.260	2.231	2.248	2.298	2.362	2.163	2.234	2.299	2.200	2.369	2.716	3.180	3.607	4.228	4.293	3.853	3.540	3.903	3.567	3.817	4.001	4.164	4.455	5.079	5.418	5.337	6.368	6.456	7.041	8.052	8.367	9.120	9.656	10.32	10.38	10.51	10.80	11.00	10.70	10.48	9.351	7.359	6.241
330.0	1098	1425	1559	1275	1045	1015	1103	1227	1399	1668	1980	2189	2247	2091	1805	1396	937.0	588.2	478.5	1047	3888	9999.9	9999.9	1659	31.65	14.56	10.28	7.962	6.477	5.697	4.630	4.141	3.550	3.377	2.714	2.383	2.462	2.510	2.445	2.290	2.209	2.349	2.406	2.463	3.045	3.589	3.980	4.794	4.932	4.355	4.192	4.856	4.164	4.351	4.494	4.467	5.037	5.443	5.830	5.990	6.518	6.958	7.573	8.423	8.972	9.658	10.03	10.18	11.03	11.14	11.39	11.01	10.80	10.36	9.575	9.382	7.747
335.0	1184	1547	1758	1561	1292	1255	1297	1400	1553	1796	2080	2284	2333	2206	1876	1504	1255	773.1	538.7	542.8	1078	2553	9999.9	9999.9	2567	37.74	14.68	11.37	8.077	6.632	5.666	4.498	4.136	3.435	3.087	2.713	2.642	2.766	2.365	2.363	2.229	2.482	2.454	2.781	3.243	3.709	4.395	5.252	5.356	5.060	4.888	5.721	5.252	5.474	5.659	5.440	5.898	6.405	6.283	6.587	7.285	7.620	8.120	8.881	9.670	10.11	10.23	10.74	11.14	11.40	11.78	11.77	11.36	10.72	9.847	9.525	9.113
340.0	1259	1690	1941	1728	1520	1460	1460	1540	1694	1882	2137	2334	2364	2255	1958	1584	1374	1077	684.0	533.5	544.1	779.4	2881	9999.9	9999.9	407.2	28.15	14.14	9.750	7.850	6.479	5.475	4.410	3.841	3.171	2.748	2.764	2.741	2.660	2.397	2.182	2.525	2.679	2.784	3.301	3.713	4.470	5.536	5.945	5.689	5.339	6.221	6.034	5.899	5.797	6.171	6.478	7.034	6.899	7.236	7.378	7.909	8.855	8.949	9.870	10.04	10.67	11.32	11.79	11.88	11.96	12.09	11.58	11.14	10.34	9.936	9.157
345.0	1288	1735	2025	1915	1719	1636	1649	1685	1772	1960	2153	2344	2386	2283	2023	1669	1418	1272	945.6	656.0	539.7	479.8	859.8	3566	9999.9	9999.9	336.9	21.51	12.51	9.417	7.259	5.865	4.774	3.935	3.234	2.718	2.900	2.694	2.370	2.289	2.289	2.706	2.729	3.044	3.599	4.001	4.594	5.586	5.801	5.904	5.761	6.694	6.500	6.520	6.389	6.816	7.175	7.456	7.645	8.025	8.045	8.714	8.996	9.715	10.34	10.46	10.48	11.04	11.42	11.44	11.63	12.60	12.29	11.64	10.72	10.15	9.920
350.0	1279	1738	2086	2078	1980	1932	1893	1879	1931	2066	2209	2353	2400	2324	2102	1822	1589	1413	1266	1008	764.3	608.2	561.6	1056	3650	9999.9	9999.9	1560	31.12	13.29	9.529	7.150	5.130	4.654	3.589	3.110	3.032	2.822	2.564	2.574	2.519	2.596	2.799	3.093	3.491	4.155	4.627	5.732	6.023	5.907	6.208	7.400	7.375	7.652	7.928	7.942	8.320	8.334	8.412	8.561	9.033	9.011	9.376	9.821	10.14	10.42	10.54	11.00	11.34	11.62	12.00	12.26	12.30	12.13	11.36	10.79	10.96
355.0	1310	1826	2122	2250	2242	2226	2183	2116	2130	2187	2285	2400	2417	2363	2199	1982	1803	1630	1493	1383	1132	880.0	703.0	651.2	1103	2518	8727	9999.9	2644	37.29	14.36	9.880	6.779	5.248	3.916	3.532	3.183	3.086	2.791	2.748	2.556	2.686	2.851	3.107	3.660	4.257	4.592	5.884	6.328	6.177	6.440	8.016	8.134	8.870	8.726	8.785	9.454	9.231	9.408	9.483	9.741	9.723	10.25	10.57	10.49	10.34	10.65	11.42	11.46	11.98	11.90	12.71	12.62	12.79	11.89	11.63	12.27
360.0	1348	1834	2141	2375	2422	2448	2391	2297	2263	2297	2359	2438	2437	2398	2269	2103	1961	1818	1690	1572	1439	1141	892.5	708.6	643.7	832.1	2403	9999.9	9999.9	2113	30.70	13.09	8.661	6.429	4.952	3.998	3.502	3.482	3.122	2.831	2.667	2.763	3.182	3.372	3.598	4.426	4.677	5.709	6.460	6.183	6.734	8.447	8.843	9.294	9.333	9.538	10.18	10.51	10.11	10.30	10.10	10.49	10.91	11.06	10.95	10.97	10.67	11.53	11.95	11.91	12.50	12.66	12.92	13.14	12.70	12.10	12.87
365.0	1404	1829	2231	2439	2584	2612	2570	2428	2389	2388	2423	2474	2466	2440	2337	2209	2103	1990	1885	1745	1650	1434	1113	868.1	666.3	551.3	780.1	3078	9999.9	9999.9	358.9	22.14	11.48	7.631	5.815	4.505	3.830	3.654	3.181	2.892	2.992	2.660	3.141	3.488	3.848	4.556	4.808	6.034	6.340	6.555	6.881	8.778	9.795	9.996	10.23	10.31	10.87	11.16	11.06	11.53	10.95	11.12	11.10	11.04	11.38	11.59	11.05	11.09	12.17	12.24	12.82	12.49	12.92	13.49	13.09	13.35	13.26
370.0	1410	1896	2305	2562	2741	2802	2743	2599	2541	2508	2502	2537	2514	2486	2413	2322	2259	2197	2122	1993	1862	1725	1459	1143	871.8	658.0	537.5	934.8	3216	9999.9	9999.9	1466	29.42	12.05	7.717	5.482	4.635	3.953	3.480	3.277	3.170	3.041	3.175	3.631	3.975	4.716	5.002	6.154	6.413	6.654	7.298	9.304	9.745	10.61	10.62	11.26	11.81	11.88	11.84	11.95	11.64	11.58	11.81	11.70	11.79	11.46	11.43	11.66	12.14	12.91	12.82	12.94	13.58	13.85	13.70	13.77	14.02
375.0	1472	1952	2349	2662	2882	2977	2923	2770	2668	2619	2582	2608	2565	2536	2480	2399	2398	2379	2322	2224	2095	1937	1755	1482	1128	862.8	646.9	575.4	961.9	2452	7668	9999.9	2493	34.53	11.60	7.422	5.589	4.575	4.023	3.446	3.404	3.402	3.337	3.699	4.142	4.878	4.883	6.190	6.372	6.767	7.352	10.08	10.41	11.47	11.33	11.70	12.50	12.75	12.56	12.30	12.02	11.77	12.13	11.87	11.94	11.83	12.20	12.65	12.80	13.07	12.79	13.15	13.70	13.66	14.33	14.61	14.78
380.0	1511	1961	2391	2711	2958	3068	2997	2849	2751	2697	2643	2613	2599	2549	2512	2459	2474	2467	2443	2354	2241	2076	1891	1696	1338	1038	785.9	588.3	532.9	757.3	2067	9999.9	9999.9	1911	26.55	9.893	7.330	5.387	4.517	3.983	3.477	3.485	3.750	3.807	4.293	4.933	4.899	6.445	7.002	7.012	7.997	9.916	10.85	11.53	12.01	11.75	13.03	12.86	12.82	12.37	12.66	12.50	12.74	12.41	11.84	12.14	12.51	12.28	13.04	12.98	12.99	13.38	13.95	14.29	14.37	14.87	15.38
385.0	1570	1947	2438	2779	2993	3138	3061	2942	2792	2736	2676	2644	2617	2575	2515	2491	2510	2528	2517	2450	2340	2189	1982	1805	1544	1205	919.1	691.0	509.0	448.0	650.7	2885	9999.9	9999.9	299.0	17.98	9.117	6.483	5.082	4.286	3.831	3.868	3.653	3.977	4.331	5.038	5.239	6.231	7.107	6.984	7.717	9.840	10.98	11.42	11.79	12.28	13.08	13.13	12.94	12.80	13.14	12.83	12.99	12.51	12.63	12.61	12.42	12.36	12.87	13.11	12.88	13.44	14.19	14.18	14.33	15.05	16.00
390.0	1524	1981	2438	2794	3039	3156	3117	2987	2859	2778	2718	2660	2617	2574	2526	2506	2532	2557	2562	2517	2420	2297	2110	1914	1694	1429	1109	854.5	644.6	490.8	418.1	822.7	2932	9542	9999.9	3501	24.27	9.549	6.844	5.204	4.335	4.307	4.080	4.257	4.706	5.167	5.302	6.475	6.931	7.046	7.965	10.13	10.86	11.55	11.98	12.27	13.14	13.39	13.30	13.39	13.38	12.97	13.31	12.74	12.83	12.66	12.56	12.45	12.80	12.78	13.19	13.50	13.95	14.29	14.28	15.33	15.92
395.0	1507	2022	2482	2770	3035	3179	3134	3024	2899	2810	2746	2671	2600	2553	2507	2508	2529	2560	2572	2533	2462	2358	2205	2016	1800	1583	1333	1032	809.2	619.0	458.6	435.6	814.6	2277	6296	9999.9	2084	29.01	9.831	6.789	5.549	4.587	4.576	4.406	4.786	5.427	5.671	6.513	7.168	7.352	8.038	10.20	10.65	11.57	11.97	12.51	13.11	13.82	13.72	13.89	13.23	13.25	12.99	13.13	12.64	12.54	12.68	12.82	13.30	12.96	13.77	13.11	14.38	13.97	14.54	14.87	15.59
400.0	1539	1997	2482	2782	3044	3182	3142	3038	2905	2829	2749	2665	2604	2539	2495	2467	2494	2533	2559	2524	2461	2377	2245	2080	1871	1657	1452	1189	941.3	730.6	545.6	411.3	391.0	639.5	1649	8039	9999.9	1633	22.53	8.818	6.392	5.335	4.769	4.578	4.737	5.386	5.624	6.727	7.170	7.160	7.879	10.13	10.67	11.68	12.27	12.43	13.38	13.58	14.07	13.32	13.40	12.93	13.17	13.18	12.79	12.45	12.42	12.53	13.03	13.00	13.27	13.76	13.98	13.65	14.32	15.05	15.26
405.0	1546	1979	2452	2762	2999	3132	3125	3075	2934	2845	2767	2672	2596	2513	2459	2430	2466	2497	2517	2491	2448	2360	2251	2109	1924	1714	1517	1326	1067	838.7	640.6	466.1	343.6	313.6	479.4	2260	9728	9999.9	265.6	15.89	7.991	6.188	5.352	5.014	4.907	5.553	5.635	6.774	6.945	7.180	7.907	9.949	10.77	11.64	12.25	12.53	13.22	13.43	13.73	13.73	13.32	12.92	13.69	13.48	13.21	12.66	12.57	12.92	12.99	12.89	12.62	13.17	13.98	13.35	14.37	14.91	15.36
410.0	1450	1929	2390	2737	2970	3094	3098	3060	2962	2853	2788	2673	2581	2488	2414	2356	2376	2410	2433	2421	2384	2321	2236	2114	1959	1775	1585	1422	1230	996.2	777.6	581.0	417.3	306.3	267.0	610.9	2672	7682	8958	1174	21.78	8.304	6.406	5.764	5.240	5.602	5.718	6.626	6.996	7.149	7.789	9.984	10.62	11.26	12.03	12.08	13.24	13.50	13.58	13.24	13.42	13.51	13.59	13.22	13.09	12.83	12.71	12.72	12.82	12.97	12.79	13.14	13.59	13.51	13.77	14.41	14.60
415.0	1400	1889	2323	2685	2886	3052	3062	3057	2980	2890	2793	2686	2567	2453	2344	2264	2266	2313	2328	2320	2289	2252	2185	2098	1964	1813	1652	1492	1346	1165	921.3	705.3	521.3	378.1	277.6	285.3	693.6	1814	4975	9999.9	1838	26.19	8.954	6.709	5.934	6.027	5.812	6.542	6.905	6.923	7.524	10.04	9.970	11.19	11.94	12.20	12.96	13.37	13.80	13.21	13.40	13.62	13.89	13.10	13.43	13.16	13.11	12.95	12.89	12.75	13.00	12.89	13.25	13.55	13.51	13.94	14.02
420.0	1335	1848	2226	2603	2855	3014	3057	3022	2991	2925	2818	2711	2557	2426	2296	2177	2188	2213	2220	2225	2201	2178	2127	2063	1958	1844	1689	1546	1399	1257	1041	802.8	609.5	446.2	324.2	245.8	278.7	485.8	1287	6568	9366	1396	19.67	8.016	6.787	6.185	5.921	6.408	7.324	6.835	7.465	9.685	10.00	10.94	11.38	12.25	12.58	13.06	13.78	13.83	13.92	13.52	14.07	13.46	13.39	13.05	12.68	12.64	12.82	12.79	12.84	12.66	12.87	13.23	13.07	13.17	13.90
425.0	1290	1782	2185	2534	2797	2933	3058	3051	3029	2962	2866	2749	2576	2410	2242	2106	2105	2128	2126	2133	2124	2109	2076	2031	1948	1845	1726	1596	1453	1327	1151	902.8	690.9	515.3	373.5	274.1	214.6	211.1	356.6	1808	7611	7856	244.4	12.68	7.779	6.872	6.212	6.657	7.144	6.695	7.423	9.489	10.06	11.12	11.50	11.56	12.75	13.37	13.25	14.06	13.82	13.55	14.02	14.15	13.77	13.31	12.94	12.86	13.18	12.83	12.88	12.52	12.97	13.35	13.14	13.13	13.55
