Sample:	'1
File name:	g2025082008 308¹úµÀ.FD3
Run date:	'16:24:53, 08/20/2025
Operator:	Administrator
Comment:	'

Instrument
Model:	F-2700 FL Spectrophotometer
Serial number:	23B8-004
ROM Version:	4J14000 07

Instrument parameters
Measurement type:	3-D scan
Data mode:	Fluorescence
EX  Start WL:	220.0 nm
EX  End WL:	600.0 nm
EX Sampling interval:	5.0 nm
EM  Start WL:	230.0 nm
EM  End WL:	650.0 nm
EM Sampling interval:	5.0 nm
Scan speed:	12000 nm/min
EX Slit:	5.0 nm
EM Slit:	5.0 nm
PMT Voltage:	700 V
Response:	Auto 
Corrected spectra:	Off
Contour interval:	50.000

Peak integration
Integration method:	Rectangular
Sensitivity:	1
Threshold:	1.000

Peaks
No.	ApexEX/EM(nm)	Height(Data)
1	225.0/305.0	940.7
2	225.0/490.0	297.5
3	225.0/590.0	70.00
4	225.0/610.0	66.24
5	230.0/340.0	833.7
6	230.0/500.0	289.8
7	235.0/510.0	245.1
8	240.0/265.0	413.2
9	240.0/525.0	219.8
10	245.0/270.0	410.4
11	245.0/535.0	193.9
12	250.0/275.0	521.2
13	250.0/550.0	161.0
14	255.0/280.0	624.8
15	255.0/565.0	137.3
16	260.0/575.0	126.5
17	265.0/590.0	137.5
18	270.0/300.0	1713
19	270.0/600.0	144.8
20	275.0/305.0	1841
21	275.0/610.0	126.4
22	280.0/335.0	1116
23	280.0/625.0	93.48
24	285.0/640.0	62.05
25	290.0/325.0	1156
26	300.0/340.0	1235
27	305.0/345.0	1090
28	330.0/375.0	339.7
29	335.0/380.0	336.2
30	340.0/390.0	309.5
31	345.0/395.0	296.9
32	350.0/400.0	295.1
33	360.0/415.0	250.9
34	365.0/420.0	247.4
35	410.0/480.0	66.08
36	430.0/505.0	37.75
37	455.0/540.0	15.46
38	485.0/265.0	2.414
39	485.0/340.0	3.180
40	495.0/270.0	2.349
41	505.0/275.0	3.371
42	510.0/280.0	3.702
43	520.0/285.0	4.300
44	530.0/290.0	4.372
45	540.0/295.0	7.197
46	545.0/300.0	8.062
47	555.0/305.0	8.704
48	560.0/310.0	7.456
49	570.0/315.0	6.748
50	580.0/320.0	6.027
51	585.0/325.0	6.508

Data points
	220.0	225.0	230.0	235.0	240.0	245.0	250.0	255.0	260.0	265.0	270.0	275.0	280.0	285.0	290.0	295.0	300.0	305.0	310.0	315.0	320.0	325.0	330.0	335.0	340.0	345.0	350.0	355.0	360.0	365.0	370.0	375.0	380.0	385.0	390.0	395.0	400.0	405.0	410.0	415.0	420.0	425.0	430.0	435.0	440.0	445.0	450.0	455.0	460.0	465.0	470.0	475.0	480.0	485.0	490.0	495.0	500.0	505.0	510.0	515.0	520.0	525.0	530.0	535.0	540.0	545.0	550.0	555.0	560.0	565.0	570.0	575.0	580.0	585.0	590.0	595.0	600.0
230.0	45.17	802.6	2023	587.1	22.39	3.395	3.233	2.864	2.311	2.611	2.173	2.211	2.071	1.574	1.502	1.188	1.122	1.087	0.938	0.766	0.783	0.547	0.603	0.620	0.525	0.466	0.396	0.392	0.504	0.377	0.337	0.302	0.265	0.246	0.262	0.302	0.245	0.210	0.218	0.225	0.278	0.453	0.439	0.273	0.187	0.223	1.180	6.009	10.46	7.940	2.959	0.501	0.107	0.123	0.103	0.078	0.122	0.149	0.129	0.119	0.121	0.084	0.087	0.144	0.088	0.089	0.118	0.084	0.097	0.094	0.092	0.050	0.079	0.080	0.083	0.107	0.105
235.0	99.43	229.8	1248	2086	529.1	43.64	3.707	3.762	2.573	2.696	2.705	2.643	1.718	1.583	1.673	1.365	1.136	1.181	1.035	0.813	0.609	0.586	0.666	0.561	0.677	0.473	0.372	0.578	0.466	0.326	0.364	0.264	0.239	0.230	0.204	0.285	0.278	0.193	0.262	0.155	0.259	0.271	0.409	0.563	0.476	0.168	0.371	1.564	3.925	7.234	10.62	11.72	5.546	1.188	0.163	0.065	0.096	0.117	0.134	0.118	0.044	0.172	0.162	0.076	0.058	0.043	0.066	0.131	0.089	0.080	0.066	0.084	0.021	0.078	0.089	0.078	0.095
240.0	201.6	149.6	370.0	1732	2323	416.0	22.80	4.466	3.351	3.630	3.284	2.206	2.527	1.791	1.684	1.388	1.306	1.515	0.979	0.853	0.510	0.610	0.592	0.447	0.500	0.512	0.418	0.406	0.385	0.379	0.360	0.278	0.255	0.288	0.259	0.289	0.295	0.185	0.259	0.163	0.166	0.265	0.190	0.285	0.549	0.578	0.446	0.532	1.019	2.045	5.357	13.73	17.23	13.30	4.679	0.625	0.156	0.093	0.131	0.072	0.074	0.086	0.194	0.052	0.062	0.080	0.066	0.169	0.076	0.056	0.069	0.076	0.054	0.081	0.090	0.114	0.185
245.0	136.7	240.7	147.5	571.5	2457	2611	318.1	12.10	4.920	3.609	3.504	3.284	2.426	1.737	1.784	1.271	1.335	1.374	0.920	0.698	0.674	0.676	0.600	0.664	0.709	0.493	0.287	0.485	0.437	0.561	0.309	0.253	0.366	0.198	0.221	0.298	0.266	0.152	0.274	0.150	0.258	0.183	0.154	0.217	0.357	0.609	0.801	0.703	0.535	0.637	1.440	4.280	11.03	20.71	21.67	11.97	3.399	0.326	0.135	0.040	0.123	0.106	0.083	0.119	0.114	0.118	0.084	0.062	0.126	0.108	0.128	0.216	0.106	0.069	0.128	0.066	0.147
250.0	45.61	168.5	268.8	225.0	768.7	2466	3300	1174	71.37	5.351	4.435	4.419	3.338	2.340	1.780	1.585	1.452	1.473	1.152	0.831	0.871	0.861	0.613	0.598	0.570	0.493	0.481	0.525	0.538	0.356	0.392	0.347	0.297	0.314	0.326	0.233	0.270	0.240	0.230	0.173	0.197	0.232	0.239	0.199	0.279	0.299	0.496	0.835	1.000	0.968	0.724	1.219	2.753	6.180	11.84	18.55	23.88	20.38	12.03	3.828	0.492	0.166	0.145	0.122	0.122	0.101	0.073	0.121	0.173	0.107	0.098	0.066	0.088	0.060	0.101	0.098	0.099
255.0	22.36	53.91	177.5	358.6	270.0	620.2	2416	5340	1714	78.51	8.205	5.834	4.389	2.845	2.661	1.982	1.658	1.643	1.166	1.171	1.099	0.743	0.605	0.661	0.690	0.550	0.422	0.448	0.447	0.355	0.448	0.434	0.329	0.318	0.222	0.314	0.300	0.316	0.282	0.194	0.296	0.227	0.181	0.205	0.164	0.332	0.276	0.362	0.509	0.962	1.340	1.502	1.172	1.568	2.815	4.434	7.929	18.44	35.84	31.04	19.45	4.530	0.318	0.209	0.166	0.189	0.133	0.243	0.153	0.128	0.128	0.111	0.116	0.038	0.097	0.076	0.166
260.0	16.28	23.47	64.90	305.3	367.0	202.2	717.4	4142	6220	1318	38.56	8.200	5.570	3.818	2.821	2.175	2.031	1.384	1.188	1.179	1.187	0.906	0.715	0.689	0.750	0.646	0.617	0.627	0.462	0.598	0.487	0.469	0.375	0.377	0.239	0.401	0.270	0.235	0.189	0.208	0.312	0.202	0.184	0.146	0.197	0.303	0.176	0.298	0.266	0.420	0.764	1.758	2.005	1.246	0.864	1.189	2.001	4.815	14.27	30.66	47.04	29.94	15.80	2.499	0.224	0.171	0.101	0.216	0.149	0.252	0.105	0.227	0.101	0.098	0.130	0.083	0.161
265.0	20.11	21.77	25.57	129.3	413.2	269.4	197.2	1344	6090	6504	233.9	16.81	6.693	5.392	3.140	2.280	1.813	1.673	1.356	1.182	1.247	1.026	0.708	0.740	0.739	0.694	0.653	0.693	0.522	0.509	0.737	0.440	0.352	0.406	0.285	0.378	0.237	0.320	0.270	0.298	0.325	0.276	0.208	0.177	0.143	0.253	0.224	0.229	0.205	0.248	0.346	0.836	1.850	2.414	1.570	0.826	0.677	1.335	3.419	8.763	22.51	42.58	58.13	27.39	10.89	1.025	0.166	0.269	0.158	0.111	0.118	0.184	0.098	0.140	0.129	0.064	0.132
270.0	23.67	20.64	17.95	39.36	187.5	410.4	295.6	353.0	1861	5865	7600	892.1	58.69	7.900	5.016	3.230	2.820	2.264	1.749	1.461	1.446	0.966	0.900	1.031	0.800	0.719	0.725	0.538	0.680	0.554	0.626	0.498	0.469	0.420	0.377	0.391	0.305	0.299	0.307	0.267	0.276	0.290	0.215	0.244	0.229	0.275	0.223	0.214	0.232	0.217	0.204	0.366	0.642	1.141	1.660	2.349	2.028	1.191	1.082	2.204	5.344	11.86	24.85	36.90	50.28	44.71	18.25	8.474	1.126	0.229	0.219	0.174	0.169	0.132	0.139	0.130	0.166
275.0	43.69	36.12	33.10	26.00	57.10	174.7	521.2	341.0	464.2	1443	5103	9999.9	1270	60.50	7.575	5.156	3.782	2.873	2.359	1.847	1.570	1.429	1.102	1.105	0.755	0.773	0.873	0.673	0.812	0.605	0.602	0.527	0.469	0.610	0.447	0.511	0.362	0.243	0.442	0.201	0.290	0.356	0.370	0.292	0.319	0.314	0.269	0.279	0.285	0.280	0.224	0.313	0.282	0.444	0.593	1.026	2.062	3.371	2.547	1.213	1.527	2.898	5.943	8.480	13.89	27.33	56.82	74.24	28.53	9.742	0.661	0.245	0.176	0.257	0.293	0.181	0.125
280.0	94.09	83.17	63.50	40.00	29.95	61.33	312.6	624.8	279.1	394.8	1458	7884	9999.9	917.0	29.48	7.073	4.944	3.674	2.709	2.273	1.622	1.609	1.347	1.244	1.161	0.874	0.831	0.937	0.804	0.778	0.597	0.543	0.613	0.611	0.571	0.541	0.523	0.412	0.454	0.401	0.456	0.366	0.385	0.393	0.365	0.438	0.509	0.334	0.372	0.272	0.228	0.296	0.196	0.361	0.324	0.426	0.877	2.185	3.702	3.416	1.854	1.165	1.739	2.326	3.521	6.899	18.17	44.83	71.34	70.29	23.14	4.607	0.329	0.278	0.246	0.222	0.234
285.0	195.7	188.3	120.3	67.58	38.71	37.94	132.1	543.6	601.4	273.0	508.4	2506	9999.9	7944	128.7	13.50	6.845	4.456	3.363	2.580	1.950	1.625	1.500	1.182	1.030	0.898	0.944	0.874	0.817	0.686	0.567	0.638	0.704	0.718	0.703	0.671	0.656	0.609	0.422	0.481	0.459	0.512	0.498	0.536	0.498	0.674	0.719	0.581	0.555	0.443	0.357	0.317	0.289	0.308	0.269	0.352	0.425	0.933	1.843	3.407	4.300	2.668	1.401	1.362	1.492	2.376	5.012	11.74	26.66	58.36	80.58	33.67	16.66	1.901	0.285	0.278	0.313
290.0	436.9	453.3	292.2	148.2	77.28	65.69	105.4	291.2	722.1	827.9	633.3	1041	3191	7816	8189	1896	34.91	6.327	4.686	3.407	2.352	1.931	1.665	1.300	1.365	1.025	1.078	0.934	0.919	0.989	0.706	0.705	0.733	1.111	1.097	1.043	0.915	0.753	0.697	0.597	0.610	0.825	0.876	0.777	0.947	1.197	1.300	1.334	0.971	0.787	0.612	0.539	0.474	0.430	0.373	0.384	0.536	0.787	1.030	1.711	2.900	4.037	4.372	3.846	2.791	2.667	3.249	4.815	7.850	15.83	28.97	40.56	59.30	51.39	39.92	11.44	1.909
295.0	705.6	724.2	488.5	231.9	123.3	105.9	149.9	262.0	519.1	1117	1327	1035	1302	2097	5409	9999.9	720.4	34.39	6.658	4.483	3.394	2.478	2.104	1.681	1.608	1.155	1.047	0.963	1.038	1.117	0.938	0.772	0.847	1.157	1.312	1.383	1.220	1.011	0.854	0.848	0.784	0.877	1.110	1.142	1.472	1.928	1.964	1.851	1.460	1.214	0.855	0.770	0.657	0.511	0.407	0.563	0.646	0.913	1.106	1.378	2.006	2.752	3.515	5.928	7.197	5.587	4.024	4.218	4.942	6.082	8.639	10.54	15.27	23.45	56.31	83.06	34.28
300.0	818.8	904.6	595.9	288.6	151.7	129.0	173.7	291.7	501.6	957.2	1713	1383	996.7	798.4	1528	7667	6118	542.7	16.91	6.422	4.473	3.120	2.825	1.828	1.782	1.453	1.262	1.192	1.137	1.108	0.897	0.784	0.987	1.322	1.572	1.566	1.365	1.228	0.909	1.017	1.017	1.169	1.290	1.411	1.734	2.060	1.979	2.351	1.851	1.438	1.133	1.064	0.719	0.664	0.586	0.691	0.791	0.997	1.239	1.639	1.942	2.556	3.052	4.383	6.253	8.062	7.327	5.837	4.780	4.358	4.357	3.925	4.490	6.044	16.09	40.35	70.97
305.0	849.3	940.7	642.5	317.9	166.2	146.6	201.2	321.0	532.6	879.9	1521	1841	1073	557.9	478.3	2278	8621	5191	78.05	10.98	5.741	3.739	3.113	2.307	2.037	1.720	1.411	1.309	1.263	1.338	0.871	0.847	1.197	1.342	1.629	1.814	1.537	1.342	1.158	1.058	1.094	1.286	1.622	1.498	1.776	2.202	2.189	2.416	2.122	1.512	1.144	1.027	0.811	0.688	0.785	0.745	0.851	1.140	1.253	1.512	2.102	2.612	3.331	3.869	4.961	6.731	8.432	8.704	6.213	4.832	3.764	2.673	2.116	2.142	4.334	10.08	22.87
310.0	844.0	935.3	644.6	336.0	197.0	171.0	224.3	340.8	549.1	852.4	1244	1657	1461	646.7	291.2	617.4	2575	6495	6514	1435	24.97	6.268	4.264	2.991	2.331	2.011	1.616	1.346	1.256	1.082	0.867	0.945	1.141	1.480	1.772	1.645	1.622	1.329	1.047	1.112	1.049	1.238	1.463	1.515	1.874	2.147	2.357	2.337	2.161	1.532	1.182	1.164	0.955	0.933	0.909	0.930	1.025	1.088	1.424	1.660	2.188	2.613	3.184	3.806	4.481	5.388	6.027	7.333	7.456	7.047	5.323	2.955	1.878	1.638	1.832	3.018	5.843
315.0	810.1	894.1	662.8	393.3	265.0	250.2	272.5	370.3	566.7	826.4	1109	1304	1351	1069	427.8	370.6	774.8	1682	4905	8852	508.0	25.00	6.356	4.391	2.731	2.244	1.990	1.661	1.531	1.444	1.071	1.125	1.194	1.367	1.680	1.636	1.590	1.415	0.960	1.219	1.157	1.139	1.405	1.424	1.667	2.158	2.270	2.527	2.081	1.748	1.441	1.370	1.211	1.168	1.291	1.124	1.310	1.507	1.493	1.760	2.272	2.517	3.140	3.628	4.474	4.543	5.053	5.609	5.520	5.967	6.748	5.783	3.533	2.193	2.053	2.188	2.802
320.0	788.2	896.4	697.3	488.6	387.1	365.4	349.2	416.2	580.7	839.5	1094	1239	1182	1218	836.5	514.0	554.2	688.5	1540	6993	7267	394.7	12.93	5.729	3.920	2.566	2.149	1.817	1.370	1.568	1.317	1.213	1.254	1.448	1.672	1.658	1.554	1.408	1.175	1.329	1.284	1.149	1.515	1.492	1.797	1.972	2.120	2.296	2.268	1.915	1.586	1.623	1.672	1.814	1.670	1.586	1.812	1.822	1.730	1.875	2.186	2.770	3.368	3.875	4.408	4.739	4.833	5.194	5.080	5.109	5.763	5.976	6.027	4.579	3.475	2.837	2.956
325.0	756.6	882.8	742.4	563.4	477.7	454.8	405.8	441.6	593.7	834.4	1072	1199	1119	1077	1156	773.1	630.9	567.6	650.2	2291	7865	3869	58.91	8.211	4.885	3.581	2.641	2.157	1.551	1.516	1.409	1.368	1.195	1.425	1.517	1.457	1.361	1.403	1.195	1.260	1.308	1.233	1.523	1.488	1.744	1.963	2.102	2.297	2.368	2.069	1.696	1.871	2.018	2.040	2.091	1.935	1.855	2.130	1.942	1.945	2.553	2.661	3.116	3.986	4.098	4.752	4.886	5.330	4.978	5.201	4.968	4.978	5.878	6.508	6.121	4.549	3.599
330.0	727.0	854.7	773.1	640.0	567.4	525.5	450.1	453.6	596.4	795.3	1004	1119	1088	982.2	1055	1066	804.8	617.8	509.2	786.2	2436	5454	5296	1141	18.67	5.107	3.461	2.757	2.010	1.958	1.582	1.471	1.306	1.431	1.503	1.366	1.285	1.354	1.250	1.265	1.276	1.282	1.380	1.419	1.647	1.980	2.091	2.397	2.525	2.095	1.808	2.233	2.210	2.414	2.350	2.266	2.302	2.109	2.085	2.148	2.533	2.853	3.133	3.560	4.021	4.343	4.754	5.023	4.908	5.119	4.947	4.786	4.862	5.573	6.062	6.640	5.915
335.0	750.2	841.5	823.1	744.2	699.8	644.7	528.3	490.5	612.8	785.1	976.3	1087	1116	1050	1035	1112	1208	796.2	578.1	521.2	696.7	1343	4378	7449	417.6	18.44	5.026	3.755	2.545	2.227	1.955	1.432	1.285	1.391	1.533	1.420	1.426	1.229	1.243	1.307	1.306	1.397	1.579	1.588	1.609	1.938	2.064	2.719	2.455	2.243	2.177	2.810	2.852	2.855	2.959	2.594	2.587	2.482	2.213	2.379	2.662	2.889	3.029	3.636	4.047	4.298	4.594	4.715	4.798	5.176	5.102	5.176	5.139	5.811	5.596	6.132	7.121
340.0	698.2	825.7	833.7	791.8	749.7	699.2	556.9	505.7	620.1	768.4	941.5	1057	1083	1072	1064	1076	1235	1055	645.0	486.0	328.6	359.4	1229	6080	6240	337.7	8.935	4.468	3.423	2.703	2.091	1.678	1.616	1.428	1.528	1.317	1.327	1.298	1.225	1.272	1.276	1.184	1.253	1.519	1.471	1.857	2.074	2.523	2.464	2.476	2.480	3.112	2.978	3.180	3.004	2.814	2.778	2.499	2.112	2.392	2.601	2.998	3.032	3.681	3.744	4.247	4.505	4.688	4.736	5.231	5.190	5.182	5.149	5.978	5.486	5.547	6.371
345.0	705.8	774.6	822.7	792.9	770.8	696.8	567.9	502.1	590.5	725.0	881.0	986.4	1028	1030	1035	1018	1074	1090	731.6	476.4	247.5	148.3	314.8	1887	6900	3286	50.49	6.766	4.116	3.146	2.126	1.807	1.679	1.423	1.282	1.277	1.253	1.394	1.312	1.319	1.266	1.201	1.399	1.511	1.511	1.703	1.858	2.459	2.424	2.416	2.439	3.041	3.199	2.846	3.201	2.972	2.814	2.458	2.217	2.565	2.460	3.038	3.082	3.307	3.765	4.113	4.122	4.407	4.545	4.731	4.922	5.327	5.089	5.672	5.306	5.640	5.853
350.0	620.3	737.3	777.4	761.3	765.1	692.9	565.9	505.2	563.8	680.5	805.3	898.0	945.5	966.1	982.8	962.0	951.6	902.0	808.4	565.8	251.2	117.1	124.2	464.4	2096	4616	4442	993.9	16.28	4.250	2.952	2.331	1.811	1.431	1.425	1.269	1.217	1.303	1.132	1.254	1.106	1.197	1.248	1.463	1.664	1.759	1.884	2.309	2.415	2.305	2.534	2.843	3.126	2.958	3.038	2.857	2.717	2.472	2.327	2.319	2.484	2.789	3.010	3.121	3.420	3.566	3.874	4.024	4.142	4.387	4.590	4.580	4.935	5.211	5.035	5.284	5.419
355.0	565.4	687.2	743.8	746.6	751.9	694.3	577.1	502.6	564.1	651.7	757.7	822.2	870.5	907.2	931.1	916.3	898.2	790.0	679.1	668.1	341.4	133.9	102.2	159.2	509.1	1127	3624	6037	387.0	16.38	4.400	2.786	2.140	1.654	1.469	1.489	1.261	1.097	1.059	1.231	1.349	1.174	1.188	1.348	1.534	1.781	1.800	1.992	2.373	2.253	2.368	2.736	3.134	3.017	3.023	2.867	2.857	2.495	2.300	2.245	2.400	2.697	2.780	3.196	3.319	3.169	3.571	3.570	4.025	3.951	3.905	4.540	4.660	4.696	4.992	5.022	5.140
360.0	524.7	639.0	715.7	717.7	734.6	688.2	582.7	516.7	567.1	628.6	710.8	767.9	826.3	856.7	866.6	861.4	836.1	726.1	596.1	588.2	452.2	185.8	112.3	104.9	165.3	290.3	1018	5046	3331	309.7	8.300	3.812	2.630	1.824	1.501	1.497	1.351	1.226	1.166	1.253	1.226	1.219	1.201	1.388	1.423	1.605	1.687	2.008	2.067	2.143	2.297	2.923	3.017	3.079	3.252	2.848	2.929	2.509	2.346	2.389	2.511	2.677	2.942	3.173	3.188	3.235	3.531	3.471	3.621	3.986	3.937	4.491	4.457	4.380	4.603	4.552	4.770
365.0	513.1	632.4	690.9	695.2	711.0	669.1	580.3	514.5	563.4	613.3	681.7	721.1	760.4	792.1	804.6	792.5	771.2	674.9	553.6	490.4	450.9	291.3	141.8	109.0	102.4	113.6	265.0	1599	5487	3063	47.65	5.492	3.238	2.291	1.881	1.456	1.364	1.176	1.096	1.140	1.150	1.155	0.982	1.238	1.297	1.593	1.680	1.955	2.001	1.967	2.239	2.757	2.991	2.968	3.094	2.696	2.898	2.643	2.290	2.319	2.412	2.829	2.648	3.094	3.164	3.131	3.190	3.244	3.328	3.617	3.859	3.769	3.980	4.124	4.259	4.543	4.407
370.0	481.6	586.1	666.0	665.0	682.9	659.4	576.1	524.5	555.2	598.8	648.6	676.0	707.1	727.5	739.5	727.2	707.3	625.2	522.3	444.6	360.2	347.0	259.1	147.2	109.5	92.85	109.3	395.7	1720	4226	4038	879.9	14.23	3.125	2.417	1.700	1.475	1.455	1.279	1.047	1.160	1.069	1.199	1.301	1.356	1.406	1.535	1.857	1.890	1.947	2.039	2.502	2.787	2.841	2.923	2.822	2.697	2.871	2.425	2.443	2.398	2.654	2.711	2.883	2.899	2.952	2.834	3.010	3.036	3.401	3.335	3.264	3.679	3.926	3.896	4.030	4.325
375.0	436.5	548.5	629.3	639.6	667.8	659.0	592.2	538.9	549.6	588.1	618.5	635.6	654.7	667.6	672.0	672.7	654.4	587.3	496.4	429.1	324.5	288.1	339.7	249.7	143.0	109.1	91.69	137.7	420.2	1039	3373	5282	332.2	13.14	3.235	2.329	1.879	1.676	1.310	1.217	1.143	1.120	0.989	1.295	1.308	1.559	1.559	1.925	1.787	1.961	1.924	2.494	2.760	2.633	2.770	2.592	2.692	2.807	2.546	2.583	2.670	2.703	2.843	2.780	2.661	2.923	2.654	3.133	2.763	2.940	3.086	3.282	3.535	3.720	3.479	3.627	3.876
380.0	443.9	550.8	599.5	641.4	656.1	634.8	587.5	535.6	555.0	583.7	599.6	609.8	619.8	633.6	631.6	626.3	609.8	552.2	481.9	418.6	324.6	268.1	301.1	336.2	204.3	131.7	104.0	95.42	140.9	267.8	952.1	4423	2902	258.6	6.827	3.206	2.138	1.704	1.518	1.288	1.347	1.256	1.061	1.211	1.256	1.559	1.606	1.876	1.892	1.928	1.966	2.419	2.578	2.665	2.682	2.880	2.768	2.671	2.390	2.461	2.605	2.719	2.746	2.807	2.837	2.761	2.721	2.713	2.798	2.810	2.845	3.096	3.217	3.490	3.501	3.541	3.736
385.0	437.9	544.5	590.0	624.1	638.3	618.9	576.7	537.8	547.8	569.0	582.5	590.1	598.4	604.9	598.2	586.6	568.8	525.6	462.3	410.3	330.3	277.6	266.4	326.0	289.7	168.8	123.6	99.97	91.20	104.2	246.4	1376	4439	2553	39.17	4.732	2.840	2.164	1.681	1.499	1.252	1.202	1.075	1.271	1.071	1.261	1.555	1.673	1.723	1.875	2.041	2.552	2.622	2.781	2.702	2.563	2.722	2.432	2.164	2.317	2.758	2.483	2.590	2.714	2.881	2.456	2.687	2.678	2.726	2.668	2.920	2.941	3.105	3.086	3.286	3.076	3.195
390.0	418.6	529.5	578.5	617.3	632.2	614.2	571.6	546.1	544.0	554.3	561.9	568.4	563.2	564.4	555.2	537.0	526.3	495.5	445.4	404.5	338.3	291.9	269.5	275.5	309.5	262.0	163.2	120.9	97.90	82.59	97.63	339.0	1355	3178	3029	729.1	12.31	2.831	2.110	1.501	1.404	1.274	1.191	1.248	1.267	1.438	1.567	1.787	1.834	1.917	1.970	2.448	2.571	2.598	2.439	2.426	2.711	2.602	2.378	2.334	2.646	2.381	2.382	2.605	2.681	2.431	2.561	2.541	2.514	2.854	2.715	2.723	2.935	2.948	3.004	2.941	3.037
395.0	437.7	515.3	552.7	587.3	608.6	601.6	574.2	542.1	544.9	541.0	552.7	546.2	543.4	527.8	518.0	500.1	493.8	465.3	430.0	399.2	342.5	307.8	285.0	266.8	267.2	296.9	247.8	155.8	119.3	95.70	80.77	116.9	329.7	775.8	2373	3928	281.9	12.18	2.966	1.840	1.578	1.336	1.392	1.240	1.274	1.316	1.469	1.852	1.871	1.769	1.922	2.328	2.451	2.422	2.433	2.594	2.538	2.574	2.344	2.390	2.588	2.581	2.400	2.714	2.536	2.469	2.416	2.379	2.566	2.664	2.510	2.735	2.667	2.778	2.825	2.959	3.188
400.0	446.8	500.7	550.1	588.2	595.8	588.2	570.1	551.7	541.9	539.8	539.5	537.4	524.7	513.4	498.0	479.4	473.5	443.2	418.0	393.3	349.6	314.4	296.0	271.1	257.0	267.2	295.1	208.1	140.0	110.3	87.27	76.65	107.6	198.0	657.1	3083	2429	225.9	5.798	2.603	1.726	1.618	1.453	1.293	1.185	1.446	1.501	1.777	1.802	1.670	1.896	2.345	2.607	2.334	2.418	2.620	2.575	2.388	2.404	2.435	2.559	2.635	2.420	2.723	2.464	2.613	2.391	2.345	2.369	2.480	2.396	2.609	2.515	2.715	2.748	2.595	2.828
405.0	421.2	510.3	558.1	584.0	599.4	591.2	562.9	549.3	544.8	539.0	529.3	521.5	513.2	497.9	477.2	463.5	448.2	427.8	411.9	386.6	350.5	318.1	301.2	280.4	260.2	247.7	278.5	269.0	173.9	126.8	100.5	77.18	66.25	74.18	169.3	924.3	3101	2159	35.58	3.606	2.138	1.900	1.571	1.413	1.268	1.369	1.519	1.761	1.944	1.721	1.817	2.257	2.282	2.427	2.355	2.661	2.674	2.420	2.517	2.507	2.437	2.356	2.561	2.478	2.465	2.695	2.377	2.235	2.512	2.250	2.227	2.469	2.362	2.517	2.800	2.434	2.721
410.0	411.5	503.0	549.4	566.7	575.7	573.8	555.7	549.1	541.8	533.1	527.1	509.5	494.0	478.5	452.6	438.5	426.0	411.6	393.8	376.3	343.5	320.2	304.9	288.8	269.8	250.1	246.5	266.5	240.9	164.3	116.3	89.64	68.51	55.85	66.21	227.4	912.3	2264	2308	584.2	11.02	2.362	1.701	1.514	1.419	1.533	1.554	1.728	1.900	1.674	1.940	2.281	2.382	2.431	2.445	2.490	2.478	2.397	2.437	2.429	2.387	2.432	2.377	2.470	2.437	2.540	2.223	2.212	2.310	2.234	2.262	2.352	2.338	2.243	2.443	2.439	2.594
415.0	378.7	480.0	522.1	551.9	564.2	545.8	557.0	538.3	534.6	522.4	513.4	492.1	471.4	450.6	424.2	414.1	401.3	390.2	374.7	359.5	333.5	317.3	304.9	290.6	274.6	254.5	237.2	229.8	250.9	226.8	144.3	103.3	79.69	60.42	51.24	75.61	221.9	543.6	1584	2786	260.4	11.66	2.420	1.679	1.697	1.477	1.727	1.570	1.767	1.682	1.729	2.167	2.407	2.493	2.560	2.363	2.500	2.425	2.486	2.484	2.555	2.425	2.430	2.575	2.402	2.273	2.146	2.023	2.124	2.019	2.240	2.394	2.203	2.255	2.197	2.399	2.342
