Sample:	'1
File name:	T2025041713 —¶πŸ¥Â«≈.FD3
Run date:	'11:21:30, 04/21/2025
Operator:	Administrator
Comment:	'

Instrument
Model:	F-2700 FL Spectrophotometer
Serial number:	23B8-004
ROM Version:	4J14000 07

Instrument parameters
Measurement type:	3-D scan
Data mode:	Fluorescence
EX  Start WL:	220.0 nm
EX  End WL:	600.0 nm
EX Sampling interval:	5.0 nm
EM  Start WL:	230.0 nm
EM  End WL:	650.0 nm
EM Sampling interval:	5.0 nm
Scan speed:	12000 nm/min
EX Slit:	5.0 nm
EM Slit:	5.0 nm
PMT Voltage:	700 V
Response:	Auto 
Corrected spectra:	Off
Contour interval:	50.000

Peak integration
Integration method:	Rectangular
Sensitivity:	1
Threshold:	1.000

Peaks
No.	ApexEX/EM(nm)	Height(Data)
1	225.0/570.0	54.00
2	225.0/585.0	51.33
3	225.0/645.0	37.84
4	230.0/340.0	816.0
5	230.0/500.0	278.3
6	235.0/375.0	616.5
7	235.0/400.0	603.7
8	235.0/510.0	256.2
9	240.0/405.0	596.3
10	240.0/520.0	219.4
11	245.0/270.0	361.2
12	245.0/535.0	188.5
13	250.0/275.0	445.6
14	250.0/550.0	151.3
15	255.0/280.0	566.5
16	255.0/560.0	125.9
17	260.0/285.0	543.1
18	260.0/405.0	501.5
19	260.0/425.0	504.1
20	260.0/575.0	105.8
21	265.0/290.0	589.3
22	265.0/415.0	501.9
23	265.0/585.0	103.3
24	270.0/300.0	867.3
25	270.0/595.0	85.89
26	275.0/305.0	999.7
27	275.0/335.0	577.5
28	275.0/610.0	75.37
29	280.0/310.0	879.6
30	280.0/340.0	577.9
31	280.0/620.0	62.69
32	285.0/315.0	809.6
33	285.0/635.0	48.59
34	290.0/325.0	710.3
35	295.0/330.0	550.2
36	300.0/335.0	505.8
37	305.0/345.0	431.8
38	310.0/350.0	358.7
39	315.0/355.0	343.4
40	320.0/360.0	331.6
41	325.0/370.0	304.7
42	330.0/375.0	298.3
43	335.0/380.0	297.6
44	340.0/390.0	266.2
45	345.0/395.0	254.4
46	350.0/400.0	254.1
47	360.0/415.0	216.8
48	365.0/420.0	210.0
49	415.0/485.0	44.62
50	430.0/505.0	27.76
51	440.0/520.0	19.67
52	445.0/525.0	16.90
53	460.0/340.0	2.588
54	505.0/275.0	3.117
55	515.0/280.0	3.530
56	520.0/285.0	3.537
57	530.0/290.0	3.559
58	540.0/295.0	4.863
59	545.0/300.0	5.175
60	550.0/305.0	4.916
61	565.0/310.0	4.685
62	570.0/315.0	4.864
63	580.0/320.0	4.323
64	585.0/325.0	4.468

Data points
	220.0	225.0	230.0	235.0	240.0	245.0	250.0	255.0	260.0	265.0	270.0	275.0	280.0	285.0	290.0	295.0	300.0	305.0	310.0	315.0	320.0	325.0	330.0	335.0	340.0	345.0	350.0	355.0	360.0	365.0	370.0	375.0	380.0	385.0	390.0	395.0	400.0	405.0	410.0	415.0	420.0	425.0	430.0	435.0	440.0	445.0	450.0	455.0	460.0	465.0	470.0	475.0	480.0	485.0	490.0	495.0	500.0	505.0	510.0	515.0	520.0	525.0	530.0	535.0	540.0	545.0	550.0	555.0	560.0	565.0	570.0	575.0	580.0	585.0	590.0	595.0	600.0
230.0	55.56	1044	3597	2025	175.5	9.635	7.696	7.254	5.313	5.225	4.577	4.277	3.715	3.223	2.801	2.092	1.829	1.635	1.396	1.197	1.090	1.008	0.910	0.883	0.856	0.843	0.717	0.613	0.649	0.661	0.644	0.482	0.497	0.453	0.478	0.447	0.400	0.409	0.371	0.371	0.396	0.492	0.495	0.447	0.365	0.326	1.159	5.304	13.37	16.41	11.18	3.060	0.495	0.267	0.292	0.249	0.336	0.277	0.258	0.257	0.267	0.246	0.249	0.252	0.258	0.258	0.271	0.244	0.259	0.248	0.261	0.276	0.247	0.242	0.235	0.264	0.259
235.0	115.2	305.3	1901	4005	2900	288.5	11.51	7.065	5.699	5.733	5.343	5.060	3.870	3.623	2.796	2.369	1.958	1.624	1.633	1.438	1.045	0.963	0.948	0.842	0.855	0.861	0.709	0.639	0.710	0.710	0.648	0.522	0.570	0.491	0.477	0.424	0.442	0.390	0.445	0.370	0.382	0.370	0.462	0.507	0.555	0.395	0.537	1.620	4.431	9.940	17.83	25.17	19.99	7.139	0.669	0.277	0.309	0.317	0.293	0.249	0.234	0.276	0.253	0.293	0.287	0.232	0.204	0.258	0.238	0.269	0.246	0.257	0.329	0.263	0.263	0.241	0.235
240.0	166.2	183.6	542.7	2643	5368	3071	186.1	10.43	7.200	6.450	6.756	5.197	4.653	3.779	2.852	2.233	1.878	1.826	1.515	1.391	1.214	1.212	1.102	0.966	0.869	0.824	0.680	0.689	0.736	0.610	0.650	0.584	0.556	0.449	0.463	0.507	0.407	0.447	0.469	0.373	0.400	0.400	0.427	0.387	0.553	0.713	0.632	0.718	1.250	2.767	7.295	21.23	38.77	27.65	18.62	4.442	0.376	0.358	0.288	0.304	0.271	0.309	0.286	0.297	0.263	0.257	0.246	0.252	0.241	0.267	0.277	0.266	0.307	0.287	0.298	0.255	0.240
245.0	117.8	229.4	217.4	803.9	3953	6853	2457	92.15	9.651	8.939	7.341	6.733	4.558	4.020	3.513	2.193	2.199	1.934	1.477	1.412	1.192	1.437	1.092	0.822	0.944	0.869	0.779	0.802	0.693	0.670	0.641	0.569	0.467	0.545	0.480	0.471	0.473	0.448	0.423	0.389	0.476	0.395	0.404	0.389	0.437	0.626	0.933	0.788	0.639	0.888	1.911	6.232	18.39	36.39	56.72	26.89	15.08	2.053	0.336	0.388	0.318	0.322	0.330	0.325	0.288	0.236	0.258	0.251	0.282	0.256	0.265	0.257	0.277	0.238	0.242	0.223	0.250
250.0	59.12	151.8	270.2	300.9	1111	3976	7329	5044	153.6	14.74	10.17	7.724	5.851	4.884	3.854	2.627	2.333	1.831	1.499	1.470	1.433	1.216	1.061	0.925	0.923	0.862	0.870	0.756	0.711	0.736	0.646	0.659	0.628	0.594	0.506	0.473	0.470	0.499	0.435	0.461	0.458	0.425	0.391	0.378	0.421	0.414	0.591	0.746	1.009	0.950	0.964	1.769	4.512	10.08	23.49	35.53	56.75	50.82	39.91	10.59	1.869	0.388	0.317	0.336	0.288	0.278	0.298	0.296	0.295	0.288	0.282	0.286	0.251	0.308	0.268	0.256	0.326
255.0	36.87	60.14	161.3	350.1	375.3	949.8	3215	9900	7914	201.2	16.39	10.99	7.688	6.188	4.534	3.482	2.700	2.165	1.912	1.529	1.503	1.311	1.115	1.012	0.945	0.840	0.909	0.865	0.875	0.754	0.717	0.663	0.697	0.589	0.553	0.505	0.493	0.424	0.423	0.443	0.510	0.447	0.477	0.398	0.416	0.407	0.399	0.422	0.480	0.862	1.266	1.525	1.610	2.592	5.611	8.458	15.82	32.28	72.49	91.57	28.94	14.57	1.085	0.377	0.374	0.332	0.362	0.323	0.294	0.289	0.336	0.323	0.302	0.326	0.260	0.287	0.307
260.0	43.16	37.88	63.41	256.2	361.1	295.9	846.6	5090	9999.9	6719	133.3	14.77	10.39	7.319	5.566	3.777	3.341	2.405	1.992	1.854	1.766	1.419	1.137	1.205	1.050	1.021	1.016	1.029	0.964	0.892	0.949	0.784	0.631	0.558	0.595	0.454	0.437	0.446	0.467	0.460	0.487	0.468	0.461	0.347	0.426	0.421	0.389	0.401	0.435	0.463	0.723	1.571	1.958	1.640	1.671	2.264	3.930	8.038	24.11	59.12	93.74	96.41	24.80	7.807	0.627	0.435	0.377	0.400	0.293	0.328	0.289	0.299	0.313	0.265	0.318	0.300	0.288
265.0	40.87	34.88	37.25	110.9	371.2	294.4	238.6	1414	7379	9999.9	1702	69.91	13.88	9.155	6.390	4.809	3.521	2.917	2.276	2.081	2.087	1.520	1.333	1.265	1.126	1.135	0.975	0.939	0.902	0.825	0.978	0.865	0.798	0.543	0.630	0.510	0.542	0.576	0.547	0.441	0.390	0.529	0.445	0.382	0.497	0.401	0.356	0.374	0.362	0.332	0.382	0.852	1.576	2.169	1.682	1.167	1.281	2.197	5.822	15.14	38.97	88.58	114.7	86.83	18.65	2.390	0.429	0.479	0.386	0.373	0.338	0.300	0.381	0.341	0.316	0.326	0.307
270.0	56.39	46.39	41.58	47.88	159.4	361.2	320.2	384.2	1987	7262	9999.9	6045	94.08	15.59	9.339	6.053	4.349	3.638	2.881	2.216	1.981	1.815	1.520	1.458	1.221	1.189	1.050	1.039	0.910	0.863	0.904	0.830	0.804	0.665	0.702	0.573	0.589	0.595	0.530	0.513	0.452	0.497	0.509	0.457	0.520	0.431	0.397	0.406	0.390	0.364	0.381	0.450	0.684	1.126	1.552	2.101	2.141	1.528	1.807	3.781	9.352	22.90	44.94	76.59	96.48	76.12	57.41	11.68	2.365	0.520	0.362	0.366	0.434	0.372	0.366	0.330	0.370
275.0	94.25	90.88	73.61	54.68	63.70	148.4	445.6	374.1	504.3	1712	5046	9999.9	7905	113.1	14.39	8.419	5.967	4.520	3.335	2.940	2.442	2.152	1.839	1.417	1.217	1.358	1.110	1.236	1.032	0.993	1.161	0.856	0.770	0.909	0.778	0.740	0.586	0.599	0.581	0.628	0.535	0.452	0.524	0.565	0.487	0.629	0.638	0.514	0.495	0.450	0.358	0.448	0.493	0.526	0.723	0.998	1.954	3.117	2.618	1.854	2.532	5.573	10.51	17.75	25.27	47.13	108.5	129.2	31.24	15.55	1.248	0.477	0.511	0.422	0.408	0.439	0.324
280.0	136.1	147.8	117.5	80.36	52.66	69.84	248.1	566.5	300.0	450.8	1307	7803	9999.9	5186	71.13	12.03	8.039	5.710	4.140	3.193	2.915	2.171	1.980	1.569	1.512	1.391	1.248	1.159	1.086	0.995	1.016	0.891	0.919	0.802	0.903	0.816	0.771	0.683	0.632	0.623	0.591	0.536	0.623	0.625	0.623	0.677	0.650	0.825	0.578	0.542	0.529	0.469	0.502	0.482	0.495	0.534	0.906	1.846	3.174	3.530	2.084	1.757	2.899	4.543	6.354	11.52	33.81	81.19	123.5	120.0	26.63	7.714	0.797	0.612	0.423	0.493	0.410
285.0	197.2	209.4	174.7	107.5	64.02	56.96	109.0	421.0	543.1	243.6	386.1	2130	9999.9	9999.9	884.9	35.50	11.16	7.107	4.868	3.683	3.179	2.278	2.275	1.813	1.565	1.435	1.330	1.259	1.202	1.071	0.899	1.026	0.911	0.963	0.870	0.884	0.783	0.811	0.643	0.660	0.686	0.651	0.637	0.641	0.707	0.733	0.780	0.854	0.817	0.699	0.612	0.558	0.503	0.492	0.490	0.504	0.607	0.913	1.631	3.239	3.537	2.567	1.578	1.711	2.048	3.317	8.346	20.14	48.60	105.5	131.4	92.94	19.75	2.959	0.602	0.522	0.514
290.0	246.1	293.2	250.8	155.6	88.59	73.56	83.37	187.0	486.2	589.3	262.5	627.2	2766	9701	9999.9	3245	49.81	10.46	6.389	4.675	3.549	2.882	2.457	2.088	1.880	1.653	1.495	1.352	1.260	1.271	1.093	0.993	0.997	1.073	0.982	1.018	0.948	0.923	0.846	0.716	0.754	0.751	0.728	0.750	0.798	0.856	0.905	1.047	1.051	0.894	0.698	0.690	0.567	0.581	0.506	0.542	0.639	0.699	0.914	1.465	2.061	3.017	3.559	3.019	1.960	1.756	2.822	5.371	11.85	26.57	49.05	77.03	95.63	74.84	56.78	13.12	2.836
295.0	300.2	355.8	323.4	211.9	120.5	92.37	102.5	137.7	244.3	575.3	726.6	412.9	808.3	2324	5790	9999.9	4157	57.62	9.179	6.269	4.636	3.912	2.980	2.410	2.312	1.895	1.548	1.555	1.413	1.325	1.120	1.068	1.141	1.124	1.084	1.143	1.153	0.997	1.000	0.807	0.762	0.800	0.793	0.813	0.889	1.098	1.026	1.117	1.141	1.083	0.803	0.799	0.788	0.717	0.629	0.600	0.648	0.790	0.883	1.041	1.170	1.564	2.138	3.937	4.863	3.361	2.200	2.483	3.779	7.168	11.96	18.13	24.38	40.50	93.28	120.9	34.76
300.0	316.8	381.9	351.6	242.7	151.6	121.5	121.6	151.6	210.5	387.0	867.3	677.3	436.0	684.6	1510	7987	9999.9	646.2	32.52	8.404	5.927	4.464	3.417	2.910	2.257	1.930	1.635	1.794	1.289	1.310	1.125	1.173	1.042	1.187	1.169	1.101	1.130	1.168	0.971	0.917	0.814	0.884	0.947	0.815	0.895	1.162	1.005	1.201	1.221	0.985	0.981	0.941	0.895	0.885	0.724	0.740	0.781	0.839	0.906	1.186	1.171	1.193	1.617	2.261	3.713	5.175	4.425	2.731	2.427	2.903	3.862	5.134	6.392	10.12	27.58	66.90	107.1
305.0	334.8	399.8	388.5	265.0	179.8	148.4	161.0	191.4	249.8	352.4	644.9	999.7	546.6	377.3	482.9	2223	9999.9	9999.9	491.0	14.86	7.395	5.078	3.762	3.102	2.564	2.137	1.761	1.665	1.491	1.351	1.281	1.285	1.109	1.204	1.213	1.042	1.098	1.162	1.006	0.943	0.938	0.852	0.950	0.877	0.961	1.297	1.212	1.231	1.325	1.166	1.084	1.021	0.925	0.927	0.927	0.841	0.962	1.012	1.154	1.266	1.331	1.351	1.681	2.024	2.409	3.592	4.916	4.739	3.476	2.495	2.305	2.368	2.572	3.241	7.040	16.34	37.91
310.0	356.4	430.7	398.3	285.7	198.7	168.7	189.6	227.0	285.3	370.3	505.0	772.9	879.6	490.5	292.9	607.5	2776	7981	7515	1834	30.10	7.134	5.030	3.754	2.893	2.588	2.207	1.883	1.711	1.470	1.442	1.268	1.191	1.187	1.196	1.195	1.014	1.112	0.941	0.990	0.864	0.890	0.922	0.956	0.995	1.175	1.262	1.338	1.410	1.148	1.077	1.009	1.089	0.925	1.010	0.989	1.014	1.253	1.268	1.408	1.427	1.605	1.782	2.029	2.185	2.702	3.334	3.979	4.473	4.685	3.535	2.322	2.048	1.917	2.582	4.587	9.376
315.0	385.8	449.6	418.2	300.4	215.7	192.4	211.8	258.7	313.2	391.7	481.0	582.3	719.5	809.6	366.9	273.7	713.7	1879	4796	9999.9	2399	31.22	6.943	5.108	3.613	3.152	2.397	1.968	1.898	1.590	1.620	1.179	1.354	1.234	1.255	1.178	1.041	1.039	1.005	1.014	0.867	0.918	0.989	1.046	1.099	1.191	1.257	1.432	1.498	1.230	1.203	1.208	1.027	1.020	1.071	1.035	1.229	1.337	1.299	1.605	1.565	1.738	1.682	2.114	2.401	2.416	2.798	2.893	3.205	3.741	4.864	4.475	2.963	1.982	1.863	2.169	2.997
320.0	399.0	506.6	466.2	337.2	239.5	205.4	232.1	277.8	329.2	407.8	496.1	558.2	595.6	756.2	603.6	250.5	274.8	496.6	1265	6896	8896	447.9	16.23	6.884	4.770	3.648	2.770	2.177	1.968	1.743	1.597	1.421	1.388	1.262	1.088	1.160	1.203	1.273	0.981	0.959	0.964	0.884	0.896	0.949	1.074	1.293	1.411	1.675	1.525	1.333	1.195	1.074	1.167	1.046	1.176	1.031	1.260	1.477	1.468	1.588	1.677	1.922	1.810	2.148	2.360	2.290	2.417	2.797	2.726	2.842	3.359	4.203	4.323	3.444	2.085	1.713	1.721
325.0	421.3	589.5	566.8	400.2	265.3	224.2	241.3	288.6	339.2	428.9	508.4	564.9	563.6	584.1	710.3	396.1	203.6	204.4	341.6	1984	8113	3970	61.96	9.404	6.227	4.297	2.961	2.718	2.006	2.033	1.671	1.595	1.389	1.298	1.277	1.151	1.240	1.121	1.114	1.000	0.987	0.960	0.948	1.049	1.215	1.398	1.597	1.906	1.911	1.585	1.470	1.271	1.320	1.271	1.049	1.283	1.224	1.612	1.450	1.684	1.579	1.890	1.979	2.054	2.318	2.379	2.611	2.813	2.686	2.653	2.873	3.117	3.855	4.468	3.305	2.239	1.607
330.0	458.6	642.7	687.3	506.1	328.4	262.9	266.2	297.7	354.6	436.7	520.0	573.2	567.4	525.2	543.9	550.2	328.4	168.3	151.7	497.7	2328	5330	5424	1281	20.93	5.616	4.130	3.300	2.398	2.256	1.934	1.700	1.522	1.294	1.314	1.172	1.124	1.141	1.062	1.011	1.050	0.975	1.056	1.116	1.261	1.525	1.711	1.999	2.085	1.864	1.649	1.593	1.503	1.280	1.228	1.396	1.350	1.568	1.471	1.648	1.693	1.946	2.165	2.255	2.453	2.427	2.853	2.831	2.889	2.749	2.924	2.806	2.889	3.132	3.314	3.429	3.155
335.0	501.7	720.3	776.1	596.9	403.2	310.3	291.0	318.8	362.5	450.5	525.4	577.5	575.9	534.3	468.6	436.9	505.8	274.9	136.4	179.9	568.1	1278	4046	7557	422.0	20.40	5.779	3.965	2.891	2.687	1.999	1.861	1.673	1.457	1.394	1.289	1.101	0.988	1.068	1.035	0.934	0.919	1.108	1.098	1.183	1.779	1.816	2.124	2.355	2.179	1.874	1.804	1.739	1.436	1.307	1.376	1.470	1.589	1.547	1.712	1.680	1.998	2.086	2.223	2.391	2.428	2.792	2.850	3.045	2.693	2.800	2.766	2.740	2.713	2.675	2.537	3.299
340.0	531.5	725.1	816.0	647.7	440.1	336.3	312.5	318.5	370.2	450.6	525.7	572.7	577.9	541.4	457.5	384.2	432.4	422.8	184.6	127.0	186.0	328.0	1103	5722	6288	350.8	10.06	4.582	3.657	2.873	2.171	1.900	1.797	1.590	1.453	1.340	1.102	1.148	1.244	0.915	0.973	1.078	1.108	1.127	1.269	1.623	1.842	2.102	2.588	2.318	2.091	1.913	1.847	1.577	1.408	1.506	1.537	1.594	1.693	1.818	1.707	2.049	2.255	2.210	2.475	2.640	2.572	2.753	2.773	2.845	2.896	2.725	2.680	2.593	2.549	2.169	2.712
345.0	502.4	708.4	799.6	652.7	466.4	353.7	326.7	325.9	374.5	446.2	512.7	564.6	577.3	538.3	459.5	373.8	341.6	431.8	303.3	136.5	115.5	126.0	286.0	1731	6477	3268	50.53	6.528	4.155	3.578	2.575	1.990	1.942	1.575	1.433	1.336	1.093	1.217	1.216	1.058	0.920	1.011	1.013	1.256	1.324	1.571	1.685	2.181	2.287	2.185	2.014	2.161	1.787	1.686	1.412	1.380	1.542	1.485	1.757	1.694	1.896	2.105	2.136	2.341	2.420	2.615	2.600	2.934	2.843	2.800	2.720	2.827	2.784	2.560	2.375	2.446	2.397
350.0	493.3	680.7	767.3	665.1	495.1	372.8	341.9	344.8	378.7	437.4	498.6	543.9	551.8	524.5	457.4	379.1	321.4	323.5	358.7	255.5	130.8	100.5	116.2	427.2	1930	4269	4194	976.4	16.35	4.342	3.191	2.335	1.946	1.683	1.457	1.283	1.177	1.115	1.083	0.948	0.929	0.962	0.993	1.122	1.266	1.467	1.719	2.116	2.200	2.129	2.019	2.121	2.061	1.862	1.633	1.507	1.672	1.610	1.780	1.728	1.726	1.999	2.109	2.244	2.254	2.471	2.526	2.617	2.701	2.798	2.787	2.831	2.625	2.644	2.472	2.494	2.257
355.0	465.4	635.5	737.3	651.4	511.5	396.3	375.5	368.4	394.7	433.9	489.2	523.8	532.0	514.8	457.1	388.7	328.7	294.3	288.5	343.4	232.2	123.6	100.6	148.9	469.9	1033	3235	5593	375.5	16.04	4.040	2.924	2.426	1.619	1.502	1.370	1.243	1.037	1.071	0.926	0.975	0.867	1.028	1.033	1.126	1.451	1.648	2.042	2.124	1.989	1.968	2.117	1.969	1.907	1.675	1.683	1.742	1.679	1.818	1.849	1.892	1.948	2.144	2.230	2.024	2.420	2.492	2.429	2.614	2.478	2.904	2.749	2.570	2.618	2.525	2.494	2.357
360.0	431.2	602.9	715.1	648.3	531.2	440.3	394.6	374.5	403.4	443.6	489.9	513.2	516.5	497.3	454.0	392.9	345.1	305.1	269.2	299.1	331.6	181.3	114.3	102.1	154.6	266.4	895.6	4513	3222	300.5	7.158	3.526	2.516	2.088	1.616	1.409	1.323	1.104	0.980	0.989	0.977	0.883	0.978	0.947	1.076	1.291	1.505	1.921	2.129	1.905	1.936	2.158	2.043	2.010	1.926	1.760	1.790	1.839	1.775	1.860	2.007	1.870	2.003	2.092	2.272	2.312	2.445	2.541	2.480	2.729	2.916	2.691	2.393	2.741	2.452	2.500	2.342
365.0	417.4	584.5	688.6	624.8	542.4	453.6	414.4	387.2	403.6	444.5	478.5	504.3	503.0	492.0	453.2	400.8	357.4	316.9	275.2	263.8	324.1	275.9	145.6	108.9	95.70	105.4	233.4	1409	4957	2915	45.45	4.922	3.018	2.362	1.795	1.498	1.271	1.323	1.052	0.950	1.003	0.992	1.028	1.084	1.056	1.301	1.611	1.962	1.976	1.905	1.771	2.065	2.069	2.053	2.024	1.822	1.868	1.840	2.008	1.954	1.974	1.921	2.009	2.261	2.380	2.373	2.405	2.631	2.506	2.374	2.676	2.883	2.493	2.680	2.323	2.562	2.530
370.0	402.4	561.0	645.7	614.2	543.2	487.6	439.5	412.7	420.8	457.3	484.8	496.5	497.9	482.4	451.3	403.0	371.4	337.3	301.6	274.0	272.2	304.7	249.3	145.3	104.8	86.20	97.28	349.2	1539	3750	3615	806.6	13.24	3.151	2.371	1.722	1.537	1.408	1.097	1.037	1.030	1.039	0.956	1.131	1.118	1.285	1.464	1.731	1.857	1.886	1.752	2.059	2.036	2.120	2.084	1.998	1.921	2.017	2.167	2.003	2.137	2.115	2.199	2.260	2.230	2.380	2.378	2.456	2.497	2.404	2.523	2.684	2.510	2.538	2.488	2.488	2.531
375.0	403.3	530.3	616.0	616.5	550.4	519.8	463.3	429.8	437.0	461.5	485.4	496.0	498.3	472.4	446.4	412.2	384.1	353.6	322.4	292.7	269.7	266.8	298.3	240.9	136.5	101.4	84.38	124.3	374.1	914.4	2922	4633	316.2	12.57	3.093	2.159	1.769	1.612	1.275	1.159	1.013	1.093	0.935	1.015	1.168	1.258	1.327	1.769	1.749	1.863	1.840	2.071	2.069	2.157	2.175	1.882	2.014	2.082	2.184	2.135	2.247	1.992	2.267	2.265	2.164	2.488	2.321	2.314	2.381	2.383	2.530	2.440	2.659	2.527	2.367	2.661	2.694
380.0	401.0	514.7	612.4	612.5	562.5	525.0	485.5	443.5	451.6	473.3	485.7	490.7	487.1	467.8	445.5	413.9	388.7	362.9	335.1	308.1	278.7	257.7	269.7	297.6	189.9	121.5	93.22	85.64	124.4	233.6	817.4	3762	2745	246.9	6.567	2.790	2.088	1.711	1.342	1.195	1.225	1.150	1.007	0.940	1.195	1.277	1.302	1.821	1.701	1.718	1.792	1.953	2.187	2.029	2.194	1.907	2.081	2.095	2.094	2.128	2.236	2.051	2.269	2.231	2.195	2.244	2.325	2.216	2.436	2.410	2.406	2.409	2.331	2.509	2.334	2.537	2.507
385.0	363.7	517.1	598.0	600.5	577.9	531.3	501.0	457.9	466.8	477.6	486.1	486.4	478.6	463.1	443.8	410.6	392.6	368.2	346.7	320.5	293.4	266.8	253.8	283.6	256.9	152.9	110.1	88.31	79.95	88.86	209.4	1153	3765	2388	37.84	3.818	2.627	1.872	1.487	1.324	1.207	1.037	1.156	1.000	1.079	1.253	1.290	1.746	1.756	1.597	1.748	2.049	2.142	2.070	2.110	2.047	2.133	2.140	2.057	2.321	2.193	2.239	2.316	2.349	2.030	2.355	2.148	2.195	2.588	2.431	2.335	2.678	2.397	2.498	2.397	2.410	2.569
390.0	381.7	491.2	575.2	594.1	575.9	550.6	517.2	479.7	473.3	487.9	486.9	483.7	474.1	462.1	435.8	408.9	394.0	372.0	354.3	331.7	308.4	284.4	260.8	251.8	266.2	232.3	149.0	106.9	85.44	71.36	82.84	284.6	1126	2631	2591	631.0	11.75	2.456	1.831	1.530	1.288	1.089	1.120	1.118	1.218	1.292	1.329	1.677	1.662	1.664	1.742	2.136	2.273	1.984	2.227	2.158	2.258	2.249	2.218	2.277	2.172	2.220	2.157	2.401	2.264	2.351	2.251	2.355	2.459	2.415	2.240	2.582	2.323	2.552	2.511	2.502	2.468
395.0	372.0	492.3	584.0	595.4	588.9	563.5	525.6	490.5	481.4	494.3	488.0	481.5	476.6	456.6	432.4	407.5	388.9	369.0	354.5	335.6	320.6	295.9	271.5	250.0	241.1	254.4	221.8	139.4	105.4	84.50	70.06	99.14	274.1	632.6	1874	3161	268.0	12.87	2.405	1.845	1.375	1.314	1.207	1.126	1.257	1.377	1.427	1.638	1.790	1.759	1.636	1.965	2.189	2.119	2.179	2.194	2.199	2.410	2.433	2.414	2.246	2.335	2.408	2.319	2.187	2.226	2.274	2.192	2.392	2.526	2.263	2.279	2.433	2.481	2.504	2.509	2.366
400.0	362.4	491.1	566.4	603.7	591.7	555.2	543.5	490.7	494.9	497.2	488.1	478.9	469.0	447.3	427.0	398.2	385.7	364.9	352.3	340.2	319.3	303.3	282.0	259.0	235.9	235.2	254.1	186.9	125.3	98.44	75.60	65.12	90.27	161.6	504.9	2331	2249	224.7	6.047	2.024	1.606	1.374	1.313	1.205	1.219	1.424	1.420	1.741	1.663	1.646	1.650	2.046	2.097	2.173	2.314	2.239	2.177	2.336	2.301	2.316	2.230	2.384	2.273	2.288	2.356	2.065	2.314	2.305	2.289	2.315	2.196	2.378	2.325	2.421	2.687	2.366	2.546
405.0	376.9	493.0	563.1	590.1	596.3	562.0	542.6	494.9	501.5	500.0	495.9	481.8	459.6	443.6	419.7	393.3	377.2	365.5	352.6	338.6	323.6	304.1	288.6	266.1	242.8	226.9	239.9	237.5	154.4	113.1	86.57	66.99	56.76	61.17	130.6	674.0	2373	1990	34.86	3.325	1.876	1.417	1.415	1.237	1.234	1.460	1.408	1.643	1.584	1.609	1.718	1.961	2.141	2.101	2.351	2.239	2.388	2.201	2.137	2.314	2.052	2.483	2.360	2.309	2.317	2.114	2.333	2.290	2.128	2.254	2.432	2.307	2.209	2.204	2.493	2.385	2.405
410.0	382.6	469.2	546.9	580.9	582.0	566.1	550.9	501.1	497.9	498.4	488.7	479.4	458.8	436.8	410.9	381.9	369.2	354.0	346.0	333.9	319.3	303.3	289.7	271.3	251.1	230.6	218.8	231.9	209.0	146.5	103.0	78.31	58.00	46.95	52.35	167.2	671.1	1710	1857	542.1	11.83	1.936	1.557	1.297	1.265	1.459	1.381	1.651	1.611	1.637	1.717	2.118	2.030	2.244	2.318	2.287	2.360	2.255	2.297	2.263	2.424	2.445	2.443	2.310	2.340	2.189	2.252	2.109	2.140	2.279	2.364	2.375	2.293	2.254	2.363	2.349	2.434
