Sample:	'1
File name:	H2025091101ÅË×¯¶þ´åÇÅ.FD3
Run date:	'10:10:33, 09/11/2025
Operator:	Administrator
Comment:	'

Instrument
Model:	F-2700 FL Spectrophotometer
Serial number:	23C7-003
ROM Version:	4J14000 07

Instrument parameters
Measurement type:	3-D scan
Data mode:	Fluorescence
EX  Start WL:	220.0 nm
EX  End WL:	600.0 nm
EX Sampling interval:	5.0 nm
EM  Start WL:	230.0 nm
EM  End WL:	650.0 nm
EM Sampling interval:	5.0 nm
Scan speed:	12000 nm/min
EX Slit:	5.0 nm
EM Slit:	5.0 nm
PMT Voltage:	700 V
Response:	Auto 
Corrected spectra:	Off
Contour interval:	50.000

Peak integration
Integration method:	Rectangular
Sensitivity:	1
Threshold:	1.000

Peaks
No.	ApexEX/EM(nm)	Height(Data)
1	225.0/310.0	274.2
2	225.0/585.0	32.75
3	230.0/340.0	361.8
4	230.0/350.0	363.3
5	230.0/500.0	195.9
6	230.0/600.0	29.51
7	230.0/625.0	26.46
8	235.0/510.0	183.5
9	240.0/260.0	222.5
10	240.0/405.0	488.0
11	240.0/525.0	153.9
12	245.0/270.0	223.1
13	245.0/395.0	492.0
14	245.0/410.0	483.1
15	245.0/535.0	138.2
16	250.0/275.0	280.4
17	250.0/400.0	492.1
18	250.0/415.0	483.0
19	250.0/545.0	113.6
20	255.0/280.0	362.8
21	255.0/410.0	482.7
22	255.0/435.0	463.1
23	255.0/560.0	102.1
24	260.0/285.0	369.0
25	260.0/575.0	83.99
26	265.0/585.0	79.37
27	270.0/300.0	862.5
28	270.0/395.0	467.6
29	270.0/595.0	79.92
30	275.0/305.0	1013
31	275.0/385.0	462.9
32	275.0/610.0	73.17
33	280.0/310.0	904.4
34	280.0/625.0	62.20
35	285.0/635.0	40.97
36	290.0/325.0	575.8
37	300.0/335.0	405.8
38	305.0/345.0	372.1
39	310.0/350.0	337.4
40	315.0/355.0	340.1
41	320.0/360.0	349.5
42	325.0/370.0	330.6
43	330.0/375.0	320.3
44	335.0/380.0	321.0
45	350.0/400.0	258.4
46	355.0/405.0	244.7
47	435.0/510.0	24.10
48	445.0/525.0	16.70
49	470.0/560.0	5.586
50	505.0/275.0	1.990
51	510.0/280.0	2.607
52	520.0/285.0	2.466
53	525.0/290.0	2.571
54	535.0/295.0	3.797
55	545.0/300.0	4.779
56	550.0/305.0	5.488
57	560.0/310.0	4.914
58	570.0/315.0	4.530
59	575.0/290.0	35.57
60	575.0/320.0	4.285
61	580.0/325.0	3.992

Data points
	220.0	225.0	230.0	235.0	240.0	245.0	250.0	255.0	260.0	265.0	270.0	275.0	280.0	285.0	290.0	295.0	300.0	305.0	310.0	315.0	320.0	325.0	330.0	335.0	340.0	345.0	350.0	355.0	360.0	365.0	370.0	375.0	380.0	385.0	390.0	395.0	400.0	405.0	410.0	415.0	420.0	425.0	430.0	435.0	440.0	445.0	450.0	455.0	460.0	465.0	470.0	475.0	480.0	485.0	490.0	495.0	500.0	505.0	510.0	515.0	520.0	525.0	530.0	535.0	540.0	545.0	550.0	555.0	560.0	565.0	570.0	575.0	580.0	585.0	590.0	595.0	600.0
230.0	24.11	322.7	1226	514.6	29.36	5.347	4.516	3.408	3.351	2.780	2.783	2.417	2.387	1.936	1.594	1.454	1.249	1.141	1.125	0.981	0.919	0.929	0.832	0.748	0.719	0.644	0.655	0.616	0.552	0.578	0.529	0.527	0.496	0.433	0.404	0.395	0.362	0.370	0.379	0.316	0.355	0.331	0.350	0.348	0.299	0.303	0.558	2.423	5.198	4.906	2.123	0.535	0.260	0.246	0.249	0.233	0.244	0.245	0.281	0.265	0.245	0.252	0.237	0.294	0.268	0.273	0.271	0.265	0.277	0.276	0.238	0.251	0.283	0.242	0.247	0.267	0.258
235.0	53.29	95.93	630.6	1470	440.7	47.41	4.643	3.550	3.668	3.416	2.726	2.657	2.291	1.952	1.740	1.625	1.376	1.140	1.112	0.964	0.798	0.952	0.777	0.700	0.668	0.698	0.634	0.585	0.547	0.643	0.605	0.516	0.491	0.546	0.383	0.373	0.429	0.347	0.295	0.406	0.321	0.288	0.380	0.318	0.382	0.370	0.348	0.807	1.954	3.926	5.592	6.567	3.955	0.979	0.274	0.221	0.235	0.252	0.269	0.257	0.246	0.252	0.235	0.272	0.252	0.261	0.232	0.289	0.260	0.267	0.251	0.343	0.245	0.357	0.268	0.239	0.298
240.0	69.09	73.70	176.8	977.7	1778	362.5	21.98	4.759	4.306	4.164	3.267	2.946	2.221	1.974	1.646	1.660	1.174	1.142	1.194	0.985	0.910	0.888	0.828	0.804	0.676	0.736	0.704	0.529	0.577	0.640	0.608	0.501	0.539	0.496	0.390	0.423	0.431	0.325	0.310	0.364	0.416	0.291	0.367	0.380	0.399	0.527	0.406	0.489	0.636	1.189	2.742	7.149	10.22	7.245	2.635	0.514	0.301	0.246	0.303	0.302	0.241	0.238	0.267	0.231	0.225	0.235	0.272	0.302	0.248	0.258	0.286	0.274	0.210	0.276	0.256	0.265	0.257
245.0	49.19	117.3	87.72	285.6	1453	1970	278.1	11.03	5.041	3.416	3.305	3.108	2.730	1.932	1.682	1.921	1.500	1.044	1.142	0.963	0.862	0.866	0.809	0.777	0.864	0.775	0.835	0.552	0.539	0.591	0.561	0.599	0.472	0.402	0.369	0.356	0.417	0.416	0.316	0.331	0.334	0.336	0.327	0.317	0.357	0.444	0.536	0.678	0.495	0.439	0.844	2.353	6.653	10.63	11.09	6.354	1.902	0.324	0.237	0.291	0.237	0.239	0.258	0.269	0.221	0.269	0.233	0.296	0.258	0.231	0.377	0.261	0.265	0.247	0.281	0.265	0.316
250.0	25.86	78.22	144.4	134.4	412.2	1400	2094	935.4	71.01	5.029	3.918	3.556	2.973	2.448	2.037	1.744	1.579	1.337	1.240	1.171	1.027	0.906	0.955	0.894	0.785	0.766	0.752	0.683	0.596	0.695	0.611	0.617	0.500	0.413	0.379	0.332	0.361	0.346	0.305	0.374	0.345	0.319	0.316	0.332	0.299	0.340	0.361	0.604	0.729	0.659	0.525	0.781	1.808	3.503	6.636	9.903	12.51	10.84	5.957	1.920	0.367	0.309	0.260	0.294	0.263	0.259	0.280	0.279	0.226	0.217	0.311	0.251	0.288	0.275	0.255	0.218	0.290
255.0	18.67	28.30	89.05	199.8	171.6	336.5	1150	2909	1376	77.31	5.941	4.310	3.174	2.683	2.196	1.873	1.632	1.398	1.429	1.431	0.957	0.788	1.102	0.868	0.858	0.690	0.729	0.731	0.694	0.655	0.501	0.719	0.514	0.534	0.461	0.357	0.412	0.366	0.304	0.340	0.355	0.288	0.345	0.277	0.286	0.244	0.235	0.329	0.465	0.643	0.916	0.995	0.930	1.037	1.753	2.518	4.842	11.35	18.29	17.90	9.292	2.234	0.308	0.287	0.285	0.273	0.262	0.225	0.227	0.311	0.346	0.232	0.280	0.246	0.278	0.259	0.255
260.0	16.30	18.16	31.72	147.7	222.5	119.8	306.4	1846	3494	1026	38.13	4.886	3.510	2.971	2.330	2.285	1.813	1.481	1.494	1.360	1.145	0.889	0.948	0.816	0.843	0.839	0.798	0.718	0.683	0.649	0.584	0.557	0.486	0.433	0.460	0.392	0.404	0.410	0.304	0.378	0.380	0.300	0.323	0.361	0.317	0.262	0.302	0.246	0.265	0.393	0.577	1.153	1.359	1.005	0.671	0.799	1.327	3.282	8.356	18.36	24.58	18.42	6.412	0.958	0.319	0.312	0.252	0.243	0.303	0.344	0.275	0.262	0.320	0.283	0.283	0.289	0.251
265.0	17.24	15.05	15.50	59.58	217.3	184.0	95.12	521.8	2696	3708	186.3	14.15	4.939	3.504	3.019	2.097	1.834	1.671	1.514	1.343	1.145	1.015	1.069	1.085	0.929	0.762	0.718	0.725	0.715	0.606	0.754	0.581	0.536	0.439	0.448	0.381	0.396	0.417	0.352	0.335	0.305	0.293	0.334	0.334	0.279	0.326	0.261	0.292	0.330	0.333	0.282	0.631	1.291	1.548	1.167	0.589	0.545	0.949	2.163	5.699	14.55	26.43	26.27	14.82	3.388	0.439	0.266	0.311	0.281	0.299	0.234	0.314	0.343	0.279	0.298	0.316	0.296
270.0	19.04	16.40	14.14	21.14	84.80	223.1	191.4	154.9	754.6	2682	3924	690.8	51.16	5.260	3.654	2.588	2.048	1.899	1.649	1.455	1.292	1.146	1.093	1.062	0.847	0.877	0.737	0.735	0.668	0.661	0.724	0.735	0.511	0.474	0.482	0.423	0.435	0.412	0.359	0.338	0.352	0.366	0.361	0.346	0.318	0.292	0.264	0.304	0.258	0.282	0.257	0.329	0.530	0.845	1.349	1.401	1.206	0.756	0.826	1.559	3.743	8.176	14.95	23.17	25.37	18.28	10.16	2.797	0.472	0.277	0.281	0.334	0.274	0.283	0.292	0.325	0.293
275.0	31.53	27.33	20.72	15.00	29.39	84.30	280.4	228.3	209.2	653.5	2209	5440	1011	55.86	5.365	3.602	2.532	2.244	1.754	1.407	1.236	1.133	1.074	1.040	0.745	0.810	0.823	0.877	0.751	0.744	0.622	0.656	0.747	0.457	0.524	0.461	0.392	0.427	0.399	0.399	0.354	0.364	0.344	0.443	0.312	0.362	0.331	0.351	0.380	0.258	0.242	0.314	0.340	0.419	0.555	0.831	1.451	1.990	1.419	0.875	1.135	2.192	3.731	5.678	9.432	21.21	37.36	26.36	14.47	2.575	0.378	0.324	0.316	0.300	0.271	0.305	0.292
280.0	42.12	39.84	32.20	20.10	20.63	35.20	153.1	362.8	183.9	196.3	615.6	3615	5742	728.8	23.95	4.754	3.013	2.605	2.046	1.689	1.290	1.429	1.219	1.133	0.802	0.889	0.896	0.831	0.719	0.740	0.614	0.646	0.630	0.553	0.527	0.433	0.420	0.464	0.382	0.450	0.367	0.337	0.313	0.408	0.359	0.378	0.362	0.355	0.419	0.310	0.255	0.394	0.321	0.275	0.439	0.441	0.731	1.577	2.607	1.894	1.019	0.909	1.215	1.684	2.592	6.011	16.28	33.30	46.12	23.69	7.914	0.991	0.330	0.301	0.311	0.269	0.376
285.0	60.06	64.97	54.63	36.74	25.97	28.29	67.71	287.9	369.0	155.8	226.0	1077	4878	5127	103.1	9.924	4.187	2.829	2.225	1.902	1.611	1.733	1.230	1.119	0.986	0.973	0.914	0.875	0.726	0.701	0.643	0.584	0.627	0.544	0.518	0.504	0.463	0.467	0.453	0.365	0.355	0.420	0.335	0.365	0.391	0.467	0.439	0.374	0.473	0.331	0.362	0.335	0.311	0.282	0.364	0.383	0.476	0.743	1.620	2.425	2.466	1.322	0.878	1.000	1.173	2.010	4.440	9.987	25.52	45.23	29.66	17.80	3.674	0.502	0.430	0.301	0.317
290.0	103.0	126.4	112.4	74.70	47.33	43.44	59.89	141.1	365.6	446.2	288.8	437.7	1472	4119	4751	1335	29.11	4.372	2.998	2.331	1.817	1.853	1.349	1.292	1.134	0.979	0.962	0.896	0.836	0.841	0.706	0.591	0.610	0.593	0.558	0.509	0.540	0.458	0.451	0.396	0.389	0.471	0.417	0.417	0.467	0.555	0.540	0.596	0.578	0.483	0.430	0.509	0.366	0.366	0.376	0.446	0.482	0.562	0.892	1.198	2.010	2.571	2.562	1.973	1.391	1.588	2.021	3.259	6.923	13.91	20.94	35.57	33.18	32.31	11.80	3.485	0.491
295.0	142.3	193.7	173.5	116.4	71.14	65.46	81.81	123.0	230.2	531.1	677.2	466.5	622.4	1109	2722	6184	574.6	32.29	4.150	3.189	2.449	1.844	1.631	1.376	1.198	1.039	1.001	0.962	0.831	0.913	0.690	0.670	0.692	0.563	0.629	0.572	0.628	0.653	0.450	0.414	0.492	0.490	0.470	0.536	0.629	0.652	0.689	0.817	0.770	0.664	0.511	0.539	0.524	0.577	0.501	0.522	0.530	0.715	0.756	0.916	1.237	1.505	2.448	3.797	3.624	2.644	2.072	2.387	3.341	4.451	5.849	8.953	11.36	29.15	51.75	29.85	17.87
300.0	165.3	232.5	228.1	156.7	91.64	82.29	98.86	137.1	217.8	420.0	862.5	704.2	509.9	462.1	756.0	3965	4813	442.5	14.96	3.962	3.044	2.129	1.855	1.537	1.298	1.201	1.014	0.963	0.887	0.967	0.902	0.807	0.652	0.612	0.603	0.620	0.602	0.638	0.509	0.402	0.444	0.470	0.545	0.560	0.664	0.718	0.808	0.924	0.937	0.717	0.686	0.571	0.617	0.530	0.535	0.642	0.613	0.678	0.885	0.974	1.130	1.439	1.998	2.664	3.949	4.779	3.670	2.625	2.508	2.737	2.619	2.932	3.305	7.718	19.69	41.27	63.34
305.0	178.7	252.5	259.7	168.1	112.7	100.2	118.8	160.7	238.2	382.1	718.8	1013	616.7	360.3	282.0	1095	4768	4057	64.71	7.291	3.831	2.558	2.223	1.738	1.389	1.282	1.131	0.991	0.994	1.017	0.869	0.791	0.656	0.635	0.614	0.651	0.665	0.602	0.511	0.530	0.440	0.489	0.571	0.616	0.643	0.784	0.881	0.952	1.046	0.824	0.725	0.703	0.706	0.545	0.550	0.700	0.658	0.770	0.924	1.101	1.181	1.392	2.009	2.293	3.093	4.328	5.488	4.617	3.102	2.640	2.171	1.782	1.602	2.502	5.072	11.41	30.66
310.0	189.1	274.2	265.4	184.2	124.5	109.9	134.9	183.5	258.8	388.9	585.5	864.1	904.4	456.5	207.0	317.7	1285	3647	4208	1157	20.92	3.513	2.804	2.274	1.631	1.542	1.237	1.145	1.004	0.967	0.924	0.854	0.766	0.646	0.612	0.617	0.658	0.600	0.541	0.486	0.523	0.498	0.580	0.624	0.696	0.862	0.916	1.009	1.088	0.913	0.718	0.732	0.722	0.662	0.666	0.706	0.836	0.835	1.050	1.177	1.373	1.659	1.985	2.263	2.690	3.256	4.058	4.897	4.914	4.259	2.902	1.900	1.451	1.486	1.913	3.182	7.629
315.0	190.1	265.3	268.7	193.4	137.1	124.2	143.2	193.9	265.5	384.3	527.8	659.5	766.0	725.0	266.5	163.1	348.0	870.1	2387	5449	417.9	22.82	4.023	2.645	2.112	1.639	1.554	1.255	1.272	1.058	0.928	0.873	0.756	0.710	0.626	0.685	0.577	0.545	0.577	0.572	0.538	0.608	0.571	0.586	0.597	0.773	0.924	1.048	1.067	0.865	0.730	0.673	0.760	0.766	0.769	0.776	0.852	1.065	0.968	1.155	1.348	1.783	1.861	2.062	2.597	2.711	3.177	3.533	3.639	4.301	4.530	3.218	1.965	1.476	1.262	1.501	2.374
320.0	186.9	277.5	287.6	197.6	141.5	131.9	147.0	196.0	266.0	373.3	500.0	593.4	606.6	693.0	455.2	161.3	151.4	242.1	610.8	3401	4858	334.3	10.88	3.219	2.464	1.895	1.452	1.352	1.298	1.046	0.874	0.899	0.913	0.863	0.726	0.635	0.550	0.585	0.469	0.613	0.514	0.503	0.653	0.610	0.664	0.746	0.912	1.018	1.155	0.834	0.839	0.874	0.771	0.703	0.709	0.787	0.754	1.014	1.024	1.176	1.336	1.668	1.772	2.081	2.420	2.552	2.884	3.010	3.135	3.260	3.745	4.285	3.716	1.969	1.354	1.247	1.263
325.0	184.1	283.2	297.0	212.5	145.9	134.9	154.8	198.9	255.9	362.5	476.2	550.5	541.8	517.9	575.8	268.1	126.2	113.5	174.4	907.6	4070	3147	50.84	6.096	3.025	2.373	1.769	1.517	1.383	1.184	0.964	0.893	0.836	0.792	0.715	0.668	0.704	0.624	0.576	0.551	0.537	0.492	0.536	0.668	0.699	0.843	0.964	1.072	1.209	0.996	0.746	0.847	0.819	0.734	0.778	0.749	0.771	1.070	1.056	1.247	1.355	1.539	1.837	1.994	2.352	2.461	2.663	2.657	2.786	2.821	2.680	2.995	3.992	3.784	2.357	1.416	1.101
330.0	183.5	290.6	326.7	249.7	178.4	151.3	164.6	197.2	257.2	347.0	445.0	514.6	508.5	431.6	412.9	427.4	240.9	110.8	94.69	242.1	1077	2934	3491	1074	17.80	3.174	2.285	1.837	1.451	1.252	1.151	1.032	0.900	0.807	0.739	0.687	0.674	0.578	0.523	0.534	0.512	0.542	0.534	0.612	0.736	0.867	1.057	1.156	1.354	1.124	0.940	0.912	0.895	0.834	0.907	0.842	0.911	1.037	1.125	1.236	1.310	1.605	1.763	1.912	2.265	2.513	2.549	2.589	2.687	2.671	2.424	2.392	2.461	2.998	3.079	3.108	2.322
335.0	188.5	289.8	344.8	281.4	216.2	173.4	181.0	211.4	255.2	335.1	416.6	483.6	481.0	407.8	335.0	329.1	405.8	213.6	102.9	109.4	282.3	699.4	1937	5120	359.1	21.18	3.171	2.399	1.692	1.505	1.300	1.096	1.009	0.903	0.749	0.815	0.691	0.550	0.495	0.536	0.533	0.590	0.549	0.641	0.788	0.871	0.980	1.302	1.280	1.246	1.085	1.156	1.165	1.099	1.020	0.958	1.023	0.989	1.242	1.256	1.481	1.661	1.722	1.703	2.023	2.131	2.471	2.472	2.621	2.388	2.377	2.224	2.207	2.045	2.152	2.690	3.307
340.0	186.7	302.6	361.8	310.0	238.1	195.5	196.4	220.0	257.5	325.7	399.5	460.7	466.5	405.7	327.8	278.1	344.0	359.1	150.3	101.1	121.6	201.0	502.7	3085	4310	310.5	11.64	2.975	2.019	1.882	1.349	1.199	1.013	0.820	0.794	0.716	0.631	0.599	0.528	0.534	0.542	0.492	0.574	0.651	0.747	0.828	1.063	1.330	1.247	1.294	1.128	1.275	1.123	1.129	1.071	1.042	1.198	1.184	1.153	1.306	1.338	1.520	1.674	1.759	1.994	2.094	2.294	2.311	2.427	2.212	2.398	2.327	2.220	2.012	1.874	1.949	2.495
345.0	183.0	289.7	355.4	336.9	258.5	222.8	211.4	228.9	266.1	319.1	390.1	442.7	453.1	405.1	340.9	278.8	274.0	372.1	271.1	128.3	102.7	104.9	156.5	824.7	3375	2782	238.7	5.988	2.552	1.984	1.625	1.399	0.971	0.804	0.773	0.651	0.747	0.669	0.575	0.525	0.563	0.493	0.605	0.656	0.820	0.844	0.996	1.326	1.192	1.422	1.168	1.278	1.238	1.184	1.180	1.166	1.233	1.217	1.338	1.276	1.284	1.554	1.766	1.717	1.935	2.073	2.257	2.203	2.549	2.294	2.373	2.370	2.147	1.990	1.984	1.897	1.978
350.0	178.3	287.1	363.3	352.1	301.8	266.3	252.0	251.6	278.1	323.9	383.2	430.6	438.6	403.5	353.4	300.6	271.7	287.5	337.4	257.8	143.3	111.0	102.1	232.3	889.6	2345	2954	980.5	17.11	2.981	2.078	1.579	1.160	0.963	0.795	0.711	0.816	0.678	0.620	0.534	0.528	0.582	0.598	0.638	0.773	0.889	0.981	1.266	1.324	1.379	1.319	1.338	1.313	1.405	1.296	1.216	1.309	1.374	1.361	1.405	1.482	1.551	1.793	1.804	1.841	2.077	2.196	2.205	2.356	2.312	2.369	2.384	2.205	2.105	2.032	2.078	2.000
355.0	184.5	284.5	354.4	367.3	339.1	307.3	293.5	286.9	296.9	340.6	390.1	416.1	429.1	413.7	371.9	328.7	301.3	282.7	282.3	340.1	265.2	151.5	116.5	122.6	245.8	562.1	1442	3790	1452	21.69	2.985	1.986	1.362	1.228	0.982	0.768	0.852	0.647	0.568	0.608	0.572	0.615	0.579	0.686	0.786	0.846	0.919	1.321	1.313	1.355	1.376	1.359	1.368	1.523	1.468	1.343	1.423	1.457	1.543	1.488	1.504	1.613	1.651	1.859	2.010	2.110	2.156	2.107	2.122	2.199	2.424	2.447	2.346	2.290	2.349	2.102	2.164
360.0	177.0	276.5	360.4	381.4	358.2	344.3	327.8	316.5	324.3	358.3	395.5	422.7	428.1	419.9	383.6	352.0	323.6	298.0	281.2	303.1	349.5	218.3	143.0	114.9	117.2	166.0	371.6	2077	3909	310.3	13.50	2.466	1.831	1.398	1.096	0.870	0.842	0.842	0.667	0.734	0.613	0.593	0.614	0.690	0.679	0.862	0.899	1.247	1.422	1.351	1.316	1.586	1.477	1.575	1.585	1.504	1.549	1.692	1.672	1.591	1.705	1.855	1.686	1.809	1.992	2.005	2.088	2.196	2.203	2.147	2.605	2.570	2.305	2.315	2.490	2.483	2.507
365.0	189.0	279.9	362.4	391.6	383.2	374.4	358.9	344.4	349.7	376.7	407.9	429.9	439.9	423.1	400.0	370.3	342.0	318.5	297.4	286.1	338.9	315.0	183.9	130.4	103.9	92.24	120.5	544.8	2635	2656	251.6	5.860	2.376	1.692	1.208	1.012	0.844	0.886	0.634	0.618	0.533	0.715	0.588	0.728	0.685	0.916	0.998	1.229	1.387	1.392	1.437	1.617	1.827	1.686	1.624	1.506	1.701	1.767	1.718	1.661	1.849	1.904	1.866	1.854	1.896	2.124	2.039	2.141	2.494	2.133	2.531	2.524	2.484	2.550	2.556	2.644	2.631
370.0	173.8	293.6	372.4	403.1	410.5	401.0	394.5	376.4	378.9	402.4	426.6	442.3	443.5	433.1	414.4	390.6	368.9	351.0	327.6	307.1	305.4	330.6	289.3	181.4	127.5	97.44	82.43	160.8	677.4	1938	2646	977.5	17.09	2.536	1.657	1.254	0.938	0.868	0.787	0.702	0.605	0.739	0.592	0.717	0.824	0.944	1.009	1.223	1.432	1.407	1.406	1.671	1.860	1.839	1.792	1.793	1.882	1.852	1.861	1.887	1.940	2.066	1.925	1.962	2.149	2.145	2.144	2.189	2.391	2.402	2.526	2.502	2.658	2.681	2.573	2.620	2.609
375.0	184.0	296.8	382.4	423.4	433.9	433.8	426.5	414.9	406.3	421.5	438.4	451.5	452.7	437.3	423.1	403.2	390.1	374.2	354.0	335.7	312.6	300.3	320.3	282.2	170.9	121.6	94.15	90.83	189.2	462.1	1123	3225	1451	21.47	2.508	1.676	1.150	0.900	0.839	0.770	0.633	0.705	0.633	0.679	0.786	0.923	1.090	1.294	1.607	1.390	1.469	1.779	1.920	1.887	1.972	1.888	1.986	1.969	2.077	2.118	2.091	2.274	2.135	2.209	2.113	2.154	2.263	2.213	2.421	2.319	2.473	2.443	2.532	2.679	2.548	2.763	2.640
380.0	182.5	295.4	382.3	443.0	456.6	457.1	440.0	432.8	418.1	436.5	450.4	452.9	455.6	436.7	430.1	414.1	400.1	388.8	368.0	350.3	326.8	303.1	294.2	321.0	234.2	147.0	112.3	88.49	91.00	137.4	283.7	1551	3233	278.8	13.93	2.115	1.374	1.053	0.942	0.780	0.688	0.687	0.659	0.731	0.833	0.880	1.046	1.417	1.534	1.415	1.489	1.769	1.815	2.051	1.941	1.920	2.123	1.933	1.959	2.087	2.077	2.174	2.210	2.380	2.111	2.196	2.237	2.284	2.229	2.345	2.526	2.550	2.722	2.811	2.551	2.817	2.832
385.0	193.9	299.1	394.7	447.8	461.0	455.3	451.1	444.2	439.8	447.9	452.2	462.9	462.2	443.0	433.1	412.0	401.3	393.4	377.2	362.2	338.4	312.4	286.0	294.9	292.8	187.2	130.9	101.8	82.08	74.25	94.15	396.2	1875	2260	230.1	6.507	1.863	1.249	1.058	0.780	0.791	0.691	0.690	0.841	0.844	1.009	1.122	1.237	1.436	1.404	1.476	1.726	2.018	2.037	1.882	2.066	2.325	2.005	2.049	2.105	2.090	2.233	2.225	2.258	2.254	2.243	2.118	2.269	2.547	2.442	2.413	2.578	2.910	2.711	2.865	2.669	2.835
390.0	197.9	300.4	404.5	441.1	467.9	473.2	471.5	461.6	449.9	453.0	460.3	457.9	456.3	439.0	428.7	411.1	404.2	393.1	385.2	367.9	347.5	326.1	297.8	277.5	281.2	256.8	176.2	125.1	99.45	76.46	64.93	118.0	469.0	1334	1940	820.7	15.15	2.054	1.328	1.002	0.868	0.743	0.724	0.844	0.829	1.026	1.115	1.243	1.465	1.482	1.517	1.918	2.082	2.120	2.032	1.982	2.279	2.211	2.162	2.156	2.041	2.210	2.389	2.279	2.249	2.340	2.330	2.236	2.546	2.481	2.492	2.574	2.645	2.691	2.762	2.811	2.812
395.0	193.4	314.5	397.3	446.5	472.9	492.0	488.4	474.2	457.5	459.6	467.6	461.6	455.1	436.2	428.1	408.4	402.8	394.9	383.4	369.8	352.1	330.3	309.1	280.6	260.4	257.2	246.2	165.1	122.7	93.75	73.13	67.15	133.3	317.1	696.7	2180	1273	20.27	2.040	1.223	1.010	0.898	0.781	0.843	0.846	1.093	1.154	1.331	1.503	1.502	1.594	1.873	2.042	1.955	2.008	2.077	2.173	2.285	2.103	2.277	2.198	2.355	2.261	2.307	2.200	2.279	2.216	2.180	2.536	2.288	2.342	2.381	2.518	2.617	2.650	2.842	3.058
400.0	188.7	317.0	393.8	458.1	481.3	483.0	492.1	479.1	465.7	469.9	460.1	458.0	450.2	437.0	419.7	406.3	393.3	388.0	377.4	367.3	354.1	333.5	313.6	287.4	261.8	243.4	258.4	214.1	144.8	110.6	85.30	64.91	64.00	94.97	175.4	916.8	2347	246.4	13.48	1.841	1.249	1.060	0.913	0.795	0.888	1.055	1.191	1.295	1.356	1.508	1.549	1.869	1.896	1.962	2.185	2.038	2.155	2.284	2.132	2.187	2.360	2.286	2.366	2.213	2.323	2.406	2.119	2.141	2.333	2.347	2.401	2.575	2.518	2.801	2.538	2.892	2.754
405.0	200.4	314.1	403.0	454.1	488.0	481.2	485.4	481.1	468.5	465.2	460.6	454.5	442.6	428.0	411.9	397.8	390.2	384.2	372.9	364.5	353.9	333.5	315.1	292.0	268.2	241.8	237.7	244.7	182.0	126.9	97.30	73.31	56.82	48.98	58.62	228.6	1165	1927	211.7	7.075	1.747	1.144	1.081	0.948	0.845	1.047	1.022	1.433	1.394	1.551	1.584	1.933	2.037	2.011	2.256	2.005	2.335	2.326	2.111	2.101	2.438	2.447	2.242	2.353	2.228	2.145	2.196	2.166	2.251	2.311	2.536	2.331	2.519	2.620	2.785	2.682	2.765
410.0	200.9	314.8	400.2	454.1	473.1	483.1	479.7	482.7	472.1	465.7	462.5	446.6	438.9	423.6	400.9	384.3	374.4	370.0	360.9	351.6	343.0	327.5	312.2	292.2	271.6	246.3	227.8	227.6	221.8	165.8	115.7	86.39	64.04	47.54	38.99	68.76	284.7	925.9	1460	689.3	14.81	1.803	1.218	1.050	1.013	1.047	1.114	1.342	1.439	1.542	1.528	1.914	1.938	2.000	2.100	2.009	2.268	2.283	2.333	2.250	2.374	2.305	2.254	2.271	2.177	2.153	2.208	2.221	2.203	2.320	2.480	2.447	2.434	2.514	2.644	2.529	2.796
