Sample:	'1
File name:	w01011Ω«≈÷Ω“µ—·—ı≥ÿ10±∂.FD3
Run date:	'15:27:56, 04/11/2024
Operator:	Administrator
Comment:	'

Instrument
Model:	F-2700 FL Spectrophotometer
Serial number:	23B8-004
ROM Version:	4J14000 07

Instrument parameters
Measurement type:	3-D scan
Data mode:	Fluorescence
EX  Start WL:	220.0 nm
EX  End WL:	600.0 nm
EX Sampling interval:	5.0 nm
EM  Start WL:	230.0 nm
EM  End WL:	650.0 nm
EM Sampling interval:	5.0 nm
Scan speed:	12000 nm/min
EX Slit:	5.0 nm
EM Slit:	5.0 nm
PMT Voltage:	700 V
Response:	Auto 
Corrected spectra:	Off
Contour interval:	50.000

Peak integration
Integration method:	Rectangular
Sensitivity:	1
Threshold:	1.000

Peaks
No.	ApexEX/EM(nm)	Height(Data)
1	225.0/335.0	3531
2	225.0/615.0	143.1
3	225.0/625.0	132.1
4	245.0/410.0	1792
5	275.0/330.0	4206
6	275.0/610.0	226.2
7	455.0/340.0	19.62
8	565.0/335.0	22.51

Data points
	220.0	225.0	230.0	235.0	240.0	245.0	250.0	255.0	260.0	265.0	270.0	275.0	280.0	285.0	290.0	295.0	300.0	305.0	310.0	315.0	320.0	325.0	330.0	335.0	340.0	345.0	350.0	355.0	360.0	365.0	370.0	375.0	380.0	385.0	390.0	395.0	400.0	405.0	410.0	415.0	420.0	425.0	430.0	435.0	440.0	445.0	450.0	455.0	460.0	465.0	470.0	475.0	480.0	485.0	490.0	495.0	500.0	505.0	510.0	515.0	520.0	525.0	530.0	535.0	540.0	545.0	550.0	555.0	560.0	565.0	570.0	575.0	580.0	585.0	590.0	595.0	600.0
230.0	38.63	1757	6056	2446	98.19	13.00	10.16	9.113	9.339	9.136	9.137	9.222	8.716	8.119	7.213	6.552	6.951	6.591	6.499	5.686	5.786	5.806	5.834	6.071	6.281	6.178	6.336	6.251	6.472	6.545	6.730	6.522	6.818	6.624	5.971	4.986	4.734	4.238	3.970	3.876	3.500	3.359	3.396	3.191	3.204	3.059	4.752	15.19	26.65	21.46	9.573	3.168	2.106	2.051	1.864	1.870	1.827	1.657	1.594	1.429	1.387	1.215	1.124	1.083	1.090	1.043	0.935	0.929	0.798	0.667	0.595	0.613	0.557	0.502	0.458	0.447	0.417
235.0	45.11	441.1	3140	6614	3232	196.0	14.72	12.87	10.66	9.146	10.22	9.650	9.118	8.641	8.289	7.807	7.039	7.280	6.894	6.088	5.779	5.967	6.252	5.883	6.645	6.333	6.743	6.419	7.042	6.551	6.814	6.738	6.439	6.631	5.998	5.369	4.741	4.169	3.891	3.595	3.498	3.460	3.308	3.490	3.354	3.249	3.294	5.748	10.21	17.30	26.99	26.65	17.38	5.172	1.933	2.056	2.066	1.694	1.565	1.472	1.348	1.358	1.139	1.115	1.179	1.055	0.908	0.890	0.703	0.733	0.648	0.582	0.537	0.496	0.504	0.461	0.388
240.0	51.62	139.8	839.7	4968	9581	2878	126.5	18.95	14.94	13.28	11.81	12.01	9.957	9.569	8.907	7.724	7.543	7.109	6.776	6.829	6.235	6.108	6.585	6.977	6.749	6.574	7.098	6.832	6.979	6.571	7.244	6.276	6.454	6.522	5.926	5.648	5.194	4.629	4.313	4.042	3.445	3.659	3.585	3.303	3.409	3.249	3.016	3.564	4.298	6.193	13.70	34.72	51.56	27.51	16.11	3.819	1.936	1.773	1.743	1.601	1.305	1.348	1.251	1.204	1.128	1.037	0.899	0.899	0.864	0.741	0.620	0.525	0.530	0.436	0.485	0.552	0.448
245.0	48.67	77.81	225.3	1514	8759	9999.9	2281	59.77	20.47	17.96	14.55	14.25	12.31	11.36	10.16	8.118	8.684	7.303	7.545	7.231	6.593	6.136	6.812	6.852	6.985	6.725	7.127	7.109	7.140	7.256	7.265	6.578	6.679	6.418	5.802	5.669	5.402	4.815	4.313	4.133	3.822	3.775	3.513	3.319	3.117	3.129	2.951	3.072	2.979	3.293	5.041	11.78	31.89	57.08	69.47	26.32	12.53	2.477	1.722	1.642	1.501	1.435	1.223	1.281	1.162	1.155	0.929	1.014	0.860	0.789	0.710	0.547	0.540	0.524	0.535	0.505	0.414
250.0	44.03	54.29	117.5	387.1	2527	9318	9999.9	7357	159.7	29.20	21.69	19.00	14.42	12.87	10.79	9.807	9.349	8.394	8.054	7.665	6.736	6.937	7.108	7.196	7.391	7.339	7.665	7.757	7.589	7.532	7.336	7.100	6.592	6.361	5.883	5.753	5.397	5.188	4.657	4.241	3.928	3.830	3.497	3.639	3.244	3.149	2.974	2.995	2.923	2.878	3.000	4.470	9.076	18.21	37.62	58.80	87.28	77.80	20.61	11.24	2.726	1.433	1.397	1.332	1.266	1.168	1.062	0.953	0.886	0.824	0.742	0.711	0.612	0.562	0.601	0.553	0.482
255.0	44.11	48.91	76.04	171.5	618.2	2221	8474	9999.9	9999.9	204.1	36.79	26.18	20.77	16.70	14.12	11.50	11.33	9.309	9.274	8.562	7.713	7.641	7.734	7.527	7.841	7.928	7.628	8.175	8.526	8.462	8.122	7.808	6.606	6.496	6.140	5.846	5.723	5.309	4.807	4.507	4.212	3.958	3.701	3.574	3.166	3.303	3.229	3.000	2.780	2.862	2.579	3.045	3.940	5.726	10.17	15.02	29.22	70.18	139.1	161.1	31.71	15.65	2.242	1.622	1.376	1.302	1.273	0.991	0.936	0.830	0.721	0.710	0.580	0.604	0.647	0.544	0.564
260.0	53.79	45.43	49.08	107.2	225.9	550.8	2317	9999.9	9999.9	2207	147.7	39.68	28.20	21.37	17.53	14.24	12.25	10.90	10.07	9.538	8.054	8.489	7.969	8.144	8.725	8.573	8.328	8.846	8.324	8.830	8.697	8.204	7.049	6.544	6.324	5.661	5.594	5.112	5.014	4.715	4.363	4.127	3.640	3.637	3.379	3.619	3.423	3.169	2.750	2.715	2.531	2.716	3.010	3.193	4.030	4.998	8.338	18.97	54.45	133.8	199.1	182.1	28.12	10.29	1.761	1.429	1.401	1.026	1.056	0.748	0.852	0.785	0.677	0.747	0.597	0.510	0.542
265.0	71.61	54.59	48.27	65.40	147.2	217.9	578.4	3438	9999.9	9999.9	1844	92.73	40.29	27.45	21.71	16.47	15.08	12.52	11.03	10.57	8.868	8.661	8.671	8.502	8.975	8.655	8.532	8.997	9.205	9.175	9.148	8.495	7.630	6.601	6.207	6.091	5.529	5.114	5.180	4.836	4.611	4.171	3.793	4.089	3.726	3.569	3.407	2.963	2.903	2.724	2.726	2.534	2.829	2.851	3.015	2.947	3.714	5.965	13.95	37.08	97.90	208.4	253.8	171.4	22.48	4.471	1.699	1.304	1.056	1.067	0.883	0.805	0.778	0.820	0.804	0.616	0.607
270.0	114.9	80.18	62.27	55.00	85.89	165.5	259.4	861.5	3917	9999.9	9999.9	7231	122.8	46.50	33.10	22.90	19.87	15.97	13.28	12.02	10.72	10.03	9.776	9.416	9.574	9.099	9.510	9.359	9.478	9.892	9.731	8.843	8.500	7.684	6.880	6.328	5.987	5.452	5.086	5.082	4.884	4.647	4.534	4.020	3.914	3.969	3.531	3.366	3.113	2.753	2.590	2.645	2.553	2.523	2.786	2.887	3.037	3.180	4.902	10.02	23.88	56.86	112.7	189.3	222.5	186.1	125.1	15.97	5.532	1.377	1.167	1.101	0.923	0.891	0.846	0.728	0.794
275.0	242.3	151.3	90.95	68.83	71.35	109.8	227.9	376.8	1009	2599	9999.9	9999.9	9999.9	142.6	54.17	36.22	27.03	21.40	17.29	15.03	13.43	12.18	11.08	10.42	10.70	10.27	9.912	10.27	10.55	10.50	10.33	9.508	8.760	8.254	7.559	6.960	6.542	5.830	5.689	5.573	5.076	5.045	5.100	4.560	4.374	4.244	3.791	3.573	3.175	2.905	2.724	2.932	2.530	2.403	2.557	2.666	2.905	3.156	3.430	4.305	7.161	14.50	27.25	44.66	61.51	126.7	308.9	395.3	213.2	24.74	4.365	1.366	1.204	1.178	0.937	0.839	0.885
280.0	369.3	242.4	151.2	95.57	80.07	99.78	176.6	364.6	465.7	819.7	3156	9999.9	9999.9	7778	114.9	53.31	36.32	27.71	21.64	17.45	14.94	13.63	12.01	12.52	11.91	11.61	11.18	10.70	10.78	11.10	10.64	10.24	9.404	9.205	8.387	7.543	7.078	6.481	5.856	6.172	5.667	5.137	5.346	5.305	5.039	4.985	4.023	4.075	3.478	2.929	2.991	2.863	2.604	2.737	2.780	2.549	2.783	2.896	3.175	3.760	4.002	5.644	8.496	12.16	16.23	31.95	95.64	240.2	418.7	283.3	36.67	19.51	2.728	1.493	1.290	1.239	0.978
285.0	565.2	431.1	273.0	163.6	113.8	124.5	183.1	360.5	546.7	618.5	1208	4506	9999.9	9999.9	1035	94.62	53.32	37.23	27.03	21.48	18.48	16.21	14.09	14.12	13.37	12.70	11.99	11.71	11.37	12.29	11.05	10.91	9.565	9.475	8.644	8.662	8.178	6.978	6.557	6.136	6.244	5.624	5.839	5.951	5.946	5.577	4.711	4.743	3.969	3.473	3.058	2.937	2.911	3.003	2.812	2.738	2.840	2.924	3.276	3.894	4.513	4.563	5.202	6.107	7.179	10.61	24.86	60.55	148.2	303.7	474.4	277.8	33.43	15.02	2.105	1.840	1.325
290.0	937.6	818.0	595.4	351.6	223.1	200.1	267.1	421.0	751.5	1082	1354	2147	5422	9999.9	9999.9	9999.9	318.6	61.99	41.60	31.65	24.45	20.72	18.08	16.31	15.50	14.31	14.28	13.13	12.81	13.22	12.21	11.32	10.77	10.07	9.605	9.349	8.745	8.192	7.524	7.212	6.803	6.537	6.705	7.008	7.144	6.935	6.046	6.023	5.096	4.570	3.988	3.740	3.549	3.419	3.402	3.180	3.453	3.430	3.700	4.283	4.976	5.806	6.749	7.191	7.572	8.508	12.05	20.05	39.11	77.81	160.5	258.5	378.9	385.2	312.2	118.2	12.77
295.0	1377	1358	1024	625.3	398.0	315.9	394.0	606.2	992.9	1569	2129	2338	2764	3416	9999.9	9999.9	9999.9	377.1	68.32	47.23	34.13	28.17	23.75	20.55	18.47	17.34	16.37	15.27	15.06	14.71	13.47	12.82	11.94	11.45	10.72	10.14	9.852	9.076	8.804	8.510	7.887	7.710	8.160	8.023	7.988	8.252	8.008	7.902	6.860	5.907	4.991	4.936	4.508	4.230	4.063	3.714	4.224	4.343	4.699	5.173	6.402	6.995	8.545	9.851	11.30	11.87	12.47	14.19	17.87	25.74	42.91	63.69	92.50	144.9	369.9	674.6	311.4
300.0	1680	1695	1380	853.8	533.1	417.2	490.4	758.3	1208	1851	2668	2942	2607	2041	3590	9999.9	9999.9	5261	92.79	67.08	46.65	34.20	28.36	25.19	21.91	19.82	17.59	17.14	16.01	16.14	15.24	14.04	12.82	11.95	11.66	10.79	10.67	10.16	9.352	9.176	8.461	8.286	8.987	8.616	8.978	9.476	9.287	9.543	8.185	6.665	5.784	5.480	4.917	4.779	4.660	4.515	4.624	4.823	5.419	5.969	7.340	8.189	9.984	11.23	13.09	14.65	15.32	15.37	15.09	16.44	19.14	21.76	26.04	37.08	96.56	274.1	541.2
305.0	1867	1949	1624	1077	660.1	524.4	595.8	882.5	1411	2120	2942	3498	2994	2046	1608	4847	9999.9	9999.9	3964	86.37	64.56	47.02	34.91	29.76	25.63	22.97	20.93	19.32	17.49	17.69	16.44	14.98	13.43	12.78	11.69	11.55	11.34	10.82	10.52	9.950	9.082	9.291	9.486	9.481	10.20	10.25	9.983	10.31	9.308	7.818	6.418	6.319	5.645	5.247	5.308	5.279	5.282	5.708	6.135	6.610	8.056	9.263	10.97	12.45	14.24	15.78	17.51	17.89	17.04	15.93	15.07	13.11	12.93	13.24	25.55	65.82	153.1
310.0	2022	2201	1886	1273	802.9	645.6	726.8	1038	1587	2334	3182	3772	3552	2455	1427	1614	5855	9999.9	9999.9	9999.9	254.7	74.30	51.80	40.67	33.48	29.44	25.58	23.31	21.37	20.50	18.67	17.23	15.27	14.28	13.42	12.56	12.14	11.77	11.16	11.20	10.04	10.28	10.33	10.25	10.81	11.22	10.97	11.26	10.56	8.876	7.771	7.462	6.700	6.050	5.843	5.759	5.920	6.474	6.926	7.637	9.099	10.43	12.28	13.93	15.49	16.94	18.45	18.91	19.18	18.06	16.40	13.57	11.54	9.926	10.95	19.06	37.81
315.0	2179	2462	2163	1453	943.9	772.2	874.9	1198	1752	2524	3361	3926	3790	2970	1741	1071	1685	2754	9999.9	9999.9	9999.9	316.1	83.41	61.04	46.10	37.55	32.18	28.65	26.02	24.03	22.68	20.16	17.93	16.32	15.31	14.55	13.99	13.18	12.25	12.38	11.57	11.10	11.86	11.56	11.75	12.84	12.54	13.11	11.75	9.972	8.937	8.732	7.444	6.848	6.349	6.784	7.065	7.748	7.957	9.320	10.42	11.55	13.41	14.86	16.59	18.06	18.88	20.07	19.83	19.28	18.70	16.03	13.47	10.88	9.035	9.296	13.03
320.0	2443	2831	2519	1624	1018	872.0	1007	1357	1905	2688	3514	4090	3954	3231	2139	1086	844.5	919.0	3457	9999.9	9999.9	4083	218.4	85.20	62.06	47.68	39.06	33.32	30.33	28.22	25.17	22.40	19.80	18.67	16.69	15.63	15.22	14.33	13.43	13.01	12.33	12.38	12.41	12.59	12.91	14.29	14.18	14.88	13.62	10.97	9.683	9.719	8.305	7.756	7.418	7.384	7.808	8.679	8.807	9.455	10.95	12.54	14.17	15.45	17.85	19.52	19.79	20.31	20.81	20.31	19.27	17.60	15.66	13.28	10.45	8.328	8.265
325.0	2607	3195	2929	1837	1116	958.0	1109	1469	2056	2811	3628	4185	4101	3374	2415	1344	764.2	563.3	1042	5550	9999.9	9999.9	3419	147.8	84.43	61.40	48.05	39.26	35.04	31.82	28.61	25.27	21.57	20.28	18.06	16.28	15.81	15.32	14.01	13.42	13.26	13.55	13.23	13.71	14.46	15.82	15.67	16.62	15.24	12.36	10.40	10.48	8.966	8.402	7.977	8.298	8.740	9.203	9.769	10.59	12.05	13.49	14.56	16.70	18.49	19.94	20.57	21.37	21.39	21.16	20.41	18.68	16.26	14.92	12.39	9.916	8.092
330.0	2717	3332	3113	1992	1269	1086	1232	1592	2150	2881	3649	4206	4167	3508	2566	1633	969.1	599.7	565.1	1512	7075	9999.9	9999.9	9999.9	255.5	97.23	69.51	53.85	45.65	39.50	34.00	30.36	25.38	23.86	20.90	18.53	17.80	16.26	15.25	15.06	14.22	14.02	14.23	14.55	15.57	16.67	17.10	17.57	16.17	13.60	11.28	10.89	9.802	9.004	9.065	8.844	9.502	9.817	10.25	11.40	13.13	14.30	15.43	16.93	18.37	20.02	20.88	21.36	21.67	21.51	21.03	19.31	17.61	15.61	13.41	11.64	9.933
335.0	2822	3531	3292	2131	1390	1214	1369	1713	2250	2907	3634	4174	4168	3610	2720	1776	1237	781.0	572.8	677.0	1846	2906	9999.9	9999.9	9999.9	321.3	107.2	80.95	61.05	52.12	44.26	37.19	31.85	27.23	24.27	21.59	20.48	19.02	17.37	16.45	16.37	16.01	15.83	16.03	16.78	17.92	18.49	19.43	17.98	15.01	12.25	12.32	10.90	10.24	10.24	10.72	10.95	10.83	11.59	13.31	14.10	15.42	15.68	17.68	19.35	20.22	21.50	22.16	22.37	22.51	21.75	20.00	18.55	16.54	14.26	12.32	11.27
340.0	2815	3515	3314	2192	1477	1286	1430	1731	2255	2870	3562	4069	4097	3600	2783	1860	1317	985.5	678.9	552.1	726.7	917.0	4365	9999.9	9999.9	9999.9	249.5	108.4	81.79	64.38	51.14	43.29	36.52	30.87	26.57	23.50	22.49	20.09	18.37	17.33	16.96	16.47	15.97	16.37	16.67	18.35	18.65	19.62	18.36	15.34	12.46	12.19	11.40	10.99	11.09	11.15	11.24	11.28	11.74	13.22	14.25	15.16	16.64	18.05	18.67	20.11	20.90	21.53	22.00	22.23	21.79	20.65	18.30	17.24	15.08	13.12	11.90
345.0	2653	3324	3139	2154	1499	1342	1452	1743	2210	2776	3405	3853	3910	3500	2762	1918	1354	1093	832.5	599.1	533.3	507.4	1241	8218	9999.9	9999.9	3208	176.8	105.9	80.69	59.91	49.76	40.75	33.89	29.17	24.40	22.84	20.23	18.88	17.29	17.04	16.19	16.02	16.00	16.29	17.90	17.51	18.96	17.81	14.51	12.36	12.24	11.42	10.95	10.98	11.08	10.89	11.30	11.70	12.97	13.95	14.51	15.92	17.10	18.29	18.76	20.00	20.39	21.07	21.61	20.98	19.51	18.18	17.22	14.65	13.52	12.24
350.0	2448	3033	2890	2049	1520	1380	1470	1727	2118	2603	3162	3560	3638	3303	2694	1957	1444	1162	998.3	780.3	598.7	503.8	597.7	2123	9754	9999.9	9999.9	9999.9	268.3	117.1	85.09	62.63	48.81	40.09	32.53	27.18	24.44	22.12	19.72	18.25	16.94	16.20	16.24	16.04	15.78	17.41	16.51	17.85	16.60	13.95	11.86	11.79	11.27	10.79	10.81	10.93	11.16	11.22	11.72	12.28	13.12	14.01	14.87	16.15	17.56	18.04	18.70	19.49	19.60	19.67	19.72	18.47	17.96	16.81	15.06	13.56	12.42
355.0	2255	2733	2604	1955	1532	1439	1486	1688	2012	2432	2923	3259	3360	3094	2610	1998	1554	1282	1101	997.5	799.6	610.0	545.8	802.4	2441	3339	9999.9	9999.9	9999.9	333.7	127.3	89.54	64.90	48.82	39.10	31.60	27.96	24.91	21.33	19.82	18.03	16.50	16.69	15.76	15.72	16.55	16.17	16.98	15.72	13.56	11.84	11.85	11.18	11.06	11.13	10.79	11.17	11.28	11.89	12.56	12.77	13.73	14.50	14.89	16.10	16.54	17.56	17.71	17.69	18.59	18.25	17.66	17.26	16.85	15.14	14.07	12.91
360.0	2099	2516	2417	1845	1510	1463	1502	1669	1938	2297	2729	3065	3149	2945	2548	2008	1636	1394	1202	1085	978.8	763.2	613.2	568.9	854.9	1017	5715	9999.9	9999.9	9999.9	275.8	121.3	84.79	62.17	47.68	36.61	31.07	27.15	24.33	20.99	18.80	18.04	16.84	16.25	16.16	16.39	15.86	17.00	15.49	13.08	11.66	12.41	11.25	10.73	10.94	10.35	11.44	11.13	11.81	12.24	12.61	13.61	13.90	14.82	15.42	16.28	16.31	17.13	17.68	18.20	17.50	17.04	16.78	16.14	15.05	14.01	13.36
365.0	1977	2297	2243	1790	1534	1450	1505	1660	1883	2205	2570	2875	2970	2817	2485	2031	1710	1493	1318	1179	1086	936.7	731.9	594.0	555.3	521.2	1558	9999.9	9999.9	9999.9	3105	210.4	111.7	80.54	57.68	42.73	35.67	30.25	26.37	22.81	20.48	19.47	18.25	16.89	16.76	16.80	15.97	16.62	15.23	13.14	11.55	12.24	11.54	11.28	10.70	11.16	11.31	11.43	12.20	11.94	12.69	13.48	13.93	14.23	15.01	15.62	15.89	16.74	16.69	17.31	17.29	16.60	16.36	16.04	15.19	14.14	13.70
370.0	1875	2134	2060	1740	1561	1505	1538	1638	1821	2083	2408	2670	2762	2674	2413	2063	1815	1628	1479	1343	1212	1112	943.2	738.4	585.9	481.7	640.5	2534	9999.9	9999.9	9999.9	9999.9	261.1	121.4	81.87	57.40	43.39	36.38	29.92	26.22	22.93	20.97	19.23	18.01	17.30	16.87	15.95	16.43	14.71	12.97	11.56	12.65	12.06	11.57	11.51	11.11	11.89	11.82	11.79	11.94	12.53	12.90	13.42	13.69	14.29	14.68	14.90	15.59	16.12	16.20	16.65	16.22	16.43	15.93	15.20	14.69	14.29
375.0	1759	1997	1954	1682	1579	1569	1574	1636	1769	1968	2251	2497	2584	2555	2363	2094	1897	1776	1632	1509	1370	1248	1135	941.0	722.0	565.9	499.7	851.6	2487	3972	9999.9	9999.9	9999.9	308.8	121.6	81.31	59.24	44.42	35.59	30.70	26.08	24.07	20.64	19.65	18.33	17.67	16.15	16.58	14.73	13.16	11.95	12.98	12.71	12.30	12.04	11.36	11.93	11.86	11.84	12.18	12.16	12.61	13.02	13.72	13.43	14.09	14.11	14.89	15.53	15.66	15.57	15.95	15.78	15.53	15.31	14.87	14.81
380.0	1733	1917	1886	1719	1611	1613	1603	1636	1733	1911	2161	2385	2478	2486	2336	2125	1979	1856	1743	1617	1490	1356	1226	1087	850.0	658.6	524.4	518.6	831.2	1152	7089	9999.9	9999.9	9999.9	245.4	107.0	76.35	56.17	41.99	34.70	28.87	26.11	23.09	21.01	19.13	17.93	16.49	16.52	14.94	12.87	11.67	13.18	13.12	12.54	12.66	11.88	12.23	12.30	12.17	12.24	12.03	12.50	13.41	13.29	13.36	13.81	14.26	14.07	14.90	15.36	14.84	15.42	15.30	15.62	15.55	14.76	15.18
385.0	1642	1843	1828	1729	1675	1647	1634	1648	1711	1866	2094	2289	2405	2426	2315	2161	2041	1934	1829	1711	1586	1455	1313	1183	997.7	764.3	598.2	495.7	497.1	523.3	1865	9999.9	9999.9	9999.9	2599	176.3	96.77	71.12	50.15	39.63	32.37	28.04	24.15	22.34	20.37	19.04	16.83	17.06	15.48	13.62	12.04	13.63	13.13	12.69	12.69	12.52	13.14	12.55	12.31	12.02	12.21	12.20	13.04	13.35	13.56	13.84	13.60	13.89	14.47	14.58	14.53	15.51	15.61	15.71	15.32	15.06	15.20
390.0	1627	1813	1795	1731	1679	1687	1662	1670	1715	1828	2016	2208	2319	2362	2305	2196	2114	2013	1934	1814	1700	1577	1439	1281	1134	935.5	732.4	592.6	499.9	436.1	682.7	2527	9999.9	9999.9	9999.9	9999.9	219.0	98.16	68.90	51.33	38.57	32.17	27.35	24.10	21.72	20.58	18.46	17.73	16.11	14.01	12.93	13.97	13.24	13.18	12.95	12.65	13.43	12.89	12.65	12.41	11.99	12.20	12.67	12.78	13.02	13.12	13.32	13.58	13.88	14.21	14.66	15.13	14.99	15.48	15.54	15.37	15.78
395.0	1581	1742	1764	1715	1741	1732	1722	1701	1727	1818	1957	2129	2255	2321	2318	2223	2162	2092	2009	1903	1798	1694	1566	1409	1246	1089	912.5	728.6	601.3	488.8	474.3	821.0	2450	3954	9999.9	9999.9	9999.9	262.9	97.81	68.92	52.20	39.60	32.12	27.68	24.27	23.23	20.40	18.72	16.97	14.39	13.35	14.73	14.31	13.61	13.59	13.18	13.67	13.20	13.22	13.05	12.44	12.50	12.55	13.19	12.73	12.89	13.05	13.87	13.93	14.16	14.13	14.48	15.15	15.33	15.65	15.44	16.50
400.0	1576	1718	1714	1717	1748	1774	1757	1737	1727	1823	1949	2097	2214	2312	2315	2234	2179	2132	2050	1960	1861	1761	1640	1499	1329	1169	1037	849.5	698.2	569.3	476.7	472.5	776.9	1097	6360	9999.9	9999.9	9999.9	209.6	87.59	62.32	47.59	36.77	30.60	26.18	24.59	20.74	19.99	17.13	15.13	13.67	14.90	14.22	14.20	13.83	12.96	13.93	13.56	13.31	13.23	12.68	12.25	12.50	12.51	12.59	12.83	13.16	12.85	13.62	13.99	14.72	14.26	15.12	15.30	15.42	15.54	16.37
405.0	1558	1703	1715	1714	1737	1787	1781	1745	1735	1800	1930	2077	2197	2294	2295	2234	2194	2144	2079	1992	1899	1812	1706	1577	1412	1248	1115	973.5	798.4	657.0	527.0	433.7	424.6	452.5	1630	9801	9999.9	9999.9	2364	154.7	74.21	56.09	42.63	33.79	28.32	24.94	20.91	19.82	17.84	15.49	14.15	14.85	14.16	14.20	13.89	13.61	13.69	13.68	13.64	13.17	12.64	12.31	12.32	12.50	12.53	12.42	12.73	12.88	13.29	13.96	14.26	14.57	15.31	15.21	15.34	15.29	16.32
410.0	1533	1669	1706	1704	1737	1792	1785	1764	1753	1794	1905	2037	2150	2242	2256	2216	2168	2132	2072	1995	1916	1847	1758	1642	1492	1345	1195	1073	940.1	773.9	621.2	487.9	396.3	337.2	553.0	2384	8192	9999.9	9999.9	9999.9	195.4	77.56	55.38	42.02	33.15	28.00	23.18	20.99	18.73	16.10	14.72	15.62	14.90	14.72	14.21	13.68	13.97	14.03	13.63	13.54	12.96	12.22	12.49	12.34	12.38	12.73	12.62	13.10	12.77	13.65	14.07	13.99	14.81	14.88	15.06	15.23	16.13
415.0	1521	1603	1676	1657	1730	1770	1782	1753	1754	1780	1856	1981	2094	2170	2184	2148	2115	2073	2031	1960	1906	1832	1769	1668	1542	1403	1263	1135	1031	900.8	716.6	557.1	435.7	344.1	334.8	699.3	1976	3157	9999.9	9999.9	9999.9	245.5	77.35	54.58	39.86	32.89	25.57	23.30	19.68	16.69	15.37	16.34	15.65	14.99	14.54	13.96	14.29	13.95	13.65	13.62	13.35	12.66	12.28	12.50	12.12	12.19	12.46	12.55	12.44	13.30	13.41	13.85	14.38	15.20	14.57	14.84	15.73
420.0	1498	1589	1615	1642	1696	1748	1750	1734	1738	1756	1828	1922	2037	2094	2116	2078	2038	2006	1976	1915	1861	1800	1749	1659	1554	1425	1299	1176	1067	964.1	791.6	611.8	477.5	371.7	301.6	337.7	591.7	848.5	4354	9999.9	9999.9	9999.9	201.4	69.33	49.28	39.34	29.43	25.09	20.88	17.36	15.92	16.97	15.74	15.79	14.65	14.02	14.31	14.23	13.82	13.44	13.66	13.23	12.62	12.81	12.33	11.53	12.10	11.80	12.27	13.06	13.12	13.96	13.98	14.85	14.36	14.40	14.99
425.0	1467	1532	1565	1581	1654	1728	1730	1737	1707	1731	1777	1878	1965	2033	2036	2000	1973	1942	1908	1865	1815	1765	1726	1643	1550	1432	1314	1200	1091	987.1	849.7	667.8	511.7	404.0	315.7	273.0	293.4	325.0	1111	6899	9999.9	9999.9	9999.9	146.4	62.16	46.90	34.46	28.44	22.70	18.61	16.06	17.58	16.32	15.71	15.21	14.15	14.43	14.28	13.64	13.75	13.00	13.47	12.92	12.38	12.29	11.68	11.93	12.18	11.93	12.60	12.83	13.19	13.94	14.05	13.65	13.93	14.65
