Sample:	'1
File name:	L2025090906»ÆºÓÂ·ÇÅ.FD3
Run date:	'15:40:41, 09/09/2025
Operator:	Administrator
Comment:	'

Instrument
Model:	F-2700 FL Spectrophotometer
Serial number:	3064-004
ROM Version:	4J14000 07

Instrument parameters
Measurement type:	3-D scan
Data mode:	Fluorescence
EX  Start WL:	220.0 nm
EX  End WL:	600.0 nm
EX Sampling interval:	5.0 nm
EM  Start WL:	230.0 nm
EM  End WL:	650.0 nm
EM Sampling interval:	5.0 nm
Scan speed:	12000 nm/min
EX Slit:	5.0 nm
EM Slit:	5.0 nm
PMT Voltage:	700 V
Response:	Auto 
Corrected spectra:	Off
Contour interval:	50.000

Peak integration
Integration method:	Rectangular
Sensitivity:	1
Threshold:	1.000

Peaks
No.	ApexEX/EM(nm)	Height(Data)
1	225.0/615.0	32.81
2	230.0/560.0	53.40
3	230.0/590.0	40.25
4	230.0/605.0	36.95
5	235.0/350.0	802.4
6	235.0/570.0	46.00
7	235.0/600.0	33.27
8	235.0/625.0	27.98
9	235.0/640.0	23.41
10	240.0/520.0	228.1
11	245.0/265.0	360.0
12	245.0/530.0	214.7
13	245.0/630.0	21.74
14	250.0/385.0	 1001
15	250.0/545.0	215.5
16	255.0/280.0	687.6
17	255.0/390.0	984.1
18	255.0/555.0	196.3
19	260.0/285.0	893.9
20	260.0/565.0	168.4
21	265.0/290.0	995.3
22	265.0/580.0	178.2
23	270.0/295.0	 1410
24	270.0/405.0	 1014
25	270.0/590.0	154.0
26	275.0/305.0	 1680
27	275.0/375.0	 1103
28	275.0/605.0	146.0
29	280.0/310.0	 1585
30	280.0/380.0	 1098
31	280.0/615.0	125.1
32	285.0/315.0	 1624
33	285.0/335.0	 1177
34	285.0/375.0	 1105
35	285.0/630.0	97.99
36	290.0/320.0	 1452
37	290.0/645.0	75.82
38	300.0/335.0	972.6
39	305.0/340.0	961.2
40	310.0/345.0	838.2
41	315.0/355.0	741.4
42	320.0/360.0	813.9
43	325.0/365.0	787.3
44	335.0/380.0	776.1
45	340.0/385.0	742.5
46	350.0/400.0	671.2
47	355.0/405.0	630.5
48	370.0/425.0	487.3
49	415.0/485.0	122.9
50	430.0/505.0	74.74
51	440.0/515.0	52.35
52	445.0/525.0	45.14
53	450.0/530.0	38.00
54	460.0/545.0	24.85
55	465.0/340.0	6.223
56	505.0/275.0	3.708
57	510.0/280.0	3.864
58	520.0/285.0	4.385
59	525.0/290.0	4.493
60	540.0/295.0	6.828
61	545.0/300.0	7.252
62	550.0/305.0	8.019
63	560.0/310.0	6.882
64	570.0/315.0	7.488
65	580.0/325.0	7.945
66	590.0/330.0	6.033

Data points
	220.0	225.0	230.0	235.0	240.0	245.0	250.0	255.0	260.0	265.0	270.0	275.0	280.0	285.0	290.0	295.0	300.0	305.0	310.0	315.0	320.0	325.0	330.0	335.0	340.0	345.0	350.0	355.0	360.0	365.0	370.0	375.0	380.0	385.0	390.0	395.0	400.0	405.0	410.0	415.0	420.0	425.0	430.0	435.0	440.0	445.0	450.0	455.0	460.0	465.0	470.0	475.0	480.0	485.0	490.0	495.0	500.0	505.0	510.0	515.0	520.0	525.0	530.0	535.0	540.0	545.0	550.0	555.0	560.0	565.0	570.0	575.0	580.0	585.0	590.0	595.0	600.0
230.0	23.85	651.2	 3838	 2312	135.0	9.338	8.976	7.402	5.201	4.436	4.492	5.563	4.731	5.251	4.111	5.103	2.501	2.886	1.959	2.331	1.892	1.549	1.609	1.568	1.332	1.087	1.194	0.955	1.026	1.009	0.995	1.020	1.010	0.737	0.690	0.915	0.778	0.696	0.604	0.676	0.672	0.709	0.775	0.571	0.600	0.511	1.715	6.370	9.742	7.286	2.815	0.712	0.411	0.377	0.383	0.297	0.388	0.243	0.280	0.235	0.215	0.248	0.346	0.264	0.262	0.214	0.246	0.198	0.246	0.284	0.223	0.180	0.151	0.255	0.194	0.177	0.183
235.0	47.25	177.9	 1688	 5051	 2884	159.7	9.414	7.776	5.704	4.042	4.535	5.516	4.402	5.336	4.692	5.517	1.963	3.180	1.801	2.083	1.591	1.682	2.008	1.110	1.281	1.126	1.442	1.091	1.099	0.923	1.219	1.006	0.816	0.722	0.747	0.817	0.567	0.660	0.747	0.619	0.464	0.599	0.609	0.596	0.761	0.649	0.966	2.004	4.021	7.369	9.623	8.938	4.169	1.072	0.254	0.317	0.409	0.190	0.342	0.307	0.319	0.234	0.253	0.221	0.248	0.283	0.368	0.165	0.273	0.354	0.172	0.161	0.212	0.325	0.092	0.242	0.242
240.0	64.17	95.12	429.0	 3005	 6546	945.0	70.20	12.23	7.530	6.909	5.877	6.857	5.538	6.020	4.290	5.773	2.930	3.730	1.633	2.740	1.976	2.063	1.862	1.435	1.317	1.043	1.536	1.447	1.190	0.797	1.029	0.829	0.798	0.688	0.835	0.839	0.768	0.744	0.686	0.503	0.586	0.474	0.711	0.667	1.104	0.793	0.801	0.879	1.275	2.582	5.799	11.87	15.24	10.39	3.058	0.692	0.525	0.174	0.354	0.129	0.172	0.335	0.142	0.302	0.230	0.260	0.344	0.213	0.214	0.460	0.224	0.170	0.163	0.277	0.080	0.224	0.149
245.0	45.76	113.5	163.2	796.2	 4557	 6277	763.7	40.43	12.00	9.671	8.298	6.926	5.087	6.085	4.670	6.718	2.610	3.788	2.024	2.810	2.158	2.203	2.172	1.450	1.490	1.295	1.366	1.271	1.117	1.204	0.969	0.891	0.859	1.006	1.042	1.062	0.595	0.645	0.584	0.540	0.636	0.570	0.590	0.529	0.758	0.790	1.009	1.018	0.660	0.893	1.708	4.622	10.97	19.46	17.76	8.445	1.680	0.322	0.371	0.247	0.167	0.316	0.135	0.241	0.232	0.298	0.312	0.210	0.083	0.284	0.234	0.273	0.124	0.146	0.109	0.128	0.152
250.0	21.24	60.43	168.1	289.6	 1220	 3919	 5931	 3117	223.6	11.96	10.74	8.987	6.998	7.423	5.125	7.530	3.146	3.076	2.550	2.524	2.073	2.107	2.257	1.408	1.356	1.600	1.790	1.210	1.098	1.040	1.033	0.893	1.073	0.892	0.795	0.864	0.680	0.656	0.833	0.640	0.762	0.720	0.620	0.529	0.571	0.593	0.718	1.067	1.109	1.028	0.912	1.532	3.004	6.631	12.17	16.86	19.41	16.58	8.022	2.110	0.325	0.296	0.222	0.293	0.266	0.228	0.274	0.346	0.139	0.151	0.164	0.226	0.283	0.238	0.103	0.277	0.145
255.0	28.28	22.00	88.11	268.4	408.2	919.3	 2841	9999.9	 4405	274.5	15.13	13.92	8.564	8.306	5.173	8.608	3.528	3.040	2.920	3.301	2.186	2.121	2.123	1.592	1.192	1.693	2.028	1.138	1.280	0.961	0.979	0.993	0.797	1.065	0.758	0.944	0.621	0.607	0.657	0.482	0.807	0.783	0.732	0.611	0.676	0.621	0.529	0.703	0.776	1.130	1.517	1.367	1.251	2.017	3.097	4.479	8.584	20.22	31.09	27.64	12.74	2.057	0.506	0.343	0.298	0.237	0.370	0.390	0.312	0.305	0.178	0.139	0.263	0.211	0.139	0.239	0.216
260.0	31.72	18.52	35.58	174.1	371.0	316.3	731.9	 5506	9999.9	 3515	164.5	16.90	11.53	9.376	7.083	8.740	3.755	3.875	2.494	3.723	2.063	2.526	2.152	1.639	1.400	1.526	1.775	1.547	1.121	0.857	0.866	1.099	0.939	0.898	1.029	0.942	0.600	0.605	0.586	0.564	0.743	0.694	0.618	0.633	0.703	0.592	0.702	0.697	0.507	0.895	1.105	1.663	1.716	1.411	1.225	1.430	2.456	6.120	15.95	34.54	42.65	27.16	7.016	0.988	0.587	0.293	0.432	0.214	0.301	0.265	0.119	0.265	0.272	0.105	0.343	0.264	0.116
265.0	29.40	16.60	21.63	69.19	310.7	360.0	217.1	 1451	 6952	9999.9	 2859	81.16	16.63	11.41	8.417	9.847	4.122	4.231	3.099	3.154	2.395	2.791	2.204	1.602	1.670	1.655	1.933	1.634	1.535	1.348	1.423	1.367	1.209	0.946	0.886	0.838	0.655	0.684	0.606	0.462	0.627	0.723	0.731	0.522	0.553	0.564	0.542	0.538	0.472	0.539	0.604	0.971	1.750	2.102	1.740	0.676	1.065	1.848	4.254	11.69	28.97	48.42	47.26	23.58	3.718	0.263	0.522	0.213	0.278	0.279	0.158	0.185	0.258	0.110	0.184	0.125	0.124
270.0	55.69	36.85	30.03	32.58	119.4	334.3	399.6	425.1	 1838	 5682	9999.9	 8700	171.9	19.44	11.44	13.66	5.566	4.937	3.471	3.686	2.934	2.708	2.148	1.933	1.397	1.674	2.004	1.843	1.317	1.539	1.246	1.316	1.504	1.222	1.065	0.886	0.774	0.664	0.744	0.572	0.584	0.728	0.815	0.779	0.707	0.654	0.743	0.628	0.728	0.589	0.574	0.517	0.814	1.093	1.995	2.231	2.031	1.464	1.346	3.200	7.251	15.64	31.49	45.67	46.14	32.12	17.83	3.629	0.518	0.404	0.259	0.290	0.253	0.307	0.264	0.203	0.300
275.0	85.52	64.95	56.49	39.06	56.01	125.0	421.4	569.5	516.3	 1363	 4225	9999.9	9999.9	216.8	15.29	19.17	6.712	6.327	3.919	4.266	3.452	2.987	2.697	2.320	1.621	1.877	2.034	1.738	1.383	1.729	1.359	1.451	1.565	1.177	0.785	0.875	0.792	0.757	1.005	0.871	0.780	0.788	0.810	0.638	1.007	0.680	0.848	0.826	0.892	0.715	0.754	0.594	0.557	0.626	0.823	1.204	2.618	3.708	2.430	1.419	2.150	3.993	7.795	11.70	18.14	41.86	79.68	49.49	21.30	2.665	0.400	0.443	0.368	0.363	0.411	0.405	0.237
280.0	119.3	131.4	108.2	78.03	55.16	68.30	198.1	687.6	516.7	438.6	 1149	 5727	9999.9	 2608	120.2	26.73	10.58	8.085	4.873	5.223	3.392	3.364	2.882	2.369	1.962	1.751	2.243	1.699	1.636	2.038	1.593	1.478	1.782	1.073	1.145	1.265	1.078	1.030	1.162	1.182	1.136	0.989	1.162	1.033	1.135	1.029	1.044	1.060	0.858	0.852	0.721	0.573	0.467	0.520	0.522	0.750	1.180	2.567	3.864	2.985	1.943	1.650	2.437	3.403	5.006	11.66	36.00	68.94	80.05	44.01	11.98	0.893	0.451	0.391	0.347	0.273	0.210
285.0	172.4	168.7	170.0	113.9	78.10	69.22	117.8	400.6	893.9	445.1	493.9	 1651	 7783	9999.9	 1913	88.22	13.38	9.634	6.435	5.958	3.955	3.376	3.383	2.648	2.065	2.238	2.433	2.375	1.967	1.777	1.687	1.530	1.810	1.117	1.163	1.353	1.396	1.203	1.426	1.054	1.185	1.063	1.063	1.331	1.288	1.420	1.175	1.168	1.046	1.007	1.016	0.761	0.607	0.602	0.633	0.934	0.787	1.393	2.330	3.890	4.385	2.403	1.641	1.892	2.242	3.810	9.423	21.24	46.15	93.10	56.73	31.85	5.851	0.370	0.519	0.335	0.378
290.0	217.3	257.2	265.6	194.2	124.8	108.1	129.2	231.1	606.4	995.3	693.7	748.9	 2216	 8590	9999.9	 8098	102.8	14.64	7.957	7.204	5.160	3.707	3.736	3.032	2.679	2.423	2.410	2.468	2.102	1.869	1.530	1.590	1.944	1.192	1.337	1.421	1.672	1.506	1.420	1.284	1.351	1.565	1.331	1.502	1.440	1.498	1.471	1.543	1.440	1.150	1.174	0.996	0.913	0.770	0.776	0.847	0.976	1.093	1.501	2.072	3.111	4.493	4.369	3.536	2.578	2.581	3.878	6.461	12.12	27.59	43.81	65.18	83.84	58.18	22.56	5.593	0.545
295.0	285.9	301.8	305.4	260.9	169.4	150.6	179.9	231.8	381.1	743.7	 1410	881.3	945.6	 2257	 3565	9999.9	 9588	137.9	12.14	10.03	7.280	5.287	4.627	3.645	3.258	3.174	3.388	2.609	2.392	1.974	1.486	1.596	1.710	1.254	1.572	1.372	1.600	1.781	1.880	1.501	1.397	1.935	1.625	1.691	1.787	1.685	1.686	1.827	1.685	1.381	1.324	1.245	1.326	0.756	1.235	1.126	1.131	1.201	1.324	1.535	2.000	2.689	3.637	5.689	6.828	4.021	3.302	3.318	4.718	7.455	10.96	16.20	27.70	59.09	117.3	58.44	32.68
300.0	311.6	326.8	354.0	301.8	205.7	183.1	215.5	276.0	354.0	557.4	 1253	 1481	814.8	940.0	 1046	 5495	9999.9	 7570	87.43	14.11	8.877	6.620	4.746	4.085	3.503	3.218	3.426	2.313	2.682	1.857	1.700	1.584	1.887	1.492	1.469	1.624	1.818	1.819	1.702	1.740	1.707	1.723	1.760	1.935	1.812	1.904	1.942	1.772	1.824	1.635	1.379	1.140	1.403	0.964	1.010	1.129	1.262	1.291	1.463	1.565	1.985	2.266	2.931	3.928	6.333	7.252	5.401	3.832	3.408	3.624	4.109	4.838	7.904	15.66	45.74	89.65	136.4
305.0	323.2	342.6	389.1	336.8	234.7	206.0	242.6	317.6	411.1	546.3	928.6	 1680	 1253	757.1	552.7	 1467	 6093	9999.9	 1230	50.63	11.36	8.037	5.688	4.808	3.500	3.114	3.542	2.694	2.268	2.353	1.901	2.235	2.104	1.563	1.380	1.353	1.637	1.957	2.145	1.810	1.821	1.689	1.751	2.002	1.670	1.727	1.890	1.918	1.911	1.519	1.321	1.275	1.276	1.227	1.347	1.165	1.345	1.490	1.732	1.550	2.010	2.165	2.705	3.121	4.189	6.245	8.019	6.589	4.250	3.016	3.193	2.817	3.587	4.750	11.31	24.86	66.08
310.0	321.1	338.0	411.2	367.9	277.6	250.5	300.2	369.5	460.2	596.8	826.4	 1184	 1585	 1235	569.6	585.4	 1591	 5947	9999.9	 5089	74.30	12.34	7.654	5.825	4.271	3.305	4.511	3.233	3.049	2.133	1.978	1.830	2.069	1.509	1.466	1.436	1.883	1.820	1.823	1.903	1.598	1.733	1.681	1.962	1.741	2.021	1.899	2.059	1.822	1.479	1.534	1.614	1.514	1.481	1.409	1.332	1.608	1.700	1.610	1.906	2.282	2.245	2.929	3.588	3.673	4.720	5.234	6.468	6.882	6.067	4.216	2.973	3.097	2.735	3.896	6.848	16.01
315.0	285.9	350.2	419.7	383.6	317.7	282.0	331.6	402.9	511.4	630.1	825.7	999.7	 1184	 1624	 1008	485.8	573.8	 1482	 3090	9999.9	 7313	101.1	11.25	7.340	5.536	4.790	5.177	3.465	3.611	2.875	2.559	2.143	2.226	1.560	1.811	1.392	1.826	1.677	1.647	1.985	1.580	2.070	1.624	1.716	1.769	1.957	2.098	2.197	1.882	1.710	1.639	1.725	1.621	1.753	1.512	1.846	1.758	1.874	1.928	1.862	2.505	2.400	2.785	3.520	3.434	3.647	4.308	4.594	5.170	6.082	7.488	5.810	4.221	2.661	2.704	3.168	5.072
320.0	302.6	378.6	474.8	429.3	351.7	306.6	346.9	431.9	546.2	668.5	855.4	995.8	 1074	 1362	 1452	658.3	402.5	523.6	823.2	 4395	9999.9	 5861	68.97	9.845	7.680	5.263	5.791	4.227	3.521	2.766	2.673	2.044	2.486	2.096	1.891	1.834	1.715	1.862	1.876	1.881	1.783	2.023	1.885	2.493	2.129	2.125	2.217	2.508	2.156	1.678	1.533	1.820	1.577	1.706	1.723	1.659	1.972	1.877	2.270	2.437	2.515	2.940	2.946	3.193	3.786	3.722	4.233	4.656	4.547	4.420	5.653	6.819	6.943	3.752	2.899	2.549	2.677
325.0	339.9	432.4	609.2	507.3	386.6	337.6	363.3	446.8	558.6	689.8	876.9	 1004	 1073	 1202	 1361	 1092	463.0	351.3	338.1	 1123	 5684	9999.9	923.1	40.82	9.297	7.373	7.158	4.767	2.912	3.141	2.643	2.595	2.620	2.142	2.290	1.900	1.782	1.647	1.885	1.937	1.765	1.881	1.783	2.105	2.040	2.255	2.381	2.910	2.628	2.093	2.019	2.043	1.615	1.805	1.834	1.671	2.007	2.119	2.297	2.269	2.734	2.868	2.988	3.540	3.561	3.926	4.329	4.475	4.768	4.783	4.781	5.168	7.945	6.414	4.266	2.927	2.311
330.0	356.8	488.1	656.8	639.1	465.7	392.2	407.3	484.4	604.2	701.4	896.4	 1027	 1103	 1170	 1095	 1121	860.8	430.5	287.1	400.5	 1425	 5237	9999.9	 6674	60.50	10.83	10.63	5.718	4.118	3.243	3.168	3.117	3.086	2.072	1.961	1.783	1.774	1.853	1.881	1.838	1.924	1.895	1.969	2.048	2.208	2.490	2.451	3.048	2.898	3.176	2.188	2.298	1.934	2.109	1.982	2.022	2.028	2.120	2.362	2.502	2.803	3.229	3.119	3.699	3.746	4.065	4.375	4.411	4.566	4.605	5.172	4.694	6.206	4.995	6.033	5.895	4.720
335.0	354.7	497.3	687.8	697.7	557.5	460.3	458.5	533.2	634.4	734.3	905.8	 1050	 1107	 1177	 1026	895.8	972.6	793.0	359.3	286.9	458.8	 1275	 3179	9999.9	 5946	81.10	15.70	7.500	5.904	4.143	3.055	3.246	3.082	2.157	1.896	2.043	2.053	1.857	1.891	1.969	1.889	1.924	1.966	2.013	2.306	2.724	2.898	3.014	3.163	5.517	2.324	2.701	2.325	2.222	2.119	2.071	1.925	2.186	2.514	2.503	2.741	2.997	3.115	3.746	4.035	4.057	4.562	4.509	4.333	5.002	5.075	4.981	5.419	4.461	4.382	5.349	6.022
340.0	338.5	519.5	716.3	768.7	619.1	511.4	507.6	565.4	639.4	762.4	912.5	 1031	 1111	 1177	 1029	848.0	805.2	961.2	577.2	306.7	282.4	420.7	819.8	 4374	9999.9	 4776	65.32	10.99	6.930	4.631	3.518	3.684	3.428	2.552	2.072	2.432	2.144	1.946	1.870	1.996	1.723	1.609	1.985	1.843	2.442	2.732	3.025	3.092	3.312	6.223	2.812	3.057	2.628	2.267	2.500	2.322	2.331	2.359	2.504	2.656	2.832	2.814	3.441	4.064	3.864	4.094	4.491	4.892	4.386	5.196	5.559	4.486	4.958	4.196	4.652	5.339	4.337
345.0	323.7	501.2	755.1	799.6	661.9	587.8	528.4	572.3	656.4	767.4	919.7	 1011	 1095	 1158	 1041	856.8	738.7	813.4	838.2	422.5	284.3	267.4	309.6	 1107	 5791	9999.9	 4056	41.10	9.501	5.455	5.278	3.932	3.941	2.665	2.390	2.489	2.053	2.204	2.000	1.747	1.465	1.719	2.128	1.686	2.563	2.639	3.059	2.916	3.403	4.992	2.774	3.283	2.948	2.569	2.528	2.380	2.639	2.641	2.918	2.751	3.103	2.964	3.477	3.420	3.755	4.116	4.149	4.588	4.813	4.606	5.056	4.435	4.748	4.554	4.044	4.461	4.151
350.0	299.3	465.5	706.2	802.4	739.5	679.5	631.5	643.2	706.4	819.9	939.5	 1023	 1070	 1145	 1053	899.0	760.7	694.9	783.0	726.2	420.4	298.4	255.9	386.1	 1461	 5518	9999.9	 5864	54.06	9.308	7.372	5.051	4.945	2.846	2.533	2.385	2.274	1.973	2.083	1.913	1.779	1.724	2.058	2.017	2.260	2.547	2.582	2.957	3.218	3.445	2.683	3.079	2.912	3.032	2.760	2.760	2.814	2.651	2.841	2.973	2.976	3.232	3.613	3.695	4.078	4.254	4.236	4.322	4.936	4.912	4.903	4.624	5.162	4.377	4.187	4.472	3.802
355.0	289.0	456.0	671.8	785.2	785.5	741.5	753.8	734.1	785.3	874.9	955.8	 1035	 1084	 1125	 1051	939.6	818.7	719.1	667.5	741.4	717.8	413.5	305.3	283.2	473.6	 1340	 3902	9999.9	 5290	73.03	10.17	6.446	5.472	3.247	2.373	2.836	2.535	2.387	1.972	1.938	1.767	1.759	1.922	1.983	1.813	2.386	2.606	2.972	2.889	2.845	2.841	2.902	3.272	3.034	3.207	2.950	3.561	3.545	3.257	2.990	3.435	3.412	3.826	4.426	4.402	4.177	4.276	4.397	4.407	4.467	5.254	5.346	4.859	4.884	4.423	4.744	4.341
360.0	293.0	428.9	674.4	807.6	847.6	821.8	796.5	813.9	842.8	932.6	976.0	 1064	 1116	 1131	 1072	949.2	848.6	756.3	685.7	665.8	813.9	619.1	369.2	306.1	291.7	431.7	989.2	 4717	9999.9	 4031	51.94	9.074	7.127	4.465	2.855	3.358	2.348	2.137	2.173	2.213	1.817	1.696	2.263	1.905	1.891	2.419	2.283	2.898	2.928	2.636	2.991	3.328	3.220	3.451	3.351	3.411	3.312	3.427	3.714	3.578	4.007	3.996	3.887	4.188	4.074	4.294	4.447	4.613	4.908	4.604	4.816	4.626	5.389	5.374	4.306	4.491	4.284
365.0	284.3	421.6	610.3	795.4	871.5	873.4	827.7	848.8	881.9	970.1	 1018	 1066	 1111	 1107	 1078	966.1	872.4	808.2	722.5	667.0	722.8	787.3	495.2	353.2	294.8	260.5	346.0	 1195	 6539	9999.9	689.0	31.28	9.650	5.034	3.900	3.710	2.987	2.054	2.097	2.295	1.898	1.650	1.959	1.896	2.400	2.377	2.304	2.818	2.622	2.758	2.722	3.052	3.455	3.569	3.576	3.737	3.407	3.657	3.348	3.299	3.656	3.857	4.119	4.097	4.361	4.440	4.062	4.871	4.578	5.026	4.645	4.475	5.222	4.802	4.819	4.887	4.510
370.0	298.0	411.1	602.2	772.3	872.6	916.0	894.4	920.9	941.7	 1014	 1045	 1091	 1086	 1094	 1077	977.7	899.8	849.6	769.2	715.9	683.1	735.4	728.7	491.1	350.9	279.5	248.9	384.2	 1642	 5644	9999.9	 2895	47.48	7.968	5.511	4.588	3.262	2.367	2.396	2.311	1.907	1.896	2.155	2.153	2.401	2.332	2.462	2.839	2.802	2.731	2.821	2.957	3.436	3.599	3.591	4.006	3.806	3.988	3.873	3.641	3.836	3.894	4.624	4.237	4.284	4.395	4.821	4.917	4.606	4.748	4.718	4.814	4.843	5.137	4.873	4.694	4.945
375.0	278.8	397.8	585.6	746.3	873.3	952.9	947.2	960.9	956.7	 1016	 1066	 1103	 1094	 1105	 1072	979.4	924.9	886.1	814.5	760.9	720.1	687.8	731.2	735.9	479.9	344.1	276.6	252.0	480.0	 1340	 3729	9999.9	 4725	56.59	8.196	6.535	4.088	2.864	2.735	2.486	1.990	1.891	2.670	2.306	2.287	2.508	2.622	2.534	2.534	2.785	2.747	2.712	3.468	3.700	3.702	4.278	3.916	3.764	3.658	4.048	3.672	4.425	4.882	4.403	4.481	4.760	5.005	5.003	4.517	5.019	4.584	4.895	4.392	4.703	5.234	5.147	4.784
380.0	286.9	365.3	571.5	735.9	876.3	955.7	974.5	961.7	985.4	 1001	 1077	 1082	 1098	 1095	 1051	988.1	934.0	896.4	838.8	792.5	744.9	697.3	677.9	776.1	632.7	415.3	319.1	255.8	251.1	399.8	930.6	 5063	9999.9	 3252	39.40	8.493	5.456	3.292	2.969	2.789	2.129	2.341	2.083	2.174	2.156	2.422	2.439	2.524	2.800	2.436	3.094	3.334	3.256	3.631	3.657	4.077	3.942	3.873	4.282	4.260	4.108	4.343	3.915	4.483	4.503	4.392	4.699	4.855	4.790	4.350	4.574	5.000	4.545	4.836	5.064	4.970	4.977
385.0	291.0	398.7	546.5	733.8	874.6	963.2	 1001	975.2	987.6	 1030	 1067	 1083	 1096	 1094	 1042	992.1	932.8	903.4	861.6	824.4	782.6	728.9	674.4	700.4	742.5	528.9	370.0	289.8	228.8	217.3	302.6	 1279	 8337	9999.9	548.2	24.64	6.433	4.229	3.502	2.773	2.430	2.546	2.165	1.965	2.457	2.332	2.515	2.647	2.830	2.598	2.806	3.196	3.769	4.060	3.948	3.960	4.131	4.496	4.006	4.279	4.361	4.178	3.920	4.494	4.305	4.478	4.723	4.167	4.150	4.689	4.899	4.735	4.886	4.762	4.717	4.779	5.142
390.0	271.7	366.7	547.0	694.5	840.6	955.1	981.4	984.1	981.4	 1010	 1058	 1057	 1059	 1056	 1020	972.5	931.7	896.9	868.7	833.3	797.4	751.9	704.6	667.7	693.6	677.8	484.7	346.0	272.6	212.7	190.9	373.1	 2115	 5840	 9208	 5410	35.57	6.589	4.321	3.625	2.855	2.694	2.727	2.303	2.210	2.291	2.317	2.667	2.778	2.584	2.633	3.199	3.358	3.722	3.751	3.762	3.833	4.468	4.021	4.164	4.431	4.011	4.499	4.255	4.556	4.419	4.659	4.377	4.461	4.659	4.727	4.516	4.816	4.654	4.896	4.749	5.145
395.0	276.1	371.1	529.9	709.2	824.9	931.5	976.4	962.5	995.1	991.7	 1017	 1043	 1034	 1020	 1000	943.8	906.4	885.4	857.6	840.7	806.9	767.2	726.6	682.1	650.8	655.6	644.0	445.6	328.7	251.1	201.8	197.8	550.8	 1361	 3545	9999.9	 3598	46.09	6.517	5.073	3.760	2.887	2.958	2.413	2.676	2.333	2.473	2.533	2.446	2.508	2.536	3.035	3.299	3.803	3.765	3.813	3.659	3.812	3.816	4.171	4.042	3.665	4.449	4.113	4.501	4.360	4.577	4.100	4.738	4.092	4.595	4.184	4.393	4.607	4.685	4.247	4.957
400.0	260.3	368.3	514.2	688.7	816.9	922.4	962.8	967.9	980.4	983.3	991.8	 1018	 1020	997.4	978.9	927.8	902.1	876.3	854.2	841.6	804.5	781.5	739.2	693.4	640.9	609.4	671.2	560.5	374.9	285.0	225.4	182.1	218.9	366.5	866.2	 5702	9999.9	 2460	29.23	6.450	4.166	3.455	3.534	2.360	2.228	2.486	2.460	2.555	2.607	2.651	2.445	3.261	3.402	3.662	3.783	3.560	3.620	4.087	3.959	4.189	4.189	4.010	4.052	4.337	4.107	4.059	4.346	4.368	4.374	4.438	3.980	3.982	4.703	4.628	4.116	4.566	4.666
405.0	249.8	346.6	475.6	646.0	794.1	914.8	970.2	965.4	977.5	971.2	 1014	 1002	993.2	983.9	956.8	909.8	876.2	866.5	842.5	822.6	796.6	775.4	742.0	697.6	648.4	605.9	610.9	630.5	458.4	323.0	253.9	196.7	160.8	156.6	246.6	 1429	 6136	 8077	446.1	16.27	5.088	4.062	3.835	2.803	2.663	2.743	2.693	2.549	2.369	2.595	2.707	2.795	3.153	3.277	3.525	4.063	3.778	3.727	3.579	3.867	4.110	3.717	4.210	4.306	3.985	4.095	4.379	4.514	4.143	4.710	4.314	4.291	4.158	3.991	3.971	4.688	4.793
