Sample:	'1
File name:	t2025032801½ðÐÇÓêË®ÅÅ¿Ú100±¶.FD3
Run date:	'15:26:44, 03/28/2025
Operator:	Administrator
Comment:	'

Instrument
Model:	F-2700 FL Spectrophotometer
Serial number:	23B8-004
ROM Version:	4J14000 07

Instrument parameters
Measurement type:	3-D scan
Data mode:	Fluorescence
EX  Start WL:	220.0 nm
EX  End WL:	600.0 nm
EX Sampling interval:	5.0 nm
EM  Start WL:	230.0 nm
EM  End WL:	650.0 nm
EM Sampling interval:	5.0 nm
Scan speed:	12000 nm/min
EX Slit:	5.0 nm
EM Slit:	5.0 nm
PMT Voltage:	700 V
Response:	Auto 
Corrected spectra:	Off
Contour interval:	50.000

Peak integration
Integration method:	Rectangular
Sensitivity:	1
Threshold:	1.000

Peaks
No.	ApexEX/EM(nm)	Height(Data)
1	225.0/490.0	184.3
2	230.0/500.0	170.3
3	235.0/515.0	135.4
4	240.0/265.0	450.0
5	240.0/525.0	126.6
6	245.0/270.0	435.0
7	245.0/540.0	112.1
8	250.0/550.0	108.5
9	270.0/300.0	9424
10	270.0/590.0	710.4
11	300.0/335.0	353.9
12	305.0/340.0	279.9
13	310.0/350.0	223.9
14	315.0/355.0	202.1
15	320.0/360.0	196.8
16	325.0/370.0	153.2
17	330.0/375.0	142.8
18	335.0/380.0	151.8
19	345.0/395.0	95.30
20	350.0/400.0	102.6
21	355.0/405.0	87.14
22	365.0/420.0	71.39
23	370.0/425.0	62.80
24	375.0/430.0	47.08
25	380.0/440.0	47.92
26	385.0/300.0	20.22
27	385.0/445.0	41.16
28	385.0/590.0	2.034
29	390.0/450.0	31.93
30	395.0/460.0	29.65
31	400.0/465.0	25.97
32	405.0/470.0	19.90
33	410.0/475.0	17.80
34	415.0/485.0	16.46
35	420.0/490.0	12.86
36	425.0/500.0	12.46
37	430.0/505.0	11.76
38	435.0/300.0	15.49
39	435.0/510.0	8.981
40	440.0/520.0	8.152
41	445.0/525.0	7.619
42	450.0/530.0	6.170
43	455.0/540.0	5.348
44	460.0/545.0	4.467
45	470.0/560.0	2.999
46	475.0/565.0	2.497
47	480.0/575.0	2.274
48	540.0/295.0	41.09

Data points
	220.0	225.0	230.0	235.0	240.0	245.0	250.0	255.0	260.0	265.0	270.0	275.0	280.0	285.0	290.0	295.0	300.0	305.0	310.0	315.0	320.0	325.0	330.0	335.0	340.0	345.0	350.0	355.0	360.0	365.0	370.0	375.0	380.0	385.0	390.0	395.0	400.0	405.0	410.0	415.0	420.0	425.0	430.0	435.0	440.0	445.0	450.0	455.0	460.0	465.0	470.0	475.0	480.0	485.0	490.0	495.0	500.0	505.0	510.0	515.0	520.0	525.0	530.0	535.0	540.0	545.0	550.0	555.0	560.0	565.0	570.0	575.0	580.0	585.0	590.0	595.0	600.0
230.0	104.2	2029	3738	795.9	25.75	5.042	4.020	4.292	4.397	4.329	4.538	4.003	2.490	4.384	1.709	1.381	1.404	1.291	1.103	1.004	0.903	0.933	0.818	0.763	0.691	0.663	0.587	0.566	0.550	0.510	0.543	0.516	0.440	0.467	0.427	0.434	0.438	0.365	0.337	0.384	0.624	0.966	0.847	0.403	0.356	0.437	2.746	10.58	14.91	9.113	2.778	0.525	0.224	0.223	0.220	0.191	0.210	0.206	0.198	0.211	0.203	0.201	0.195	0.181	0.192	0.164	0.187	0.159	0.174	0.142	0.168	0.161	0.145	0.138	0.143	0.141	0.149
235.0	187.4	575.0	2515	3443	571.0	45.38	5.200	5.040	4.981	5.000	4.757	4.103	2.724	4.448	1.675	1.425	1.637	1.416	1.290	1.118	1.008	1.014	0.713	0.847	0.643	0.668	0.685	0.490	0.471	0.595	0.644	0.479	0.470	0.475	0.446	0.392	0.426	0.430	0.357	0.362	0.411	0.634	0.787	0.974	0.791	0.484	0.914	2.844	6.285	10.43	12.91	12.28	4.975	1.017	0.233	0.237	0.191	0.250	0.207	0.185	0.190	0.177	0.243	0.154	0.172	0.246	0.199	0.190	0.140	0.141	0.161	0.183	0.222	0.148	0.142	0.156	0.174
240.0	286.5	259.5	790.3	3291	3555	446.4	22.63	6.768	5.389	5.321	5.134	4.492	3.275	4.732	2.009	1.488	1.682	1.386	1.373	1.023	1.119	0.999	0.838	0.883	0.834	0.733	0.714	0.668	0.647	0.638	0.632	0.450	0.532	0.432	0.479	0.325	0.424	0.446	0.389	0.458	0.373	0.470	0.455	0.676	0.963	0.941	0.707	0.943	1.702	3.357	7.584	16.86	18.89	12.36	4.054	0.655	0.263	0.248	0.216	0.217	0.268	0.232	0.226	0.190	0.205	0.214	0.218	0.189	0.139	0.173	0.219	0.177	0.188	0.152	0.136	0.126	0.154
245.0	196.0	309.4	252.3	1233	4286	3445	322.9	11.32	8.810	6.428	5.622	4.799	3.610	4.428	2.180	1.753	1.509	1.461	1.497	1.240	1.003	0.993	0.837	0.748	0.791	0.669	0.703	0.724	0.627	0.668	0.536	0.467	0.578	0.402	0.477	0.380	0.464	0.402	0.394	0.324	0.397	0.418	0.321	0.469	0.611	1.007	1.228	0.950	0.748	0.998	2.081	6.056	13.82	23.18	21.76	11.13	2.830	0.480	0.274	0.186	0.246	0.270	0.274	0.193	0.268	0.231	0.256	0.206	0.184	0.219	0.212	0.196	0.190	0.178	0.173	0.136	0.194
250.0	81.67	222.9	326.1	379.2	1449	3982	4242	1285	71.28	9.089	8.030	6.218	4.859	5.567	2.329	2.236	1.910	1.681	1.595	1.397	0.979	1.208	0.888	0.756	0.950	0.766	0.709	0.747	0.682	0.604	0.628	0.531	0.573	0.423	0.499	0.419	0.456	0.387	0.383	0.408	0.437	0.407	0.386	0.409	0.446	0.590	0.727	1.130	1.201	1.065	0.972	1.663	3.561	7.702	13.74	20.50	25.01	19.86	12.24	3.396	0.494	0.322	0.303	0.283	0.264	0.229	0.224	0.199	0.223	0.201	0.206	0.221	0.200	0.186	0.171	0.151	0.177
255.0	44.85	78.12	240.0	416.6	425.1	1038	3733	6948	1834	67.74	11.05	8.046	5.377	7.970	3.116	2.650	2.330	1.796	1.708	1.522	1.200	1.145	1.032	0.942	0.884	0.862	0.877	0.758	0.536	0.769	0.676	0.549	0.567	0.427	0.571	0.487	0.468	0.340	0.451	0.391	0.503	0.422	0.394	0.430	0.405	0.394	0.412	0.532	0.656	1.254	1.585	1.574	1.394	2.002	3.374	5.190	9.463	22.45	45.81	29.98	18.64	3.878	0.415	0.355	0.336	0.337	0.229	0.253	0.262	0.190	0.234	0.220	0.206	0.177	0.252	0.188	0.212
260.0	32.86	36.37	92.12	360.4	386.0	288.8	1166	5976	7968	1355	33.31	11.81	7.228	9.019	3.904	3.086	2.485	1.939	1.743	1.688	1.420	1.370	1.087	0.887	0.987	0.986	0.906	0.722	0.750	0.819	0.788	0.697	0.664	0.482	0.509	0.558	0.474	0.354	0.480	0.395	0.458	0.496	0.457	0.441	0.416	0.474	0.380	0.386	0.432	0.569	1.100	1.909	2.013	1.258	1.196	1.479	2.480	6.262	20.10	37.46	55.27	28.75	15.01	2.216	0.349	0.343	0.300	0.290	0.264	0.218	0.216	0.239	0.238	0.212	0.266	0.211	0.259
265.0	28.63	29.30	36.85	171.3	450.0	264.9	306.8	2072	8665	7726	227.1	18.91	10.27	11.49	5.066	3.505	2.802	2.143	2.101	1.754	1.617	1.361	1.115	0.998	1.101	1.072	0.883	0.732	0.819	0.769	0.903	0.649	0.610	0.538	0.505	0.530	0.472	0.387	0.511	0.420	0.525	0.477	0.484	0.436	0.356	0.444	0.518	0.316	0.343	0.362	0.498	1.007	2.002	2.195	1.722	0.779	0.945	1.731	5.069	11.11	29.92	54.27	67.63	26.40	10.33	0.975	0.386	0.439	0.321	0.278	0.283	0.283	0.288	0.258	0.225	0.229	0.274
270.0	69.62	61.25	39.99	64.10	222.6	435.0	310.6	533.5	2828	7626	9205	2766	60.30	18.73	6.967	4.586	3.633	2.653	2.726	2.030	1.882	1.600	1.457	1.157	1.169	1.073	1.003	0.954	0.925	0.852	0.898	0.847	0.795	0.802	0.724	0.656	0.605	0.549	0.512	0.499	0.563	0.550	0.583	0.544	0.540	0.509	0.525	0.439	0.457	0.398	0.413	0.539	0.817	1.301	2.052	2.251	2.168	1.287	1.650	2.975	7.331	15.96	32.69	50.70	67.61	57.89	18.02	8.628	1.348	0.457	0.415	0.365	0.352	0.301	0.289	0.305	0.357
275.0	457.1	310.4	172.2	109.7	119.2	255.5	645.0	440.5	899.5	2342	7051	9999.9	1304	87.04	11.48	7.339	5.259	3.714	3.254	2.489	2.138	1.749	1.513	1.120	1.418	1.336	1.158	1.039	1.122	1.081	0.994	1.116	1.616	2.027	1.650	1.523	1.325	1.099	1.151	1.126	1.266	1.370	1.226	1.393	1.479	1.191	1.080	0.980	0.884	0.706	0.600	0.603	0.594	0.724	0.884	1.301	2.905	3.678	3.193	2.197	3.152	5.590	9.337	14.02	21.95	44.55	88.64	105.6	28.49	11.56	1.326	0.518	0.491	0.405	0.330	0.439	0.335
280.0	1501	974.5	580.4	369.5	252.3	294.3	714.9	1299	1497	2146	3758	9999.9	9999.9	1055	36.75	11.10	7.314	5.415	4.580	3.502	2.491	1.996	1.724	1.635	1.568	1.473	1.259	1.130	1.138	1.140	1.193	2.311	3.789	4.913	4.563	3.669	3.131	3.260	3.039	3.067	3.355	3.549	3.808	3.742	3.979	3.217	2.669	2.342	2.075	1.627	1.367	1.259	1.065	1.136	1.166	1.423	2.344	3.777	6.013	6.402	5.847	6.693	8.455	10.47	13.32	18.25	36.42	80.03	115.0	107.7	24.79	6.173	0.825	0.630	0.580	0.558	0.556
285.0	2625	1831	1158	804.8	520.4	509.0	920.7	1982	2682	3779	4435	5858	9999.9	9999.9	130.8	19.91	11.72	6.970	5.416	4.120	3.046	2.803	2.319	1.835	1.525	1.508	1.353	1.407	1.317	1.213	1.715	3.758	7.025	9.128	8.649	7.140	6.205	5.764	5.178	5.564	6.166	7.046	7.073	7.348	6.801	6.605	5.123	4.393	3.567	2.894	2.737	2.439	2.123	1.924	1.939	2.128	3.185	4.564	6.726	9.948	12.46	13.26	14.30	16.64	18.11	19.05	22.28	32.54	55.34	106.5	132.8	33.69	19.15	3.072	0.899	0.836	0.719
290.0	5132	3409	2158	1482	962.1	836.7	1345	2591	4596	6437	6880	6024	4949	9999.9	9999.9	2490	42.37	10.63	8.190	5.829	4.135	3.440	3.016	2.377	2.190	1.842	1.684	1.673	1.580	1.517	2.068	5.584	10.82	15.14	14.72	11.64	9.708	9.136	8.660	9.252	10.15	10.58	11.27	11.97	11.92	10.77	8.628	7.391	6.033	4.921	4.500	4.524	3.741	3.192	2.962	3.235	4.708	6.365	8.742	11.96	16.15	21.24	24.90	28.79	29.82	28.03	27.92	27.75	26.77	34.04	54.10	70.60	106.2	86.46	67.98	13.62	3.949
295.0	6487	4473	2848	1982	1287	1072	1625	3054	5326	7983	8963	7170	3602	2977	6956	9999.9	748.6	44.18	11.87	7.714	5.599	4.396	3.621	2.973	2.753	2.144	2.028	1.968	1.849	1.722	2.537	7.139	13.55	19.15	18.42	15.07	13.09	11.63	11.52	12.01	12.46	13.53	14.46	15.17	15.00	13.50	10.55	10.03	8.337	6.927	5.952	6.048	5.018	3.938	3.920	4.104	5.859	7.852	10.39	14.36	18.85	23.96	28.83	35.76	41.09	36.58	33.74	30.16	23.52	17.28	17.16	19.19	28.73	50.13	118.2	157.1	35.65
300.0	6644	4707	3075	2153	1355	1129	1667	3115	5327	7873	9424	7639	3407	1379	1975	9117	9999.9	619.3	26.14	9.969	6.652	5.837	4.390	3.399	2.827	2.510	2.310	2.028	1.908	1.556	2.741	6.791	13.88	20.22	19.59	16.25	14.22	12.36	12.11	12.70	13.09	14.00	14.90	15.49	15.32	14.18	11.46	10.14	8.849	7.299	6.637	6.351	5.384	4.444	3.876	4.251	5.965	8.237	10.52	14.29	18.56	24.09	28.79	34.66	39.81	39.31	37.22	32.88	23.12	13.95	9.629	7.755	9.077	13.40	35.15	87.91	150.5
305.0	6259	4615	2987	2105	1302	1082	1573	2856	4974	7217	8604	7613	3372	1072	667.8	2667	9999.9	9999.9	450.1	15.63	8.867	6.699	4.778	4.006	3.438	2.849	2.546	2.270	1.924	1.721	2.765	6.600	13.76	19.54	19.22	15.68	13.82	12.37	11.65	11.64	12.85	13.15	14.22	14.75	14.93	13.44	11.25	10.12	8.724	7.169	6.639	6.206	5.252	4.478	4.039	4.153	5.413	7.739	9.758	13.46	17.73	21.80	26.82	31.74	35.89	36.08	35.84	34.16	23.45	13.16	7.451	5.315	4.386	4.891	9.379	21.99	51.71
310.0	5225	3951	2593	1836	1143	905.0	1301	2362	4082	5922	6924	6245	3341	1097	395.7	683.8	2963	9152	8813	1935	31.12	10.50	6.534	4.589	3.834	3.162	2.753	2.330	2.047	1.986	2.650	5.978	12.20	17.11	16.84	14.24	12.42	11.17	9.981	10.27	10.88	10.96	11.99	12.51	12.52	11.75	9.862	8.857	7.545	6.203	5.759	5.580	4.656	3.824	3.527	3.486	4.815	6.356	8.476	10.89	14.73	18.29	22.38	26.16	29.25	28.87	28.56	27.45	21.77	13.69	8.358	5.151	3.641	2.887	3.455	6.161	12.71
315.0	4060	3132	2083	1445	917.6	712.2	984.4	1767	3054	4439	5204	4633	2621	1328	411.9	244.3	707.1	2132	6052	9999.9	2720	35.10	9.389	6.458	5.055	3.679	3.115	2.805	2.315	2.248	2.600	5.066	9.725	12.96	13.47	11.84	10.31	9.300	8.238	8.080	8.590	9.110	9.954	10.02	9.457	9.304	7.836	7.463	6.197	5.217	4.760	4.448	3.842	3.161	2.746	2.918	3.676	4.783	6.404	8.286	11.02	14.13	17.10	19.83	22.20	21.64	21.16	19.90	15.65	10.86	9.033	6.826	4.087	2.853	2.010	2.496	3.843
320.0	3246	2546	1694	1181	731.6	571.4	771.0	1388	2352	3428	4024	3610	2012	1161	608.1	156.4	202.8	504.4	1568	8479	9999.9	483.8	19.67	8.303	6.065	4.297	3.185	2.995	2.577	2.401	2.375	4.407	8.110	10.75	11.33	10.06	8.413	7.372	6.687	6.565	6.481	7.542	7.741	8.000	7.856	7.538	6.384	6.045	5.023	4.104	4.033	3.745	3.147	2.817	2.222	2.534	3.081	3.725	5.293	6.459	8.686	10.83	13.24	15.44	16.92	17.34	16.39	15.37	12.17	8.286	6.165	6.217	5.319	4.148	1.995	1.640	1.871
325.0	2600	2077	1369	973.9	606.4	469.3	606.6	1071	1823	2659	3120	2830	1576	825.3	694.1	269.9	94.21	141.3	377.5	2455	9999.9	9999.9	64.63	11.88	7.929	5.744	3.982	2.925	2.792	2.538	2.612	3.950	6.714	9.198	9.237	8.282	7.335	6.476	6.104	5.276	5.477	6.174	6.384	6.590	6.524	6.260	5.470	5.016	4.127	3.400	3.200	3.142	2.761	2.326	2.061	2.145	2.545	3.169	4.454	4.994	6.693	8.532	10.40	12.28	13.34	13.51	12.72	12.35	9.821	6.523	4.759	4.267	4.263	4.741	3.372	2.165	1.469
330.0	1958	1588	1074	761.3	472.4	351.9	448.7	763.2	1307	1896	2232	2047	1189	584.6	424.1	411.0	191.1	67.96	107.2	572.0	2865	9993	7623	1562	25.76	7.590	5.314	3.775	3.181	2.682	2.767	3.637	5.549	7.321	7.261	6.431	5.792	5.013	4.816	4.306	4.426	4.558	4.902	4.929	5.149	4.756	4.188	4.142	3.509	2.888	2.659	2.577	2.211	1.893	1.665	1.674	1.985	2.579	3.197	3.745	4.776	6.257	7.343	8.861	9.905	9.886	9.403	8.955	7.220	5.057	3.659	2.950	2.554	2.705	2.828	3.187	2.729
335.0	1454	1203	819.3	577.2	358.9	269.2	317.6	530.1	891.6	1291	1537	1434	877.6	440.4	252.4	235.1	353.9	98.56	49.62	148.3	656.1	2330	5880	9999.9	2329	27.49	7.481	5.340	4.182	3.342	2.973	3.301	4.757	5.743	5.530	5.286	4.568	3.957	3.603	3.556	3.575	3.526	3.704	3.626	3.858	3.810	3.230	3.314	2.866	2.228	1.998	2.195	1.832	1.517	1.235	1.405	1.633	1.900	2.257	2.856	3.495	4.061	5.195	6.117	6.655	6.890	6.884	6.586	5.331	3.916	3.029	2.415	2.038	1.652	1.483	1.694	2.332
340.0	1153	981.4	677.4	476.2	289.6	212.6	247.3	396.2	658.1	950.0	1145	1088	695.2	367.1	196.9	134.7	254.7	279.9	70.28	51.81	162.8	539.1	1564	8136	9999.9	399.6	15.30	7.031	4.861	3.726	3.381	3.107	4.354	4.907	4.813	4.462	4.074	3.326	3.247	2.903	3.136	2.919	2.908	2.926	3.189	3.050	2.652	2.741	2.417	1.987	1.845	2.012	1.645	1.269	1.216	1.238	1.259	1.423	1.876	2.089	2.746	3.146	4.203	4.570	5.234	5.316	5.179	4.980	4.281	3.063	2.577	2.181	1.862	1.420	1.219	1.180	1.286
345.0	936.7	794.4	561.3	402.3	246.1	177.7	198.6	308.3	500.3	730.8	870.7	842.7	552.2	306.7	166.6	96.82	121.8	278.3	185.5	41.16	51.99	138.8	367.7	2415	9999.9	7835	56.18	9.321	6.047	4.264	3.592	3.275	3.619	4.410	4.024	3.884	3.686	3.186	2.759	2.489	2.365	2.499	2.523	2.515	2.733	2.561	2.347	2.137	2.013	1.802	1.559	1.666	1.399	1.038	0.995	1.131	1.216	1.150	1.545	1.764	2.107	2.523	3.223	3.858	4.049	4.208	4.074	4.025	3.205	2.610	2.264	1.739	1.586	1.264	1.025	0.937	0.973
350.0	733.6	619.7	453.6	322.4	207.7	148.0	152.8	222.6	358.0	511.3	620.6	606.1	419.3	249.2	139.7	79.32	68.81	127.7	223.9	131.1	39.42	47.09	96.21	555.0	2964	7364	6337	1318	20.63	6.033	4.624	3.745	3.686	3.953	3.621	3.272	3.204	2.654	2.408	2.025	1.951	2.097	2.044	2.032	2.106	2.103	2.042	1.853	1.723	1.423	1.350	1.352	1.147	0.959	0.977	0.907	0.891	1.012	1.392	1.374	1.668	1.979	2.380	2.779	2.962	3.017	3.223	2.998	2.609	2.087	1.758	1.510	1.211	1.099	0.917	0.811	0.814
355.0	580.1	490.5	360.4	258.2	172.3	125.8	118.5	159.6	253.9	358.7	445.3	434.9	315.0	198.5	117.9	72.33	54.23	58.97	100.4	202.1	118.9	31.73	34.40	136.5	672.9	1737	5228	9675	1882	21.22	6.401	4.473	3.930	3.540	3.385	2.830	2.973	2.422	2.176	1.939	1.611	1.606	1.794	1.764	1.729	1.763	1.686	1.690	1.373	1.194	1.171	1.064	1.109	0.904	0.786	0.765	0.835	0.855	0.939	1.146	1.451	1.517	1.785	1.965	2.101	2.181	2.265	2.288	1.897	1.510	1.378	1.311	1.015	1.060	0.911	0.692	0.739
360.0	469.0	419.6	312.4	227.0	152.0	112.2	98.56	131.5	197.9	276.7	339.5	343.2	258.6	170.3	105.3	66.59	51.14	45.15	51.83	130.2	196.8	60.39	22.38	43.25	161.8	400.1	1441	7931	8838	360.1	12.21	5.747	4.684	3.995	3.302	2.899	2.798	2.308	1.938	1.658	1.664	1.664	1.544	1.588	1.612	1.541	1.435	1.475	1.325	1.050	1.051	0.953	1.010	0.894	0.716	0.764	0.706	0.909	0.873	1.023	0.996	1.189	1.274	1.645	1.860	1.929	1.771	1.832	1.622	1.276	1.194	1.127	0.883	0.861	0.688	0.701	0.686
365.0	405.6	363.8	276.3	206.4	138.4	99.99	86.62	108.5	161.5	219.8	271.7	277.3	218.3	147.8	95.38	64.04	49.93	42.24	41.83	64.53	168.8	148.5	34.38	22.82	47.71	100.8	336.8	2456	9490	6664	51.55	7.985	5.567	4.573	3.619	3.043	2.679	1.918	2.159	1.669	1.701	1.460	1.544	1.423	1.520	1.493	1.323	1.392	1.297	1.075	0.978	0.944	0.840	0.819	0.794	0.700	0.791	0.677	0.705	0.897	0.892	1.106	1.161	1.506	1.499	1.531	1.553	1.543	1.440	1.263	1.098	0.996	0.884	0.716	0.735	0.674	0.696
370.0	351.8	315.7	243.2	187.4	135.1	97.82	82.06	93.29	126.3	169.9	208.2	218.8	177.5	128.0	90.33	64.81	53.28	46.05	42.34	45.13	80.37	153.2	106.1	34.74	22.76	33.23	86.15	562.4	2882	7038	6131	1151	17.45	5.785	4.230	3.261	2.794	2.333	2.021	1.794	1.553	1.362	1.459	1.377	1.377	1.226	1.159	1.276	1.118	0.951	0.944	0.909	0.805	0.813	0.701	0.718	0.665	0.680	0.680	0.783	0.922	0.914	1.022	1.125	1.169	1.265	1.218	1.257	1.147	1.139	0.899	0.894	0.821	0.744	0.701	0.667	0.705
375.0	305.8	290.5	226.8	183.6	133.1	97.39	82.75	83.20	103.0	134.4	159.3	169.8	147.3	111.8	84.44	65.46	57.04	52.43	48.59	45.35	48.82	74.24	142.8	106.5	26.24	18.07	29.15	134.3	651.0	1691	5500	8652	352.6	17.85	5.329	3.945	3.236	2.785	2.045	2.028	1.553	1.471	1.442	1.327	1.316	1.146	1.054	1.219	1.000	0.905	0.861	0.903	0.822	0.791	0.733	0.672	0.607	0.641	0.650	0.680	0.729	0.831	0.929	0.894	1.090	0.949	1.034	1.020	1.040	0.907	0.811	0.859	0.858	0.772	0.692	0.739	0.662
380.0	295.6	259.9	222.1	169.2	129.4	97.72	75.79	77.48	85.93	111.9	132.9	144.8	125.1	103.4	80.55	67.42	60.89	57.09	52.24	46.60	44.79	47.43	91.02	151.8	55.30	16.81	16.10	38.87	153.4	387.2	1551	7415	7134	292.4	9.378	4.559	3.534	2.975	2.127	2.037	1.612	1.606	1.418	1.350	1.304	1.247	1.138	1.194	1.066	0.965	0.872	0.914	0.805	0.918	0.716	0.686	0.694	0.688	0.555	0.710	0.753	0.715	0.811	0.781	0.833	0.889	0.839	0.797	0.910	0.891	0.863	0.849	0.775	0.730	0.603	0.671	0.624
385.0	268.5	243.8	210.1	164.9	127.8	103.2	81.16	73.55	78.19	97.47	113.9	123.4	112.9	95.84	78.27	68.54	64.59	60.45	57.17	51.55	45.82	41.56	50.74	118.8	117.7	32.98	13.86	16.91	41.94	93.84	358.2	2343	8213	2752	40.51	6.230	4.381	3.554	2.503	2.175	1.770	1.695	1.469	1.313	1.328	1.375	1.160	1.109	1.017	0.970	0.804	0.915	0.781	0.873	0.732	0.727	0.746	0.550	0.566	0.640	0.620	0.666	0.816	0.795	0.832	0.779	0.898	0.730	1.010	0.831	0.719	0.908	0.817	0.783	0.518	0.748	0.581
390.0	249.7	218.6	196.3	163.8	129.7	103.0	81.49	69.17	73.57	81.92	94.29	103.6	97.17	88.58	75.02	69.25	66.50	64.32	60.51	54.19	47.54	42.62	38.46	56.26	105.8	84.51	28.93	11.87	16.25	27.41	87.09	534.3	2519	5255	4682	887.1	14.25	4.377	3.168	2.565	1.967	1.671	1.462	1.534	1.380	1.216	1.140	1.164	0.979	0.967	0.850	0.921	0.778	0.847	0.773	0.752	0.677	0.575	0.532	0.681	0.653	0.594	0.655	0.696	0.688	0.716	0.784	0.696	0.808	0.758	0.772	0.737	0.795	0.868	0.725	0.679	0.703
395.0	238.9	208.3	175.7	156.2	129.8	100.3	78.03	66.10	63.91	68.75	81.30	92.08	85.60	81.52	73.20	67.62	65.74	64.51	61.25	56.89	49.60	43.39	35.50	34.50	48.12	95.30	81.62	19.82	9.851	11.97	25.72	124.9	567.6	1282	4329	6579	290.7	14.26	4.051	3.006	2.460	1.703	1.630	1.546	1.323	1.245	1.208	1.228	1.009	0.946	0.796	0.927	0.781	0.893	0.744	0.747	0.629	0.642	0.530	0.637	0.668	0.548	0.592	0.638	0.692	0.710	0.680	0.730	0.673	0.688	0.711	0.727	0.668	0.723	0.668	1.021	0.995
400.0	226.8	195.9	173.0	156.8	122.7	98.24	76.33	62.66	57.06	64.35	74.14	81.79	81.33	74.64	71.19	68.31	67.05	63.62	61.51	56.52	49.49	42.62	33.93	28.30	28.53	55.76	102.6	47.98	10.87	8.056	11.17	33.58	132.3	293.1	1239	5780	5531	246.7	7.461	3.660	2.746	2.173	1.721	1.618	1.355	1.250	1.161	1.130	1.029	0.880	0.790	0.941	0.858	0.763	0.740	0.694	0.743	0.596	0.558	0.637	0.598	0.551	0.627	0.601	0.626	0.619	0.574	0.601	0.608	0.591	0.678	0.681	0.625	0.585	0.619	0.837	1.107
405.0	205.8	180.8	168.0	154.8	116.3	92.95	73.43	60.63	54.29	58.12	70.22	71.65	75.62	71.79	69.01	67.61	66.97	62.38	59.77	56.35	48.19	43.11	34.00	26.92	23.37	29.14	73.33	87.14	24.88	7.482	7.280	13.11	34.59	70.93	284.4	1852	6394	2349	36.07	5.060	3.314	2.366	2.036	1.784	1.431	1.280	1.125	1.167	1.065	0.904	0.842	0.899	0.832	0.701	0.745	0.708	0.723	0.681	0.609	0.545	0.510	0.595	0.561	0.628	0.585	0.547	0.541	0.516	0.530	0.502	0.687	0.628	0.561	0.648	0.606	0.643	0.843
410.0	191.3	184.2	165.8	142.8	111.9	86.84	68.47	56.75	50.45	53.90	60.55	66.41	68.30	66.35	63.71	62.99	64.36	61.09	58.06	53.50	46.40	41.93	32.27	26.14	20.81	19.71	32.62	68.76	65.31	21.56	6.829	7.437	12.15	20.47	68.03	421.3	1966	4244	3947	803.0	12.25	3.204	2.397	2.004	1.610	1.411	1.166	1.175	1.001	0.974	0.924	0.868	0.802	0.765	0.724	0.649	0.673	0.674	0.556	0.525	0.567	0.544	0.522	0.580	0.586	0.540	0.513	0.618	0.526	0.558	0.553	0.592	0.568	0.609	0.649	0.557	0.698
415.0	185.8	175.5	160.9	137.0	108.3	78.22	57.29	51.96	46.30	50.98	51.14	59.53	61.17	60.09	60.92	58.71	59.21	57.12	54.56	50.37	43.44	39.96	30.27	24.79	19.73	16.77	17.80	28.30	64.40	54.85	15.52	6.082	6.337	8.383	19.27	97.76	442.2	1039	3530	5120	263.1	12.71	2.990	2.383	1.887	1.555	1.334	1.158	1.097	0.959	0.977	0.853	0.728	0.671	0.766	0.656	0.594	0.601	0.606	0.542	0.528	0.601	0.534	0.596	0.547	0.594	0.517	0.537	0.580	0.479	0.504	0.477	0.560	0.601	0.514	0.545	0.608
