Sample:	'1
File name:	Default_20230629_095852.FD3
Run date:	'09:52:31, 06/29/2023
Operator:	user
Comment:	'

Instrument
Model:	F-2700 FL Spectrophotometer
Serial number:	2190-003
ROM Version:	4J14000 07

Instrument parameters
Measurement type:	3-D scan
Data mode:	Fluorescence
EX  Start WL:	220.0 nm
EX  End WL:	600.0 nm
EX Sampling interval:	5.0 nm
EM  Start WL:	230.0 nm
EM  End WL:	650.0 nm
EM Sampling interval:	5.0 nm
Scan speed:	12000 nm/min
EX Slit:	5.0 nm
EM Slit:	5.0 nm
PMT Voltage:	700 V
Response:	Auto 
Corrected spectra:	Off
Contour interval:	50.000

Peak integration
Integration method:	Rectangular
Sensitivity:	1
Threshold:	1.000

Peaks
No.	ApexEX/EM(nm)	Height(Data)
1	250.0/365.0	 5341
2	255.0/280.0	251.7
3	260.0/285.0	351.6
4	265.0/290.0	440.1
5	270.0/240.0	-19.32
6	270.0/295.0	666.1
7	270.0/590.0	113.2
8	275.0/305.0	888.0
9	275.0/605.0	94.24
10	280.0/310.0	863.7
11	280.0/615.0	61.96
12	285.0/315.0	854.1
13	290.0/325.0	812.6
14	290.0/640.0	33.86
15	295.0/330.0	752.4
16	300.0/250.0	-6.137
17	305.0/340.0	750.5
18	325.0/285.0	-2.643
19	335.0/265.0	-3.551
20	350.0/265.0	-2.646
21	360.0/295.0	-2.586
22	365.0/260.0	-2.750
23	370.0/295.0	-2.282
24	495.0/365.0	12.67
25	515.0/280.0	-0.253
26	525.0/290.0	-0.158
27	535.0/295.0	0.786
28	545.0/300.0	0.567
29	550.0/305.0	0.727
30	560.0/310.0	0.324
31	580.0/640.0	-0.644

Data points
	220.0	225.0	230.0	235.0	240.0	245.0	250.0	255.0	260.0	265.0	270.0	275.0	280.0	285.0	290.0	295.0	300.0	305.0	310.0	315.0	320.0	325.0	330.0	335.0	340.0	345.0	350.0	355.0	360.0	365.0	370.0	375.0	380.0	385.0	390.0	395.0	400.0	405.0	410.0	415.0	420.0	425.0	430.0	435.0	440.0	445.0	450.0	455.0	460.0	465.0	470.0	475.0	480.0	485.0	490.0	495.0	500.0	505.0	510.0	515.0	520.0	525.0	530.0	535.0	540.0	545.0	550.0	555.0	560.0	565.0	570.0	575.0	580.0	585.0	590.0	595.0	600.0
230.0	-138.3	-27.38	 1154	 1149	52.53	-40.57	-42.22	-34.68	-30.65	-24.46	-22.23	-19.02	-18.13	-12.74	-12.61	-10.27	-8.309	-7.003	-6.655	-6.304	-5.633	-4.846	-5.009	-4.305	-4.202	-4.202	-3.594	-3.427	-3.135	-3.781	-3.234	-3.385	-3.062	-2.566	-2.481	-2.486	-2.410	-2.407	-2.223	-2.066	-2.066	-2.195	-2.256	-2.018	-1.865	-2.063	-1.605	-0.725	0.459	0.404	-0.778	-1.528	-1.624	-1.574	-1.638	-1.851	-1.963	-1.888	-1.687	-1.835	-1.969	-1.812	-1.947	-1.750	-1.725	-1.713	-1.795	-1.873	-1.889	-1.865	-1.933	-1.876	-1.943	-2.084	-2.029	-2.040	-1.925
235.0	-118.4	-111.6	358.0	 1784	 1494	97.39	-36.03	-30.39	-30.72	-22.29	-22.60	-19.60	-19.16	-12.64	-12.15	-9.840	-8.011	-7.229	-6.954	-5.962	-6.158	-4.951	-4.222	-4.472	-4.026	-3.849	-3.677	-3.602	-3.516	-3.191	-3.984	-2.804	-2.727	-2.757	-2.814	-2.614	-2.142	-2.765	-2.491	-1.835	-2.394	-2.535	-2.424	-1.643	-2.335	-2.138	-1.753	-1.266	-1.330	-0.141	1.524	0.793	-0.118	-1.475	-1.690	-1.728	-2.165	-1.858	-1.647	-2.386	-1.839	-1.937	-1.895	-2.032	-2.034	-1.954	-1.283	-2.106	-2.175	-1.972	-1.862	-2.108	-1.936	-1.943	-1.988	-2.069	-2.046
240.0	-118.1	-102.8	18.34	704.9	 2495	 1448	54.26	-30.42	-31.84	-19.97	-19.32	-22.33	-17.22	-13.93	-14.63	-8.352	-7.471	-8.742	-7.664	-6.352	-5.921	-4.827	-3.858	-4.562	-3.838	-3.924	-3.184	-3.773	-3.650	-2.888	-4.433	-2.732	-3.430	-3.519	-2.579	-2.625	-2.691	-2.028	-2.133	-1.979	-2.156	-2.006	-2.052	-2.048	-1.969	-1.772	-1.870	-1.797	-1.637	-1.098	-0.040	1.239	2.386	0.911	-0.942	-1.605	-2.069	-1.725	-1.632	-1.825	-2.184	-1.806	-2.111	-1.885	-1.969	-1.813	-1.470	-1.837	-2.186	-1.695	-2.315	-1.941	-1.710	-1.482	-1.933	-2.079	-2.184
245.0	-128.5	-128.1	-56.11	117.1	 1361	 3290	 1262	-2.898	-27.18	-25.68	-21.36	-20.26	-17.43	-12.37	-13.86	-10.02	-6.514	-8.148	-7.133	-6.845	-4.967	-4.713	-5.089	-4.431	-3.378	-3.198	-3.856	-4.089	-3.476	-3.407	-3.531	-3.719	-2.416	-2.693	-2.181	-2.693	-2.280	-2.018	-1.778	-2.264	-1.903	-2.221	-2.606	-2.180	-1.904	-2.007	-1.667	-1.745	-1.618	-1.236	-1.218	-0.900	1.084	2.979	2.949	0.843	-1.238	-1.879	-1.729	-1.455	-1.940	-2.058	-1.989	-1.939	-2.065	-1.850	-1.937	-1.583	-1.800	-1.588	-1.904	-1.553	-2.064	-1.488	-1.997	-2.380	-2.335
250.0	-121.8	-112.6	-62.55	-0.787	296.2	 1603	 3568	 2564	298.8	-20.55	-20.10	-19.30	-19.43	-13.82	-13.17	-8.341	-6.137	-8.092	-6.658	-6.211	-4.638	-4.783	-4.434	-4.294	-4.244	-3.620	-3.624	-4.198	-3.712	-3.695	-3.442	-3.316	-2.737	-2.693	-2.426	-2.816	-2.477	-2.398	-1.916	-2.196	-1.973	-2.274	-2.477	-2.117	-1.864	-1.994	-1.790	-1.935	-1.755	-1.197	-1.174	-1.611	-0.930	-0.203	1.385	2.735	3.606	2.713	0.419	-1.188	-1.868	-1.694	-1.894	-1.965	-1.997	-1.795	-1.887	-1.748	-1.769	-1.878	-1.758	-1.965	-1.866	-1.899	-2.152	-2.259	-2.175
255.0	-120.4	-111.4	-66.29	-14.36	95.68	330.5	 1205	 5171	 4133	279.0	-19.94	-18.89	-14.54	-10.93	-13.10	-10.64	-6.980	-8.391	-7.074	-5.661	-5.188	-4.781	-4.495	-4.072	-4.340	-4.416	-4.163	-3.585	-3.246	-3.638	-3.430	-2.760	-3.348	-3.046	-2.461	-2.589	-2.894	-2.433	-2.155	-2.352	-2.240	-2.356	-2.356	-1.582	-1.509	-1.824	-1.711	-1.649	-1.745	-1.184	-1.173	-1.514	-1.297	-1.443	-0.482	-0.592	0.587	3.104	6.365	5.699	1.233	-1.245	-2.147	-1.588	-1.994	-1.960	-1.636	-2.152	-1.619	-1.980	-2.182	-1.912	-1.961	-1.945	-1.417	-1.875	-1.972
260.0	-144.5	-102.0	-88.59	-33.96	66.88	94.17	247.3	 2223	 6709	 1559	113.4	-16.71	-11.73	-11.56	-9.165	-9.509	-8.803	-7.665	-7.832	-4.952	-5.074	-4.666	-4.675	-3.706	-4.760	-3.664	-3.257	-2.891	-3.676	-2.750	-3.966	-3.749	-3.736	-2.266	-2.894	-2.711	-2.954	-2.563	-2.035	-2.169	-2.017	-1.924	-2.199	-1.734	-1.930	-1.941	-1.631	-1.515	-1.862	-1.298	-1.413	-1.564	-1.053	-1.483	-1.463	-1.436	-1.264	-0.559	2.081	5.698	6.368	4.303	-0.246	-1.613	-1.794	-2.102	-1.662	-1.974	-1.888	-1.958	-2.194	-1.895	-2.036	-2.021	-1.691	-1.838	-2.075
265.0	-116.0	-118.1	-94.00	-59.41	13.38	109.2	50.06	511.7	 3396	 6101	 1183	20.63	-11.25	-9.787	-10.58	-10.86	-7.997	-6.726	-5.552	-6.165	-6.014	-4.690	-4.146	-3.551	-4.825	-3.435	-2.646	-3.562	-3.649	-3.032	-3.553	-3.047	-2.418	-2.975	-2.923	-2.482	-2.350	-2.472	-2.386	-2.087	-1.970	-2.332	-1.952	-1.739	-1.784	-2.068	-1.834	-1.829	-1.663	-1.282	-1.483	-1.679	-1.225	-1.274	-1.279	-1.325	-1.506	-1.490	-1.297	0.511	3.408	7.834	9.478	3.440	-1.142	-1.820	-1.496	-1.822	-2.104	-1.472	-2.012	-2.004	-1.611	-1.998	-1.789	-2.036	-2.029
270.0	-132.9	-110.7	-88.27	-76.72	-32.67	65.78	128.0	142.7	806.4	 2768	 4545	 2817	250.6	-6.034	-8.487	-7.721	-9.796	-6.996	-5.461	-5.419	-5.674	-5.538	-4.051	-3.616	-4.141	-3.286	-3.581	-2.984	-3.491	-3.317	-3.011	-3.002	-2.431	-2.790	-2.993	-1.991	-2.081	-2.563	-2.250	-1.925	-2.393	-2.791	-1.844	-1.710	-1.871	-2.112	-1.867	-1.682	-1.475	-1.017	-1.632	-1.428	-1.584	-1.644	-1.148	-1.012	-0.862	-1.497	-1.525	-1.433	-0.701	0.930	4.159	7.256	8.101	6.455	2.500	-1.218	-1.754	-1.862	-1.917	-2.211	-1.868	-1.650	-2.043	-1.998	-2.102
275.0	-128.0	-89.18	-81.79	-80.34	-46.50	-13.04	83.70	240.7	211.2	637.6	 1450	 4951	 4155	215.2	-7.599	-6.967	-6.285	-4.934	-5.632	-4.765	-4.585	-5.270	-4.210	-4.994	-4.318	-3.102	-3.516	-3.618	-3.068	-3.984	-3.468	-3.162	-2.937	-3.029	-2.858	-2.493	-2.485	-2.618	-2.419	-2.155	-2.391	-2.298	-1.625	-1.721	-2.073	-2.078	-1.284	-1.794	-1.411	-1.154	-1.649	-1.404	-1.578	-1.855	-1.740	-1.532	-0.900	-0.887	-1.412	-1.520	-1.582	-1.472	-0.030	0.353	1.559	6.267	14.39	12.66	3.253	-1.410	-1.661	-1.652	-1.597	-1.761	-2.202	-2.070	-1.955
280.0	-100.9	-55.28	-70.12	-66.60	-41.90	-27.91	16.71	251.7	220.9	197.5	383.0	 1906	 6322	 3107	79.92	-7.011	-6.945	-6.441	-3.389	-4.150	-3.910	-4.281	-4.417	-5.115	-4.298	-3.237	-3.784	-3.191	-3.699	-3.521	-3.649	-2.859	-3.379	-2.495	-2.024	-2.154	-2.714	-2.032	-1.935	-1.584	-2.478	-2.215	-1.956	-2.245	-1.992	-1.912	-1.496	-1.334	-1.592	-1.084	-1.322	-1.883	-1.321	-1.928	-1.729	-1.426	-1.320	-1.305	-0.841	-0.253	-1.455	-1.446	-1.017	-1.197	-0.708	0.623	5.038	12.42	17.27	8.416	0.601	-1.702	-2.021	-1.962	-2.222	-1.915	-2.021
285.0	-98.10	-61.83	-35.35	-51.35	-35.32	-35.09	-16.54	115.1	351.6	211.8	166.6	548.4	 2899	 6863	718.3	20.44	-3.356	-5.526	-3.826	-3.989	-3.840	-2.643	-3.652	-4.768	-5.178	-2.930	-3.389	-3.593	-2.961	-3.300	-3.316	-2.698	-3.489	-3.120	-2.347	-2.090	-2.096	-2.392	-1.583	-1.682	-2.332	-2.136	-1.599	-2.632	-1.935	-1.622	-1.553	-1.524	-1.389	-1.003	-1.518	-1.475	-1.546	-1.692	-1.777	-1.771	-1.393	-1.849	-1.336	-0.517	-0.677	-1.116	-1.058	-1.307	-1.434	-1.222	-0.046	2.624	8.664	16.31	16.47	5.582	-1.406	-1.755	-2.057	-1.861	-1.650
290.0	-82.13	-15.38	8.259	-8.320	-33.29	-17.47	-5.304	57.88	215.6	440.1	320.3	306.6	818.1	 2977	 4973	 2586	173.2	-2.213	-3.933	-3.961	-3.353	-3.817	-3.384	-4.279	-3.696	-3.535	-3.175	-3.018	-3.296	-3.585	-2.691	-3.224	-3.103	-3.024	-2.595	-2.433	-2.296	-2.131	-2.062	-1.921	-2.432	-1.987	-1.761	-2.233	-1.817	-1.729	-1.670	-1.395	-1.209	-0.858	-1.229	-1.457	-1.479	-1.637	-1.449	-1.722	-1.387	-1.490	-1.490	-1.441	-0.928	-0.158	-0.288	-0.381	-1.181	-1.317	-0.920	-0.281	0.719	3.573	8.249	11.85	12.41	9.560	2.568	-1.111	-2.111
295.0	-86.88	29.94	34.74	19.42	6.017	4.455	31.95	62.89	140.4	329.2	666.1	441.5	403.1	799.7	 1592	 5775	 3729	200.8	-2.965	-2.353	-2.225	-3.373	-1.879	-4.122	-3.635	-2.965	-2.707	-3.412	-2.586	-4.329	-2.282	-3.279	-3.306	-2.740	-2.529	-2.485	-1.480	-1.965	-2.397	-1.868	-2.330	-2.296	-1.983	-2.039	-2.121	-1.577	-1.432	-1.260	-1.353	-1.173	-1.062	-1.449	-1.517	-1.707	-1.227	-1.637	-0.906	-1.115	-1.453	-1.320	-1.264	-0.902	-0.376	0.786	0.201	-0.758	-1.207	-0.970	-0.887	-0.394	0.262	1.596	2.736	10.96	19.59	16.05	2.856
300.0	-39.14	33.29	54.98	19.00	24.19	32.89	53.10	94.47	168.6	281.7	613.3	769.2	415.4	363.0	460.8	 2250	 6894	 2801	84.96	-0.555	-1.548	-4.719	-2.792	-4.327	-3.712	-2.681	-3.370	-2.507	-3.014	-3.986	-3.362	-3.103	-2.568	-2.651	-2.997	-2.273	-2.132	-2.252	-2.364	-2.532	-2.338	-2.041	-2.058	-1.991	-2.037	-1.635	-1.276	-0.968	-1.351	-0.953	-1.064	-1.469	-1.758	-1.401	-1.404	-1.325	-1.519	-1.235	-1.205	-1.157	-1.111	-1.356	-0.779	-0.320	0.150	0.567	-0.128	-0.739	-1.021	-1.249	-1.129	-0.768	-0.833	1.162	7.431	19.15	22.89
305.0	-53.89	-2.174	88.77	67.80	54.68	61.56	79.02	107.6	192.3	296.3	506.0	888.0	653.5	322.0	230.6	590.0	 3346	 7080	445.8	24.81	0.398	-4.226	-2.861	-2.944	-3.445	-2.839	-2.932	-2.771	-3.789	-3.005	-2.886	-2.894	-2.820	-3.107	-2.495	-2.474	-2.437	-1.984	-2.252	-2.471	-2.083	-1.891	-2.322	-1.808	-2.205	-1.602	-1.405	-1.788	-1.352	-1.055	-0.991	-1.122	-1.563	-1.498	-1.299	-1.357	-1.111	-1.238	-1.114	-1.086	-0.968	-1.249	-0.813	-0.483	-0.749	0.182	0.727	-0.221	-0.709	-0.925	-1.470	-1.482	-1.565	-1.304	0.391	4.343	13.48
310.0	-43.26	27.20	111.7	96.65	93.22	99.28	130.3	158.2	230.5	333.3	487.5	684.5	863.7	588.4	263.2	248.0	851.2	 3181	 5264	 1724	131.7	-0.987	-1.770	-2.531	-2.671	-2.460	-2.951	-2.904	-3.467	-2.904	-3.387	-2.988	-2.683	-2.583	-2.677	-1.988	-1.994	-1.631	-2.310	-2.046	-2.383	-2.093	-2.272	-1.863	-1.851	-1.905	-1.395	-1.418	-1.102	-1.099	-0.672	-1.360	-1.210	-1.352	-1.236	-1.331	-1.345	-1.132	-1.039	-1.136	-0.755	-0.934	-0.861	-0.672	-0.451	-0.170	-0.249	0.079	0.324	-0.139	-0.766	-1.409	-1.808	-1.551	-1.123	-0.369	1.901
315.0	-38.45	31.65	133.4	153.0	151.0	151.8	205.8	221.2	291.7	377.8	519.0	601.4	677.0	854.1	500.1	225.3	301.4	782.0	 1720	 5689	 2723	168.6	1.856	-0.424	-1.048	-2.853	-2.560	-2.806	-3.274	-3.045	-2.519	-2.875	-2.318	-2.660	-2.951	-1.773	-2.064	-1.903	-2.243	-2.058	-2.336	-2.104	-2.267	-2.287	-1.961	-1.522	-1.345	-1.237	-1.242	-1.012	-0.866	-1.273	-1.229	-1.649	-1.011	-1.164	-1.001	-1.080	-1.144	-1.036	-0.725	-0.340	-0.517	-0.925	-0.387	-0.528	-0.708	-0.184	-0.084	0.325	0.059	-0.362	-0.984	-1.455	-0.970	-1.119	-0.850
320.0	-16.60	84.86	203.5	222.2	243.5	249.2	293.2	302.5	376.5	454.9	542.7	622.0	642.9	775.6	775.7	345.5	213.6	275.0	456.8	 2360	 6583	 2192	84.86	-0.964	0.032	-2.157	-2.702	-2.714	-2.413	-2.444	-2.148	-3.026	-2.538	-2.775	-2.433	-2.006	-2.616	-2.552	-1.994	-2.285	-1.852	-1.785	-1.779	-1.901	-1.587	-1.233	-1.382	-1.203	-0.889	-0.368	-0.878	-1.015	-1.025	-0.990	-0.781	-0.800	-0.946	-1.087	-0.673	-0.968	-0.864	-0.942	0.013	-0.967	-0.500	-0.676	-0.403	-0.011	-0.752	-0.095	-0.020	0.552	-0.738	-1.220	-0.408	-1.514	-0.967
325.0	24.36	129.6	384.9	364.0	412.6	408.8	464.8	452.6	513.1	566.8	621.4	659.2	686.6	671.8	812.6	620.5	283.4	204.4	199.6	612.2	 3412	 6549	 1611	27.49	0.883	-1.858	-2.540	-2.067	-2.471	-2.835	-2.456	-2.676	-2.648	-1.930	-2.310	-2.330	-2.000	-2.095	-1.617	-1.977	-2.211	-1.871	-1.783	-1.739	-1.573	-0.822	-0.800	-0.879	-0.909	-0.388	-0.518	-0.654	-0.617	-0.297	-0.501	-0.349	-0.325	-0.819	-0.440	-0.404	-0.328	-0.332	-0.282	-0.446	-0.470	-0.652	-0.258	-0.597	0.034	-0.518	-0.290	0.382	0.155	-0.192	-0.233	-1.080	-1.334
330.0	57.43	303.3	622.8	740.4	813.6	891.5	946.0	902.3	866.5	858.3	806.4	739.8	763.8	730.3	718.8	752.4	566.7	297.3	199.2	242.2	878.1	 3135	 5054	 2466	108.6	0.680	-1.693	-1.116	-2.477	-1.789	-2.564	-2.624	-2.309	-1.825	-2.302	-2.206	-1.754	-2.203	-1.645	-1.830	-2.108	-2.125	-1.838	-1.659	-1.593	-1.191	-0.857	-0.568	-0.399	-0.154	0.053	0.325	0.173	0.815	0.866	1.026	0.709	0.583	0.684	0.734	0.508	0.108	-0.059	-0.168	-0.451	-0.487	-0.231	-0.450	-0.016	-0.221	-0.058	-0.266	-0.255	0.118	0.160	-0.471	-0.529
335.0	137.0	486.7	981.8	 1258	 1461	 1670	 1782	 1557	 1471	 1345	 1036	890.5	878.1	851.6	774.1	704.9	740.4	536.5	292.3	218.1	315.3	780.3	 1737	 5561	 2105	144.1	0.479	-0.481	-1.991	-2.371	-2.580	-1.919	-2.167	-1.789	-1.906	-1.950	-1.651	-1.555	-1.906	-1.656	-1.845	-1.768	-1.609	-1.741	-1.261	-0.934	-0.737	0.032	0.337	0.914	1.811	2.033	1.726	2.879	2.763	3.887	3.722	2.770	2.113	2.179	1.213	0.968	0.877	0.390	0.019	-0.071	0.027	0.094	0.401	0.129	0.308	-0.067	-0.445	-0.300	0.034	-0.064	0.295
340.0	201.5	670.6	 1241	 1786	 2143	 2481	 2464	 2168	 1921	 1756	 1254	 1015	987.2	973.8	874.9	740.2	695.4	750.5	457.0	264.9	229.5	286.3	474.5	 2466	 6017	 1793	81.15	0.592	-1.061	-2.023	-1.457	-2.023	-2.206	-1.742	-1.846	-1.664	-1.751	-1.662	-1.965	-1.780	-1.940	-1.910	-1.368	-1.563	-1.244	-0.560	-0.198	0.536	1.012	1.681	2.420	3.142	3.523	4.382	5.361	4.351	5.234	4.644	3.233	2.677	2.719	2.313	2.132	1.465	0.543	0.240	0.544	0.677	-0.124	-0.067	0.707	0.136	0.078	-0.188	0.057	-0.335	0.417
345.0	256.2	815.8	 1593	 2199	 2628	 2998	 2971	 2694	 2414	 2119	 1495	 1127	 1092	 1064	965.8	835.0	717.0	736.6	687.0	374.6	252.2	216.2	213.3	661.2	 3320	 5997	 1384	26.12	0.755	-1.328	-2.235	-2.146	-2.249	-2.239	-2.077	-1.953	-2.025	-1.801	-1.812	-1.621	-1.549	-1.660	-1.620	-1.648	-0.796	-0.614	0.199	0.203	1.652	2.430	3.078	5.098	5.275	5.780	6.541	6.886	6.893	5.689	5.166	3.965	3.124	2.797	2.077	1.626	0.387	0.246	0.228	1.043	0.343	0.568	0.361	0.832	0.165	-0.206	-0.156	-0.328	0.250
350.0	440.2	939.9	 1912	 2644	 3185	 3703	 3939	 3448	 3035	 2615	 1786	 1288	 1210	 1206	 1121	989.2	835.7	741.3	730.9	614.5	361.1	261.3	213.7	268.9	886.1	 3029	 4690	 2209	96.80	2.604	-0.252	-0.932	-1.915	-2.202	-2.405	-1.772	-2.038	-1.923	-2.090	-1.638	-1.709	-1.548	-1.306	-1.257	-0.482	0.014	0.440	1.134	2.454	2.964	3.865	6.107	6.566	7.774	8.196	8.353	8.874	7.609	6.755	5.946	5.044	4.298	3.285	2.219	1.178	0.736	1.009	0.821	0.591	0.909	0.230	0.886	0.764	0.576	0.156	0.313	0.482
355.0	457.7	 1089	 2142	 2895	 3918	 4397	 4595	 4121	 3610	 3151	 2127	 1566	 1419	 1366	 1302	 1164	977.9	848.4	728.6	708.3	610.2	362.6	291.8	244.4	335.7	774.0	 1716	 5033	 1813	132.3	1.785	0.026	-0.788	-1.316	-1.805	-1.678	-1.605	-1.667	-1.849	-1.131	-1.358	-1.493	-1.323	-1.680	-0.391	0.287	0.719	1.528	2.502	4.046	4.991	6.819	7.810	9.476	9.593	9.624	9.536	9.362	8.426	7.187	6.586	5.047	4.741	3.195	2.216	1.968	1.205	1.216	1.452	1.827	0.672	1.835	1.497	1.507	1.334	0.844	0.346
360.0	533.3	 1294	 2241	 3115	 4123	 4709	 5124	 4515	 4164	 3564	 2390	 1717	 1571	 1528	 1452	 1289	 1094	957.8	794.9	707.7	716.4	537.5	350.1	281.3	260.4	304.9	479.5	 2285	 5367	 1613	75.49	1.056	-0.137	-0.554	-1.478	-1.999	-1.256	-1.800	-1.675	-0.811	-1.730	-0.931	-1.195	-0.859	-0.129	0.226	1.315	2.033	2.545	3.620	5.351	7.534	8.606	10.83	10.81	11.36	11.15	10.83	9.642	7.953	7.198	6.523	5.413	3.477	2.182	2.001	1.071	1.336	1.189	1.843	1.062	1.550	1.539	1.395	0.982	0.830	1.131
365.0	516.5	 1148	 2312	 3310	 4184	 5206	 5341	 4727	 4425	 3760	 2740	 1905	 1740	 1628	 1578	 1404	 1236	 1056	898.5	748.2	716.2	700.1	471.5	335.9	275.2	235.8	218.2	620.8	 3008	 5408	 1250	27.11	0.158	-0.773	-1.347	-1.423	-1.897	-1.402	-1.471	-1.173	-1.707	-1.080	-1.169	-0.740	-0.007	0.314	2.340	2.176	2.839	3.807	5.481	7.773	9.455	9.936	11.35	12.67	12.37	11.21	10.55	8.799	7.265	6.789	6.354	4.032	2.809	2.134	2.196	1.463	1.907	2.075	1.667	2.272	1.614	1.413	0.985	1.383	0.916
370.0	556.8	 1148	 2423	 3347	 4246	 5095	 5314	 4914	 4472	 3984	 2890	 2089	 1897	 1777	 1681	 1517	 1357	 1186	 1018	853.3	752.2	731.3	677.2	487.3	358.3	282.9	214.0	253.9	798.6	 2677	 4394	 2082	83.12	1.553	-0.396	-0.844	-1.573	-1.340	-1.638	-1.620	-1.384	-1.203	-0.959	-0.896	-0.547	0.346	1.605	2.271	3.060	4.061	5.691	7.718	9.140	10.94	11.27	12.23	12.15	11.68	9.322	9.175	8.096	7.085	5.849	4.919	3.680	2.836	2.356	2.039	1.892	2.443	2.282	2.207	1.984	1.674	1.890	2.014	1.452
375.0	549.3	 1152	 2242	 3254	 4203	 4881	 5143	 4742	 4406	 4023	 3024	 2283	 2041	 1964	 1790	 1648	 1490	 1328	 1153	982.0	858.2	767.2	737.3	680.4	503.8	376.7	277.5	223.0	292.9	671.5	 1589	 4706	 1527	106.5	1.336	0.087	-0.693	-1.860	-1.612	-1.570	-0.846	-0.898	-0.819	-1.323	-0.601	-0.173	1.232	2.431	2.933	3.802	5.306	7.857	8.832	10.23	11.04	11.41	12.20	10.67	9.700	9.074	8.719	7.019	6.790	4.910	2.878	3.377	3.045	2.241	1.806	2.902	2.436	2.093	2.060	2.184	2.450	1.948	2.070
380.0	622.5	 1144	 2095	 2850	 3908	 4697	 5048	 4575	 4284	 3992	 3018	 2394	 2157	 2023	 1872	 1704	 1566	 1391	 1226	 1073	928.5	835.3	767.3	767.6	669.3	473.2	347.9	260.2	210.8	246.3	427.2	 2138	 4862	 1317	56.95	0.966	-0.562	-1.242	-1.463	-2.019	-1.154	-1.291	-0.952	-0.792	-0.416	-0.071	0.907	1.928	3.067	3.541	5.033	7.656	8.531	10.31	10.26	10.90	11.85	10.59	9.688	8.299	7.565	7.721	6.525	4.902	3.706	3.318	3.077	2.757	2.659	2.834	2.546	1.922	2.446	2.625	2.251	1.914	1.695
385.0	574.9	 1059	 1980	 2756	 3728	 4524	 4894	 4506	 4302	 3978	 3123	 2431	 2207	 2088	 1973	 1756	 1612	 1451	 1296	 1140	 1017	900.8	806.7	781.0	773.5	575.3	418.5	306.8	227.5	183.6	179.4	564.4	 2753	 4642	978.4	17.72	0.765	-0.430	-0.777	-1.202	-1.261	-0.788	-0.684	-0.883	-0.112	0.594	0.776	1.580	3.077	3.623	4.748	8.182	7.667	9.383	9.378	11.22	10.53	9.883	9.957	8.304	7.634	7.086	6.328	5.094	4.456	3.516	3.659	3.042	3.166	2.917	2.589	2.720	2.977	2.681	2.345	2.317	2.214
390.0	478.9	 1039	 1841	 2448	 3396	 4122	 4407	 4134	 3954	 3709	 2993	 2415	 2252	 2127	 1975	 1839	 1668	 1507	 1360	 1225	 1094	978.4	881.6	801.2	781.3	712.7	541.0	377.4	281.3	207.8	157.1	204.5	716.8	 2335	 3568	 1572	63.31	1.238	-0.103	-0.428	-1.050	-1.011	-1.050	-0.715	0.013	0.194	0.989	1.414	2.946	3.224	4.297	6.802	6.630	8.373	8.722	10.26	9.968	9.060	8.611	7.581	7.048	7.165	6.514	4.643	3.753	3.603	3.106	3.009	2.884	2.835	2.865	2.706	2.911	2.648	2.628	2.537	2.340
395.0	369.9	861.3	 1771	 2308	 3151	 3655	 3998	 3797	 3674	 3553	 2892	 2371	 2255	 2144	 1980	 1870	 1718	 1557	 1410	 1296	 1153	 1059	955.9	871.3	785.6	743.5	678.9	485.3	342.2	261.8	191.8	158.4	233.7	572.2	 1326	 3744	 1185	78.17	1.814	0.365	-0.399	-0.796	-0.694	-1.337	-0.441	0.573	1.116	0.717	2.101	2.854	4.047	5.976	6.300	7.284	8.331	8.895	8.349	7.835	7.288	6.812	7.032	5.701	5.985	4.489	3.542	3.726	3.161	2.501	2.747	2.767	2.576	2.783	2.850	2.586	3.283	2.218	2.873
400.0	433.3	868.2	 1635	 2225	 2692	 3311	 3692	 3547	 3452	 3311	 2802	 2434	 2238	 2121	 1992	 1852	 1722	 1574	 1459	 1318	 1187	 1111	986.3	900.4	811.7	743.8	694.2	588.3	408.0	298.1	227.2	168.1	146.1	189.0	344.2	 1754	 3703	 1031	40.87	0.840	-0.119	-0.308	-0.330	-0.548	-0.197	0.040	0.970	0.835	1.849	2.250	3.904	4.888	6.502	6.866	7.142	8.164	7.151	7.063	6.912	6.758	6.106	5.359	5.417	4.500	3.126	3.804	3.031	2.919	3.698	2.578	2.504	2.311	2.890	2.947	2.666	2.280	2.483
