Sample:	'1
File name:	Default_20230428_111128.FD3
Run date:	'11:05:07, 04/28/2023
Operator:	user
Comment:	'

Instrument
Model:	F-2700 FL Spectrophotometer
Serial number:	2190-003
ROM Version:	4J14000 07

Instrument parameters
Measurement type:	3-D scan
Data mode:	Fluorescence
EX  Start WL:	220.0 nm
EX  End WL:	600.0 nm
EX Sampling interval:	5.0 nm
EM  Start WL:	230.0 nm
EM  End WL:	650.0 nm
EM Sampling interval:	5.0 nm
Scan speed:	12000 nm/min
EX Slit:	5.0 nm
EM Slit:	5.0 nm
PMT Voltage:	700 V
Response:	Auto 
Corrected spectra:	Off
Contour interval:	50.000

Peak integration
Integration method:	Rectangular
Sensitivity:	1
Threshold:	1.000

Peaks
No.	ApexEX/EM(nm)	Height(Data)
1	225.0/570.0	64.40
2	225.0/590.0	57.68
3	225.0/615.0	61.46
4	230.0/340.0	352.8
5	235.0/345.0	358.2
6	235.0/635.0	56.18
7	240.0/515.0	167.3
8	240.0/575.0	52.97
9	245.0/265.0	203.7
10	250.0/540.0	145.2
11	250.0/635.0	30.86
12	255.0/280.0	331.0
13	255.0/555.0	124.9
14	255.0/600.0	40.03
15	260.0/285.0	422.0
16	260.0/565.0	113.6
17	265.0/290.0	495.8
18	265.0/575.0	115.5
19	270.0/235.0	16.09
20	270.0/295.0	731.3
21	270.0/415.0	570.2
22	270.0/585.0	94.17
23	275.0/305.0	929.8
24	275.0/605.0	97.60
25	280.0/235.0	14.66
26	280.0/310.0	 1057
27	280.0/335.0	925.5
28	280.0/615.0	89.17
29	285.0/315.0	 1115
30	285.0/625.0	74.20
31	290.0/320.0	 1046
32	290.0/635.0	66.06
33	305.0/340.0	541.9
34	310.0/345.0	490.6
35	315.0/410.0	518.4
36	320.0/255.0	6.184
37	320.0/360.0	465.2
38	325.0/365.0	457.7
39	330.0/370.0	434.7
40	335.0/380.0	460.9
41	340.0/385.0	461.7
42	350.0/400.0	416.3
43	355.0/405.0	409.6
44	360.0/410.0	380.4
45	400.0/285.0	3.349
46	430.0/505.0	54.47
47	450.0/530.0	28.66
48	470.0/560.0	11.33
49	510.0/420.0	4.093
50	520.0/285.0	3.661
51	535.0/295.0	4.503
52	545.0/300.0	4.532
53	550.0/305.0	4.921
54	560.0/310.0	4.855
55	570.0/315.0	5.240
56	580.0/325.0	4.785

Data points
	220.0	225.0	230.0	235.0	240.0	245.0	250.0	255.0	260.0	265.0	270.0	275.0	280.0	285.0	290.0	295.0	300.0	305.0	310.0	315.0	320.0	325.0	330.0	335.0	340.0	345.0	350.0	355.0	360.0	365.0	370.0	375.0	380.0	385.0	390.0	395.0	400.0	405.0	410.0	415.0	420.0	425.0	430.0	435.0	440.0	445.0	450.0	455.0	460.0	465.0	470.0	475.0	480.0	485.0	490.0	495.0	500.0	505.0	510.0	515.0	520.0	525.0	530.0	535.0	540.0	545.0	550.0	555.0	560.0	565.0	570.0	575.0	580.0	585.0	590.0	595.0	600.0
230.0	48.40	111.5	 1013	904.2	87.71	28.04	21.20	21.02	17.90	14.57	13.46	13.52	11.10	9.878	8.888	7.498	6.144	6.288	4.980	5.354	4.483	4.095	3.977	4.134	3.587	3.845	2.972	3.060	3.308	3.152	3.027	2.671	2.780	2.522	2.514	2.428	2.187	2.189	2.164	2.103	1.925	1.812	1.705	1.816	1.650	1.893	1.653	2.889	5.054	5.011	2.788	1.584	1.471	1.534	1.449	1.466	1.431	1.444	1.438	1.402	1.442	1.542	1.179	1.462	1.314	1.288	1.403	1.202	1.325	1.292	1.254	1.071	1.346	1.407	1.433	1.227	1.443
235.0	62.54	64.62	401.9	 1485	 1229	132.0	20.09	19.70	15.06	13.57	16.09	12.09	14.66	9.906	8.936	6.791	6.795	5.568	6.391	5.739	4.372	4.845	4.161	4.081	4.232	3.902	3.473	3.750	2.715	2.971	2.466	2.569	2.760	2.296	2.586	1.901	2.791	2.102	2.526	1.953	2.142	1.645	1.978	2.089	1.478	2.003	1.578	1.931	2.972	3.781	5.776	7.447	4.449	1.909	1.568	1.447	1.300	1.389	1.378	1.304	1.351	1.345	1.357	1.500	1.084	1.421	1.147	1.274	1.353	1.386	1.557	1.020	1.632	1.023	1.459	1.072	1.544
240.0	54.83	65.30	124.3	780.9	 2304	 1232	98.27	21.55	17.23	20.28	15.06	11.01	14.23	10.35	9.533	8.633	8.110	5.582	6.138	5.561	4.676	5.274	4.214	4.133	3.867	4.007	3.324	3.586	3.599	3.020	3.377	2.716	2.258	2.841	2.365	1.807	2.298	2.225	2.396	2.310	2.147	1.846	2.226	1.724	1.625	1.650	1.487	1.759	1.891	1.800	3.279	7.945	10.81	8.064	3.688	1.375	1.632	1.442	1.287	1.626	1.038	1.359	1.388	1.568	1.333	1.502	1.112	1.136	1.573	1.468	1.334	1.294	1.271	1.355	1.408	1.463	1.446
245.0	55.69	63.97	83.90	228.5	 1426	 3122	 1055	51.34	21.03	17.97	16.21	13.21	13.29	11.78	8.913	8.447	6.787	6.823	4.906	5.236	4.793	4.518	4.040	4.482	3.852	3.838	3.836	3.271	3.403	3.437	2.899	2.608	2.858	2.479	2.280	2.475	1.891	2.266	2.175	2.134	1.966	1.934	1.971	1.990	1.823	1.713	1.902	1.736	1.451	1.595	1.703	3.566	7.645	12.65	13.74	7.927	2.594	1.455	1.239	1.333	1.056	1.035	1.258	1.670	1.454	1.470	1.360	1.190	1.446	1.190	1.258	1.261	1.098	1.324	1.300	1.208	1.584
250.0	54.37	61.36	96.83	116.2	392.3	 1683	 3432	 2568	366.6	23.11	21.09	14.71	13.28	11.82	8.902	7.768	7.090	6.868	5.460	5.023	4.863	4.985	4.452	4.330	3.751	3.463	3.381	3.251	3.095	3.108	2.656	2.777	2.332	2.577	2.240	2.251	2.243	2.238	2.394	2.226	1.948	1.829	1.971	1.623	1.557	1.857	1.781	1.641	1.810	1.527	1.541	1.977	3.047	5.167	8.826	13.41	16.16	14.94	7.890	2.859	1.364	1.428	1.390	1.517	1.490	1.442	1.500	1.391	1.583	1.255	1.341	1.341	1.494	1.219	1.337	1.233	1.551
255.0	62.11	58.66	64.11	140.8	183.9	412.4	 1265	 5238	 4869	443.3	20.72	22.01	16.90	13.65	10.27	9.205	9.505	7.606	5.785	4.762	6.184	4.143	4.178	4.456	3.069	3.834	3.274	3.088	3.209	2.535	3.254	2.652	2.562	2.224	2.657	1.753	2.109	2.553	2.556	2.015	2.264	2.053	2.029	1.789	1.806	1.987	1.796	1.492	1.276	1.571	1.617	2.227	2.116	2.076	3.004	4.355	7.164	16.19	28.05	26.58	10.91	2.364	1.555	1.388	1.644	1.295	1.540	1.202	1.319	1.148	1.436	1.268	1.379	1.182	1.275	1.196	1.193
260.0	55.15	48.95	47.72	85.90	195.8	155.4	318.5	 2386	 7689	 4588	262.3	22.72	16.60	13.58	13.14	10.52	9.308	6.843	7.143	5.781	4.583	4.698	5.005	4.623	2.507	3.859	3.658	3.539	3.659	3.615	3.155	2.766	1.944	2.273	2.963	2.089	1.810	2.428	1.725	1.883	2.103	1.896	2.273	2.289	1.881	1.609	1.829	1.932	1.360	1.427	1.565	1.875	1.934	1.769	1.727	2.300	3.104	5.336	14.29	29.19	36.47	26.62	7.054	1.656	1.146	1.734	1.459	1.174	1.484	1.102	1.394	1.400	1.249	1.356	1.235	1.446	1.146
265.0	49.84	42.61	51.57	60.47	145.1	203.7	118.8	616.6	 3899	 9572	 1098	106.8	19.12	14.89	15.50	11.07	8.366	7.757	5.951	6.685	4.338	5.127	4.496	4.472	3.730	3.936	3.785	3.958	3.632	2.749	2.996	3.323	2.734	1.450	2.765	2.316	1.870	2.077	2.121	1.986	2.198	2.085	2.039	2.053	1.870	2.168	1.894	1.885	1.397	1.152	1.328	1.650	1.662	2.328	2.107	1.609	1.988	2.295	4.774	9.725	22.71	40.99	39.02	18.45	3.121	1.769	1.498	1.336	1.470	1.521	1.119	1.395	1.219	1.478	1.184	1.569	1.325
270.0	64.71	55.85	44.68	41.75	69.32	161.6	228.0	210.9	968.2	 4235	 8945	 4114	374.3	22.28	16.02	13.84	11.40	7.308	7.418	6.356	5.217	5.106	4.779	4.512	4.261	3.498	3.989	3.257	3.596	3.129	3.162	2.915	2.819	2.160	2.936	2.154	2.222	1.921	2.114	2.045	2.183	2.079	1.871	2.016	1.787	2.064	1.738	1.771	1.457	1.317	1.152	1.553	1.324	1.751	2.361	2.512	2.474	1.789	2.346	3.288	6.303	13.68	24.09	33.93	39.60	31.66	13.68	3.238	1.503	1.679	1.295	1.201	1.393	1.431	1.259	1.493	1.538
275.0	69.43	56.67	55.40	46.28	52.45	67.08	188.2	308.8	285.9	990.0	 2867	9999.9	 6404	475.7	19.93	13.56	11.35	8.824	7.463	7.067	5.461	5.785	4.624	4.342	4.328	4.208	4.595	3.873	3.932	3.733	3.324	3.106	3.162	2.564	2.336	2.172	2.079	1.963	2.116	1.743	2.241	2.155	1.589	1.954	1.562	1.726	1.459	2.136	1.682	1.569	1.020	1.485	1.531	1.727	1.567	2.234	2.725	2.971	2.769	2.167	2.931	4.269	6.692	9.184	15.60	36.73	58.03	48.07	15.28	2.234	1.594	1.741	1.556	1.464	1.277	1.629	1.449
280.0	62.57	68.10	69.77	47.74	51.08	50.30	92.07	331.0	315.7	284.2	720.6	 3906	9999.9	 5360	285.4	17.40	12.97	10.49	9.162	7.844	5.695	6.233	4.932	4.452	4.395	4.385	4.072	3.358	3.116	3.827	3.416	2.960	3.123	2.439	2.589	2.264	2.587	1.989	1.808	2.021	2.049	2.352	1.691	2.222	2.206	1.726	2.116	1.795	1.819	1.325	1.262	1.835	1.776	1.408	1.558	1.703	1.846	2.576	3.115	3.300	2.547	2.231	2.503	3.154	4.773	10.95	27.14	55.02	64.78	34.94	6.600	1.578	1.584	1.358	1.475	1.796	1.437
285.0	60.68	75.51	79.06	65.51	48.63	45.42	61.80	174.0	422.0	257.2	249.8	 1009	 5418	9999.9	 4057	125.6	16.17	11.73	9.656	10.23	6.836	7.009	5.700	4.915	4.242	4.868	4.051	3.328	3.999	4.040	3.081	3.418	2.605	2.189	2.377	2.740	3.349	2.265	1.915	2.064	1.931	2.049	1.921	2.030	2.433	2.148	2.227	1.646	2.150	1.587	1.513	1.684	1.639	1.598	2.117	1.727	1.782	1.919	2.491	3.572	3.661	2.818	1.947	2.110	2.539	3.803	7.697	18.37	43.36	67.46	54.98	19.37	2.875	1.539	1.399	1.669	1.709
290.0	74.00	94.65	109.4	90.11	64.24	58.22	64.00	107.3	255.2	495.8	381.7	404.1	 1455	 5372	9999.9	 8473	239.6	17.69	11.53	10.34	7.730	7.751	5.931	5.586	4.845	5.195	4.612	4.112	3.861	3.450	3.237	3.423	2.636	2.797	2.833	2.508	2.581	2.522	2.073	2.135	2.010	1.932	1.781	1.830	1.948	1.819	2.050	1.855	1.673	1.572	1.580	1.526	1.602	1.622	1.553	1.626	1.648	1.827	2.129	2.189	3.027	3.582	3.600	2.901	2.606	2.559	3.374	6.182	11.75	22.63	36.84	50.04	50.53	35.02	14.06	2.701	1.374
295.0	98.68	115.3	140.4	113.6	77.79	83.62	90.54	113.3	160.3	343.4	731.3	522.1	619.0	 1434	 3153	9999.9	9999.9	310.8	16.53	11.48	7.723	6.924	6.479	5.703	5.461	4.741	4.294	3.683	3.452	4.006	3.399	3.077	3.635	2.858	2.883	2.440	2.348	2.460	2.704	1.424	1.458	2.040	1.842	1.828	1.855	1.803	2.081	2.048	1.950	1.646	1.561	1.696	1.678	1.697	1.657	1.763	1.656	2.150	1.855	2.073	2.056	2.315	2.985	4.503	4.156	3.277	2.558	3.365	4.262	6.624	9.741	12.97	21.15	48.28	69.97	48.28	14.06
300.0	101.4	128.5	176.8	142.4	102.0	96.72	102.4	121.3	175.5	280.7	646.3	855.0	562.0	612.7	901.6	 4093	9999.9	 3251	201.0	13.24	9.263	8.225	7.155	6.014	6.071	4.505	4.795	4.342	4.112	3.744	3.674	3.061	3.431	3.130	2.722	2.386	2.194	1.941	2.449	2.100	1.804	2.262	2.174	2.270	1.961	2.075	1.946	1.894	2.303	1.819	1.558	2.329	1.442	1.830	1.724	1.670	1.817	1.990	2.101	1.852	2.022	2.295	2.830	3.131	4.504	4.532	3.263	3.292	2.840	3.569	4.546	4.334	6.134	14.08	35.20	67.52	72.52
305.0	102.8	150.4	182.0	160.7	136.9	106.4	121.5	155.1	199.1	293.6	501.8	929.8	859.0	545.2	466.3	 1081	 5657	9999.9	 2678	105.3	15.26	11.09	7.773	6.826	6.160	4.865	5.363	4.224	4.812	3.322	3.852	3.801	3.627	3.879	2.731	2.372	2.369	2.372	2.413	2.170	2.219	1.736	2.172	1.749	2.057	2.208	1.622	1.976	2.301	2.026	1.848	2.174	1.680	2.004	1.644	2.098	2.055	1.964	2.230	1.990	2.491	2.411	2.878	2.702	3.693	4.261	4.921	4.276	3.663	2.894	3.106	2.780	2.998	4.836	9.940	23.66	53.22
310.0	106.9	152.2	208.3	188.6	146.5	128.9	136.0	183.0	243.2	331.3	473.5	729.0	 1057	874.7	479.1	432.8	 1415	 5291	9999.9	 7106	171.4	17.11	9.970	7.603	6.584	5.865	5.449	5.134	4.404	3.529	4.231	3.544	3.358	3.735	2.764	2.633	2.421	2.405	2.419	2.079	2.173	1.962	1.995	1.826	1.742	2.113	1.910	2.261	2.281	1.955	1.948	2.018	1.833	2.143	1.888	2.151	2.072	2.030	2.357	2.417	2.400	2.649	2.791	2.968	3.311	3.296	4.491	4.330	4.855	4.136	3.433	3.054	2.550	2.896	3.681	6.736	14.18
315.0	103.2	177.7	236.4	227.4	158.7	138.5	164.6	220.8	280.0	372.2	542.3	674.7	859.0	 1115	710.8	369.9	443.6	 1253	 3080	9999.9	 9985	229.4	14.22	10.61	7.543	5.845	4.948	5.306	5.051	4.861	4.211	3.891	3.043	3.272	2.758	2.680	2.857	2.093	2.710	2.152	1.989	1.740	1.980	1.889	1.899	1.914	2.177	2.228	2.627	2.272	1.939	2.017	1.848	1.990	1.880	2.087	1.823	2.294	2.229	2.652	2.593	2.590	2.919	3.248	3.412	3.466	3.767	3.603	3.606	5.035	5.240	3.550	2.657	2.354	2.451	3.066	4.495
320.0	117.0	183.5	251.9	229.5	174.6	145.2	171.4	232.5	312.3	419.5	585.6	708.0	840.3	965.6	 1046	513.5	265.4	369.9	754.5	 4084	9999.9	 7288	157.2	13.32	8.288	6.855	6.186	5.801	5.435	4.842	4.742	3.929	3.188	3.028	2.695	2.653	3.123	2.655	2.334	2.276	2.366	2.061	2.496	1.988	2.197	1.711	1.932	2.380	2.270	2.044	1.972	2.129	1.988	2.063	1.930	1.951	1.852	2.854	2.704	2.312	2.772	2.681	3.078	3.224	3.236	3.652	4.178	3.616	3.884	4.516	4.959	4.322	3.650	2.484	2.461	2.248	2.489
325.0	120.6	180.8	311.6	250.9	195.4	171.9	197.8	259.1	325.0	455.7	614.9	738.3	884.2	896.1	967.5	767.9	288.6	187.9	240.2	999.1	 5583	9999.9	 2022	90.75	12.42	8.085	6.836	6.152	5.141	5.347	4.126	4.248	3.258	2.969	2.729	2.562	2.508	2.878	2.496	2.267	2.081	2.422	2.517	1.783	1.940	1.990	2.115	2.461	2.025	2.138	2.185	2.450	2.089	1.797	2.130	2.426	2.285	2.588	2.631	2.895	2.640	2.577	3.354	3.157	3.418	3.823	4.186	3.936	3.900	4.171	3.980	4.262	4.785	4.029	3.229	2.179	2.333
330.0	132.4	215.7	321.6	304.7	220.8	192.9	219.4	279.7	360.3	478.5	647.3	777.3	908.7	903.2	827.8	750.1	534.9	231.4	148.5	289.8	 1357	 5190	9999.9	 6391	137.7	14.40	9.738	7.033	6.157	5.343	4.477	4.280	3.982	3.426	3.169	3.127	2.513	2.644	2.357	2.189	2.008	2.277	2.353	1.828	2.292	2.238	2.351	2.546	2.460	1.834	2.168	2.348	1.979	2.302	2.311	2.390	2.422	2.493	2.515	2.845	2.824	3.058	3.226	3.477	3.863	4.046	4.287	3.976	3.806	3.985	3.685	3.658	3.742	3.766	3.608	3.270	2.826
335.0	125.3	223.2	326.0	312.0	258.0	214.1	243.6	312.8	370.7	502.1	677.2	813.2	925.5	904.6	800.6	605.7	569.4	441.1	189.7	156.3	370.0	 1210	 3181	9999.9	 9444	186.9	12.79	9.702	6.998	7.022	4.916	5.147	4.274	3.876	3.456	2.955	2.791	2.397	2.428	2.360	1.825	2.185	2.462	2.362	2.048	1.910	2.372	2.636	2.765	2.222	2.095	2.317	2.209	2.584	2.215	2.421	2.598	2.411	3.023	2.987	3.051	3.247	3.703	3.609	3.507	3.952	3.864	3.736	4.053	3.951	3.534	3.853	3.516	3.471	3.445	3.291	3.795
340.0	120.0	236.5	352.8	328.0	255.2	242.5	266.1	323.0	397.6	507.7	665.9	795.6	924.5	906.4	791.7	579.6	458.2	541.9	332.5	148.4	164.1	332.4	769.9	 4288	9999.9	 6809	135.8	11.64	9.252	7.545	5.765	5.568	4.246	3.659	3.000	3.007	2.582	2.707	2.824	2.354	2.103	2.410	2.446	2.357	1.983	2.299	2.209	2.356	2.640	2.244	2.114	2.194	2.000	2.227	2.212	2.285	2.978	2.764	3.025	2.863	3.412	3.089	3.855	3.752	3.428	4.098	3.718	3.956	3.652	3.905	3.896	3.890	3.452	3.382	3.590	2.954	3.755
345.0	118.9	229.6	341.3	358.2	290.9	263.4	278.1	324.0	426.2	513.1	664.0	780.7	899.6	893.4	789.9	573.5	423.2	442.0	490.6	230.7	144.2	156.1	233.6	 1047	 6087	9999.9	 1658	78.08	11.52	8.602	6.751	5.524	4.554	4.409	2.714	3.346	2.699	2.992	2.213	2.284	2.290	2.202	2.330	2.446	1.913	2.346	2.145	2.491	2.503	2.319	2.048	2.414	2.147	2.181	2.637	2.372	2.790	2.789	2.751	2.804	3.057	3.317	3.854	3.858	3.630	3.807	3.918	3.703	4.062	4.190	3.660	3.909	3.229	3.199	3.047	2.681	2.929
350.0	139.1	220.3	296.9	339.3	314.6	282.8	295.8	343.1	411.5	507.8	634.9	733.2	843.0	865.3	765.4	581.3	423.2	356.7	425.7	405.2	236.0	152.4	141.0	304.5	 1504	 5545	9999.9	 5732	116.6	12.53	8.926	6.014	4.830	4.393	3.643	3.219	3.164	3.009	2.533	2.326	2.266	2.529	2.299	2.166	2.100	2.349	2.250	2.551	2.474	2.119	2.168	2.661	2.351	2.183	2.442	2.538	2.785	2.588	2.686	3.063	3.018	3.132	3.646	3.515	3.322	3.614	3.737	3.717	4.018	4.064	3.603	3.899	3.487	3.039	3.195	2.793	2.953
355.0	130.9	212.7	320.1	328.6	313.5	303.4	338.5	367.9	423.2	489.2	599.1	712.4	797.2	812.8	725.3	576.9	430.2	367.4	349.1	402.5	426.8	227.3	158.3	174.4	409.2	 1296	 3409	9999.9	 8023	159.9	12.31	8.245	6.292	4.467	4.050	3.294	3.035	3.240	2.580	2.190	2.645	2.922	2.615	2.366	2.356	2.180	2.231	2.593	2.250	2.155	1.898	2.654	2.250	2.350	2.445	2.717	2.853	3.030	2.556	3.505	3.159	2.952	3.537	3.319	3.435	3.564	3.613	3.667	3.775	3.614	3.743	3.554	3.153	2.974	3.165	2.882	3.058
360.0	122.6	186.8	311.3	328.2	316.6	312.9	351.6	371.9	414.2	490.8	596.3	681.8	759.3	768.9	722.8	579.5	457.8	399.2	355.7	346.7	465.2	328.5	207.5	164.3	190.5	361.5	824.8	 4583	9999.9	 5812	110.3	10.85	7.732	5.613	4.451	3.537	3.132	3.480	3.095	2.011	2.257	2.517	2.677	2.403	2.106	2.205	2.285	2.560	2.494	2.283	1.966	2.327	2.753	3.018	2.505	2.535	2.753	2.892	2.683	3.030	3.584	3.058	3.209	3.677	3.577	3.720	3.646	3.639	3.971	3.628	3.234	3.603	3.233	3.345	3.323	3.057	3.253
365.0	108.3	156.1	301.4	335.5	343.9	364.9	348.5	404.8	430.6	493.7	587.0	668.7	716.9	751.7	706.1	591.0	475.2	419.8	377.2	355.1	400.8	457.7	295.6	193.3	163.6	177.3	252.4	 1130	 6044	9999.9	 1470	57.44	8.685	6.290	4.882	3.857	2.931	3.446	3.127	3.357	2.668	2.504	2.384	2.289	2.522	2.264	2.123	2.752	2.424	2.392	2.360	2.762	2.546	2.469	2.621	2.579	2.925	3.071	2.818	3.201	3.222	3.346	2.863	3.649	3.572	3.978	3.616	2.999	3.521	3.253	3.603	3.606	3.019	3.009	3.235	3.054	2.929
370.0	105.7	183.2	289.2	314.6	357.6	379.4	381.2	400.9	450.3	499.2	578.0	642.9	712.8	725.8	690.9	588.3	499.2	445.6	416.8	392.3	378.0	423.7	434.7	296.8	196.7	164.9	148.2	317.3	 1498	 5755	9999.9	 5134	91.73	10.06	6.557	5.012	3.557	3.480	3.163	3.232	2.684	2.847	2.526	2.247	2.604	2.137	2.202	2.485	2.332	2.280	2.164	2.585	2.566	2.982	3.017	2.676	2.899	3.339	3.156	3.125	2.961	3.105	3.387	3.805	3.387	3.817	3.511	3.447	3.355	3.532	3.202	3.475	3.185	3.342	3.257	3.211	2.817
375.0	102.5	169.2	283.6	315.0	363.5	369.7	404.8	437.5	476.1	501.7	579.4	623.2	681.1	701.4	674.7	583.2	529.0	482.9	464.2	431.3	400.5	399.3	427.4	442.1	267.0	199.5	153.2	159.0	397.9	 1332	 3688	9999.9	 6737	121.3	9.058	5.838	4.820	3.794	3.738	2.825	2.835	2.792	2.560	2.636	2.602	2.339	2.214	2.253	2.447	2.188	2.330	3.050	2.756	2.882	3.056	2.677	3.113	3.034	3.006	3.266	3.268	3.605	3.588	3.403	3.480	3.477	3.687	3.384	3.541	3.250	3.200	3.776	3.127	2.960	3.243	3.732	2.874
380.0	112.5	149.7	254.0	318.7	373.1	382.0	418.9	446.6	475.5	521.3	573.8	615.7	670.9	676.5	666.9	596.4	537.1	495.9	483.6	456.6	429.0	417.9	406.0	460.9	396.8	244.0	178.3	142.3	169.5	355.7	886.5	 5027	9999.9	 4445	76.07	7.143	5.360	5.004	4.208	3.862	3.470	3.011	2.770	2.794	2.613	2.530	2.381	2.324	2.758	2.169	2.424	3.001	2.631	2.660	2.945	2.847	3.164	3.328	2.565	3.090	2.915	3.414	3.498	3.510	3.505	3.844	3.209	3.011	3.422	3.089	2.969	3.474	3.134	3.114	3.040	3.928	3.172
385.0	115.1	178.5	272.9	312.6	399.6	390.1	411.6	464.8	457.6	505.9	562.2	597.6	650.1	669.7	643.8	591.1	555.5	520.2	496.8	474.8	453.5	428.7	401.9	421.7	461.7	325.6	208.8	158.6	135.0	152.5	252.4	 1255	 6622	9999.9	 1115	27.64	6.882	5.563	3.877	4.101	3.580	3.037	2.981	2.554	2.485	2.618	2.113	2.706	2.635	2.258	2.481	2.946	2.668	2.901	2.998	3.596	2.900	3.746	2.979	3.479	3.538	3.473	3.077	3.661	3.641	3.050	3.624	3.081	3.598	3.427	3.245	3.703	3.368	2.989	3.233	3.130	3.419
390.0	99.13	181.5	257.6	314.5	383.0	420.3	437.5	479.6	491.1	517.0	550.3	569.3	627.8	659.5	634.5	589.4	553.7	525.9	508.0	492.1	477.3	459.6	425.3	405.5	424.8	422.0	298.4	205.4	161.3	134.3	130.5	332.0	 1669	 5840	 8476	 3394	67.03	7.426	5.469	4.749	3.434	3.338	3.178	2.864	2.628	2.578	2.077	2.459	2.541	2.336	2.367	2.434	2.908	2.901	3.080	3.249	3.025	3.361	3.126	3.311	3.248	3.407	3.278	3.403	3.182	3.070	3.427	3.463	3.240	3.344	3.415	3.486	3.399	3.213	3.322	3.254	3.746
395.0	111.3	169.9	251.5	334.1	403.4	416.8	466.8	472.2	493.3	521.9	551.5	573.2	620.4	637.2	628.0	578.0	550.5	533.9	529.8	515.1	491.8	484.9	457.2	424.6	406.0	409.3	401.1	284.2	200.4	161.0	126.9	147.8	422.3	 1342	 3581	 9846	 4806	85.29	7.596	5.793	4.516	3.782	3.368	3.007	2.854	2.750	2.444	2.394	2.680	2.265	2.493	2.805	3.269	2.872	3.082	3.526	3.082	3.075	2.834	3.070	3.173	3.289	3.497	2.877	3.059	3.189	3.467	3.941	3.434	3.480	3.165	3.498	3.204	3.076	3.544	3.559	3.585
400.0	126.5	161.6	239.7	317.9	372.9	425.0	461.0	476.5	496.9	525.3	550.7	566.3	607.2	621.7	618.4	582.3	548.1	543.6	523.1	514.2	497.4	495.5	469.7	449.6	410.6	402.0	416.3	362.8	242.7	183.0	144.1	119.2	154.0	342.0	865.9	 5198	9999.9	 1061	51.55	6.304	4.942	4.776	3.651	3.110	3.123	3.191	2.326	2.592	2.814	2.411	2.481	2.829	3.113	2.847	3.290	3.287	3.238	3.336	2.983	3.251	3.206	3.527	3.640	2.972	3.182	3.495	3.544	3.642	3.001	3.347	3.277	3.268	3.473	3.363	3.792	3.108	3.225
405.0	124.0	168.5	256.4	334.8	398.5	408.8	443.1	492.3	492.6	512.4	559.3	570.2	606.2	612.8	602.5	579.2	545.8	534.7	525.2	511.7	513.4	506.4	481.1	465.8	422.0	402.2	381.5	409.6	313.4	216.0	165.9	131.5	108.0	127.1	231.5	 1324	 6399	 8214	879.9	20.18	5.837	4.830	4.165	2.900	2.492	3.286	2.318	2.424	2.834	2.237	2.347	2.963	3.352	2.923	2.804	3.252	3.109	3.469	2.978	3.330	3.499	3.570	3.480	3.465	2.783	3.665	3.392	3.402	3.156	3.208	3.591	2.949	3.368	3.141	3.338	2.986	3.448
410.0	104.5	159.5	260.0	328.0	382.8	421.0	469.1	495.2	503.3	532.5	561.6	566.4	586.5	601.2	601.3	557.3	534.8	520.2	512.3	518.4	510.2	499.8	482.1	474.2	438.3	421.6	379.4	379.4	380.4	288.2	202.6	153.2	117.2	96.55	100.2	330.2	 1638	 5064	 6834	 2626	55.52	6.267	5.007	3.910	2.975	3.080	2.486	2.711	2.355	2.341	2.570	2.819	2.934	3.279	2.909	3.217	3.383	3.322	3.263	3.671	3.478	3.536	3.452	3.250	3.297	3.239	3.423	3.428	3.162	3.172	3.132	3.012	3.504	3.363	3.189	3.186	3.334
