Sample:	'1
File name:	Default_20230713_103948.FD3
Run date:	'10:33:27, 07/13/2023
Operator:	user
Comment:	'

Instrument
Model:	F-2700 FL Spectrophotometer
Serial number:	2190-003
ROM Version:	4J14000 07

Instrument parameters
Measurement type:	3-D scan
Data mode:	Fluorescence
EX  Start WL:	220.0 nm
EX  End WL:	600.0 nm
EX Sampling interval:	5.0 nm
EM  Start WL:	230.0 nm
EM  End WL:	650.0 nm
EM Sampling interval:	5.0 nm
Scan speed:	12000 nm/min
EX Slit:	5.0 nm
EM Slit:	5.0 nm
PMT Voltage:	700 V
Response:	Auto 
Corrected spectra:	Off
Contour interval:	50.000

Peak integration
Integration method:	Rectangular
Sensitivity:	1
Threshold:	1.000

Peaks
No.	ApexEX/EM(nm)	Height(Data)
1	225.0/335.0	 1107
2	225.0/620.0	-22.86
3	230.0/345.0	 1072
4	235.0/420.0	491.6
5	240.0/520.0	67.19
6	240.0/580.0	-9.709
7	245.0/530.0	55.36
8	250.0/540.0	64.39
9	255.0/280.0	317.2
10	255.0/555.0	61.34
11	260.0/285.0	477.9
12	260.0/565.0	58.63
13	265.0/580.0	73.50
14	270.0/590.0	85.25
15	275.0/250.0	-5.174
16	275.0/340.0	 5512
17	275.0/605.0	107.5
18	280.0/235.0	-7.266
19	280.0/255.0	-5.165
20	280.0/335.0	 5523
21	285.0/245.0	-4.719
22	305.0/245.0	-2.400
23	305.0/265.0	-3.452
24	315.0/355.0	778.6
25	320.0/265.0	-1.745
26	320.0/360.0	817.1
27	325.0/240.0	-3.456
28	325.0/365.0	764.3
29	325.0/605.0	-0.612
30	335.0/625.0	-0.705
31	340.0/245.0	-2.382
32	340.0/630.0	-1.643
33	345.0/270.0	-1.690
34	350.0/255.0	-1.594
35	355.0/275.0	-1.022
36	355.0/405.0	264.6
37	355.0/605.0	0.319
38	360.0/325.0	-0.647
39	360.0/410.0	221.5
40	365.0/285.0	-1.002
41	365.0/415.0	202.8
42	365.0/600.0	0.646
43	370.0/425.0	185.5
44	375.0/430.0	158.9
45	380.0/435.0	149.5
46	385.0/445.0	127.7
47	385.0/615.0	-0.288
48	390.0/245.0	-1.408
49	390.0/450.0	108.3
50	395.0/340.0	-0.388
51	395.0/455.0	100.5
52	400.0/320.0	-0.410
53	405.0/345.0	-0.090
54	405.0/470.0	65.08
55	410.0/475.0	55.50
56	415.0/245.0	-0.696
57	420.0/490.0	38.64
58	425.0/495.0	33.35
59	430.0/505.0	27.00
60	435.0/510.0	21.77
61	440.0/515.0	20.57
62	445.0/335.0	3.943
63	445.0/525.0	16.53
64	450.0/530.0	13.75
65	455.0/340.0	3.976
66	460.0/545.0	9.003
67	485.0/580.0	1.398
68	490.0/585.0	1.503
69	495.0/595.0	0.596
70	500.0/600.0	0.143
71	515.0/285.0	0.443
72	525.0/240.0	1.047
73	535.0/335.0	11.34
74	550.0/335.0	12.35
75	555.0/340.0	12.45

Data points
	220.0	225.0	230.0	235.0	240.0	245.0	250.0	255.0	260.0	265.0	270.0	275.0	280.0	285.0	290.0	295.0	300.0	305.0	310.0	315.0	320.0	325.0	330.0	335.0	340.0	345.0	350.0	355.0	360.0	365.0	370.0	375.0	380.0	385.0	390.0	395.0	400.0	405.0	410.0	415.0	420.0	425.0	430.0	435.0	440.0	445.0	450.0	455.0	460.0	465.0	470.0	475.0	480.0	485.0	490.0	495.0	500.0	505.0	510.0	515.0	520.0	525.0	530.0	535.0	540.0	545.0	550.0	555.0	560.0	565.0	570.0	575.0	580.0	585.0	590.0	595.0	600.0
230.0	-84.57	-2.647	 1286	 1394	96.24	-29.51	-29.79	-21.41	-17.48	-15.97	-13.66	-12.65	-8.739	-8.660	-7.124	-7.941	-5.997	-4.738	-4.008	-4.753	-3.756	-3.975	-3.685	-2.953	-3.353	-2.616	-2.367	-2.802	-2.817	-2.656	-2.421	-2.113	-2.203	-2.270	-2.252	-1.650	-1.918	-1.537	-1.287	-1.604	-1.697	-1.431	-1.563	-1.782	-1.489	-1.520	-1.137	-0.525	1.178	1.212	-0.185	-0.994	-1.219	-1.440	-1.362	-1.466	-1.468	-1.415	-1.135	-1.459	-1.294	-1.450	-1.482	-1.572	-1.514	-1.434	-1.604	-1.566	-1.354	-1.262	-1.213	-1.487	-1.782	-1.339	-1.439	-1.857	-1.967
235.0	-78.35	-50.13	357.0	 1951	 1861	147.7	-13.07	-20.04	-15.56	-15.82	-16.40	-13.65	-7.266	-13.58	-7.450	-7.706	-4.554	-4.400	-5.803	-3.044	-4.347	-4.075	-4.254	-3.617	-3.032	-3.654	-2.901	-2.825	-2.385	-2.704	-3.229	-2.608	-2.975	-2.520	-2.233	-1.906	-1.899	-2.094	-1.937	-2.074	-1.776	-1.766	-1.288	-1.561	-1.614	-1.435	-1.304	-1.181	-0.734	0.385	1.760	2.600	0.430	-1.259	-1.583	-1.511	-1.301	-1.575	-0.995	-1.638	-1.273	-1.425	-1.396	-1.212	-1.722	-1.834	-1.488	-1.420	-1.705	-1.271	-1.338	-1.754	-2.012	-1.568	-1.679	-2.110	-2.006
240.0	-65.95	-63.85	32.79	878.4	 3167	 1827	89.65	-16.88	-19.23	-13.91	-18.33	-9.736	-10.90	-8.520	-8.141	-6.937	-5.194	-2.508	-5.403	-4.636	-4.916	-3.456	-4.655	-3.255	-2.999	-3.640	-2.508	-2.137	-2.914	-3.098	-3.631	-2.347	-2.915	-2.973	-2.159	-2.082	-1.839	-1.796	-1.553	-1.394	-1.449	-1.087	-0.884	-1.406	-1.693	-1.580	-0.769	-1.051	-0.778	-0.758	0.558	2.705	4.615	2.369	-0.121	-1.252	-1.265	-1.736	-1.580	-1.325	-1.128	1.047	-1.492	-1.013	-1.582	-1.571	-1.632	-1.629	-1.626	-1.158	-1.908	-1.728	-1.951	-1.239	-1.794	-1.513	-2.159
245.0	-81.66	-41.27	8.477	174.9	 1653	 3868	 1386	17.15	-22.27	-14.38	-16.97	-9.975	-9.866	-4.719	-6.676	-6.536	-7.915	-2.400	-4.976	-3.776	-4.297	-5.014	-4.232	-3.183	-2.382	-3.563	-3.175	-2.715	-2.180	-2.533	-3.095	-2.325	-2.981	-2.813	-1.408	-1.806	-2.482	-0.828	-1.156	-0.696	-1.489	-1.906	-1.653	-1.590	-0.981	-1.314	-0.930	-0.881	-0.605	-0.856	-0.322	-0.268	2.963	5.645	5.725	2.411	-0.546	-1.693	-1.822	-1.725	-1.395	-0.776	-1.252	-0.888	-1.743	-1.762	-1.650	-1.914	-1.298	-1.129	-1.826	-1.722	-1.419	-1.349	-1.636	-1.764	-2.227
250.0	-78.34	-57.32	14.79	44.99	389.0	 1846	 3936	 2711	330.4	-13.20	-9.684	-5.174	-7.458	-8.694	-7.347	-5.587	-7.280	-5.168	-5.479	-2.936	-3.534	-3.000	-3.878	-3.175	-2.864	-2.624	-2.667	-2.591	-2.895	-3.432	-2.351	-1.928	-2.923	-2.176	-1.633	-1.959	-2.311	-1.097	-1.454	-0.794	-1.369	-1.586	-1.655	-1.732	-1.396	-1.276	-1.429	-1.096	-0.913	-0.807	-0.990	-1.005	-0.046	1.269	2.895	4.826	6.188	3.839	0.920	-1.269	-1.228	-1.142	-1.256	-1.424	-1.195	-1.458	-1.447	-1.770	-1.469	-1.448	-1.642	-1.769	-1.485	-1.648	-1.672	-1.712	-1.739
255.0	-86.76	-57.21	-14.12	28.47	134.3	388.9	 1393	 5313	 4188	307.0	-8.171	-12.45	-5.165	-11.83	-7.061	-6.241	-7.580	-6.717	-5.964	-3.816	-3.052	-4.206	-3.307	-3.599	-3.804	-3.704	-1.594	-2.316	-2.422	-3.372	-2.459	-2.831	-1.865	-2.401	-2.575	-2.118	-1.920	-1.266	-1.804	-0.966	-1.524	-0.827	-1.723	-1.456	-1.527	-1.431	-1.351	-0.824	-1.120	-1.052	-0.985	-0.534	-0.880	-0.187	0.402	0.321	1.507	6.405	7.282	6.698	1.541	-0.430	-1.491	-1.214	-0.819	-1.447	-1.430	-1.607	-1.848	-1.726	-1.703	-1.869	-1.661	-1.481	-1.791	-1.778	-2.114
260.0	-72.60	-40.36	-53.31	3.695	131.1	120.2	311.6	 2380	 6745	 1570	114.4	-3.813	-5.767	-8.016	-6.182	-6.505	-6.640	-4.615	-6.291	-3.316	-2.084	-3.851	-3.020	-3.258	-3.403	-2.361	-3.226	-1.902	-3.213	-2.362	-2.579	-2.399	-1.724	-1.413	-1.935	-1.984	-1.877	-1.683	-1.626	-1.479	-1.778	-1.339	-1.376	-1.330	-1.380	-1.344	-1.756	-1.043	-1.488	-0.981	-1.036	-0.759	-0.935	-0.295	-0.691	-1.145	-0.425	0.972	2.182	6.857	9.170	5.573	0.410	-0.574	-1.005	-1.275	-1.628	-1.681	-1.462	-1.407	-1.283	-1.589	-1.477	-1.370	-1.572	-1.413	-1.843
265.0	-72.98	-50.54	-57.20	-42.73	66.17	158.5	73.76	564.2	 3481	 6121	 1198	19.87	-11.01	-8.083	-7.304	-4.743	-5.921	-3.452	-5.399	-2.137	-1.745	-4.135	-4.526	-3.115	-3.499	-2.560	-3.289	-2.785	-2.785	-3.182	-2.656	-3.272	-2.772	-2.503	-1.962	-1.936	-1.908	-1.258	-2.186	-2.100	-1.472	-0.684	-1.273	-1.258	-1.478	-1.441	-1.187	-0.980	-1.171	-0.653	-1.167	-1.064	-1.200	-0.693	-0.882	-1.052	-1.038	-1.075	-0.420	1.066	4.363	9.248	9.404	3.710	-0.413	-1.296	-1.592	-1.486	-1.607	-1.665	-1.068	-1.524	-1.404	-1.450	-1.320	-1.581	-1.901
270.0	-69.00	-42.33	-61.74	-50.22	2.679	101.5	163.6	172.9	842.2	 2819	 4289	 2500	254.6	-2.316	-4.065	-4.945	-7.327	-4.360	-5.332	-3.655	-3.362	-2.522	-2.599	-2.974	-2.525	-1.690	-3.303	-2.176	-2.568	-3.068	-3.089	-2.848	-2.226	-2.068	-1.872	-1.906	-2.050	-1.283	-1.935	-2.451	-1.588	-0.922	-1.284	-1.303	-1.495	-1.149	-1.191	-1.322	-1.098	-0.822	-0.876	-0.972	-1.452	-0.837	-0.597	-0.577	-0.873	-1.161	-0.987	-0.585	0.026	1.746	4.750	7.343	9.771	8.194	2.458	-0.916	-1.514	-1.587	-1.277	-1.812	-1.469	-1.929	-1.380	-1.473	-1.848
275.0	-67.07	-64.13	-50.03	-29.63	-18.11	11.95	141.6	288.4	266.1	672.9	 1440	 4455	 3644	205.3	-1.566	-3.082	-6.259	-4.961	-4.203	-3.450	-5.548	-2.514	-2.841	-2.936	-4.006	-2.807	-3.156	-1.022	-1.912	-2.398	-3.192	-2.981	-1.975	-1.404	-1.574	-1.174	-2.105	-1.474	-1.600	-2.232	-2.078	-1.271	-1.640	-1.590	-1.477	-1.110	-1.020	-1.470	-1.183	-0.640	-0.812	-1.278	-1.059	-1.423	-0.817	-0.594	-0.356	0.032	-0.359	-0.892	-0.949	-0.690	0.248	0.965	2.921	7.754	15.13	11.65	2.811	-1.118	-1.565	-1.445	-1.986	-1.666	-1.612	-1.711	-1.456
280.0	-51.10	-48.94	-15.90	-24.05	-8.926	10.28	60.04	317.2	306.4	249.6	452.0	 1881	 5564	930.9	88.69	0.586	-2.452	-3.867	-5.667	-4.396	-3.932	-2.294	-3.670	-2.964	-3.659	-2.773	-2.251	-1.712	-2.526	-1.544	-2.790	-2.284	-1.656	-1.393	-2.041	-1.545	-1.978	-1.090	-2.080	-1.542	-1.323	-1.054	-1.438	-1.508	-1.227	-0.995	-1.154	-0.953	-1.495	-1.153	-0.612	-1.571	-1.406	-1.043	-1.045	-1.027	-1.013	-0.383	-0.128	0.184	-0.821	-1.164	-0.763	-1.069	-0.511	1.496	5.590	12.18	14.89	9.215	0.535	-0.960	-1.461	-2.014	-1.563	-1.498	-2.078
285.0	-41.89	-7.339	-10.45	-11.47	27.96	23.99	54.47	186.4	477.9	295.6	296.2	653.6	 2731	 5497	719.4	22.46	-3.421	-0.866	-4.035	-3.634	-3.835	-2.110	-2.469	-2.176	-2.125	-2.353	-2.276	-2.112	-2.362	-1.002	-2.896	-2.022	-2.168	-2.148	-1.359	-1.172	-1.483	-1.336	-1.638	-1.436	-1.665	-1.790	-2.194	-1.845	-1.333	-0.407	-1.115	-1.068	-1.415	-0.906	-0.563	-1.191	-0.765	-1.170	-1.076	-1.365	-0.849	-0.966	-0.484	0.443	0.215	-0.547	-0.758	-1.206	-0.823	-0.207	0.664	2.328	8.245	16.26	15.95	4.457	-0.370	-1.496	-1.427	-1.752	-1.642
290.0	-22.00	4.173	31.96	30.62	48.67	66.09	81.45	168.9	371.8	644.4	558.0	541.4	977.2	 2605	 4514	 2319	164.1	1.422	-1.453	-2.868	-2.910	-2.777	-2.372	-2.484	-1.316	-2.178	-2.813	-2.713	-2.837	-2.124	-2.106	-2.437	-1.814	-1.826	-1.308	-1.605	-1.570	-1.809	-1.987	-1.435	-1.569	-2.037	-1.446	-1.647	-1.464	-0.854	-0.844	-0.914	-0.929	-0.751	-0.697	-0.712	-1.051	-1.160	-0.786	-0.928	-0.882	-0.822	-0.629	-0.165	-0.036	0.549	0.230	0.181	-0.093	-0.359	0.209	0.609	1.587	3.770	8.751	11.40	13.23	9.741	3.296	-0.864	-1.399
295.0	7.803	32.99	85.09	112.6	103.5	141.6	174.5	245.0	354.6	621.4	 1038	842.5	735.5	891.5	 1521	 4748	 3367	179.1	-1.123	-2.770	-1.677	-1.758	-2.084	-3.295	-1.409	-2.352	-4.209	-3.263	-2.518	-2.592	-1.859	-2.198	-2.468	-2.891	-1.677	-1.698	-1.830	-1.737	-1.750	-1.462	-1.339	-2.441	-1.715	-2.087	-1.210	-1.263	-0.942	-0.687	-1.038	-0.619	-0.583	-0.875	-0.387	-0.806	-0.576	-0.884	-0.674	-0.478	-0.534	-0.648	0.200	-0.190	0.108	2.127	1.620	0.618	0.752	1.074	0.440	0.531	1.044	1.843	3.657	10.87	19.10	15.03	3.525
300.0	20.88	63.82	135.4	170.7	160.9	205.3	257.4	325.9	479.4	677.2	 1123	 1318	937.0	647.8	571.4	 1962	 5716	 2374	73.50	-1.382	-1.009	-1.033	-2.609	-2.744	-2.282	-3.740	-3.318	-2.677	-2.837	-1.927	-1.341	-2.552	-1.324	-2.555	-2.135	-1.282	-1.799	-1.773	-1.884	-1.904	-1.118	-2.029	-1.587	-1.707	-1.500	-0.973	-0.821	-0.539	-0.836	-0.312	-0.542	-0.673	-0.766	-0.535	-0.606	-0.441	0.169	-0.604	0.407	0.096	-0.231	0.397	0.286	1.603	2.033	2.630	1.566	0.991	0.431	-0.453	0.220	0.332	0.167	1.727	8.190	16.85	19.24
305.0	44.10	102.4	172.1	225.9	197.7	258.2	318.2	460.7	628.2	855.8	 1167	 1592	 1222	797.7	453.0	596.9	 2773	 5487	437.1	21.47	-0.330	-1.323	-1.572	-1.727	-2.137	-2.993	-2.150	-2.372	-2.682	-3.781	-2.234	-2.408	-2.265	-2.047	-2.578	-1.247	-2.057	-1.413	-1.336	-1.389	-0.889	-1.492	-0.956	-1.021	-1.624	-0.982	-1.127	-0.380	-0.351	-0.782	-0.392	-0.483	-0.830	-0.701	-0.167	-0.119	-0.249	-0.329	0.357	0.430	0.513	0.880	0.992	1.817	1.542	3.169	2.812	2.425	1.361	0.282	0.196	-0.196	-0.310	-0.090	0.902	3.600	11.49
310.0	119.4	157.8	187.9	272.7	277.0	355.0	478.5	689.5	941.5	 1232	 1492	 1788	 1919	 1379	680.4	389.0	776.0	 2518	 3976	 1614	124.0	2.100	0.670	-1.252	-1.551	-2.761	-1.978	-3.008	-2.014	-1.770	-1.770	-2.188	-2.018	-1.821	-1.818	-1.308	-1.595	-1.446	-1.578	-0.872	-0.930	-0.884	-1.435	-1.110	-1.220	-0.886	-0.697	-0.463	-0.414	-0.608	-0.324	-0.070	-0.060	-0.241	-0.153	0.092	0.212	0.226	0.918	1.361	1.394	1.173	1.400	2.058	2.419	3.133	3.282	3.007	2.625	2.294	1.476	0.134	-0.240	-0.403	-0.620	-0.285	1.518
315.0	251.5	417.8	417.3	380.8	350.9	538.5	776.1	 1089	 1586	 1937	 2428	 2777	 2836	 2592	 1591	669.0	529.9	795.8	 1410	 4207	 2431	165.9	2.609	-0.035	-1.444	0.192	-2.148	-2.140	-1.362	-2.733	-1.483	-2.792	-1.601	-1.841	-2.062	-1.026	-1.343	-1.926	-1.676	-0.687	-0.497	-1.202	-0.977	-1.222	0.391	0.463	0.533	-0.197	-0.146	0.232	-0.180	0.106	0.178	-0.442	0.705	0.697	1.152	1.934	1.928	2.464	2.918	3.860	5.108	4.069	4.620	5.958	4.895	4.613	5.354	4.648	4.491	3.018	2.072	0.977	-0.065	-0.501	-0.338
320.0	468.9	747.7	706.5	636.9	499.8	701.0	 1002	 1510	 2146	 2802	 3445	 3989	 4043	 3590	 2749	 1361	780.3	631.8	646.9	 1941	 4871	 2010	77.94	2.314	0.754	0.060	-1.384	-2.767	-2.373	-2.407	-1.485	-2.002	-1.866	-2.103	-1.469	-1.430	-0.410	-1.623	-1.273	-1.421	-0.540	-0.892	-1.264	-0.023	1.114	1.861	2.278	2.466	1.340	-0.043	0.420	0.541	0.037	0.801	1.665	0.600	1.174	2.504	3.355	4.150	5.411	5.669	5.972	6.388	7.418	7.831	8.360	8.186	8.629	7.080	6.955	6.038	5.014	2.622	1.240	0.191	-0.083
325.0	617.2	891.7	881.1	741.4	619.0	823.3	 1175	 1804	 2539	 3204	 4056	 4562	 4620	 4014	 3089	 1789	914.2	673.0	505.6	709.0	 2613	 5202	 1385	24.40	2.609	-0.243	-1.686	-1.703	-0.647	-2.048	-0.715	-2.249	-1.373	-1.631	-1.435	-1.790	-1.555	-1.749	-1.862	-1.105	-0.786	-0.672	-0.819	0.418	1.328	2.431	3.083	2.096	1.837	0.102	0.568	0.546	0.360	0.578	1.817	1.514	2.253	3.536	4.092	4.881	6.124	6.395	6.809	7.084	8.410	10.24	9.167	9.843	9.553	8.071	8.015	6.164	5.626	4.092	2.246	0.634	0.632
330.0	729.5	992.5	906.7	887.0	710.7	949.5	 1374	 2110	 2901	 3658	 4578	 5064	 5072	 4390	 3161	 1928	 1165	725.0	508.8	463.1	881.5	 2480	 4030	 1224	107.4	1.965	-0.239	-0.953	-2.088	-1.244	-1.614	-2.104	-1.621	-1.594	-1.549	-1.414	-1.597	-1.118	-1.444	-0.649	-0.771	-0.359	-0.533	0.436	1.303	3.746	3.327	3.798	1.076	0.936	0.522	0.838	0.637	1.399	1.414	2.363	2.777	3.873	4.380	5.767	6.430	7.275	8.207	9.568	9.357	11.22	10.57	11.40	10.05	9.206	8.407	6.280	5.200	4.086	3.413	1.799	1.021
335.0	760.6	 1107	 1034	 1006	864.0	 1095	 1616	 2374	 3117	 4124	 5011	 5494	 5523	 4786	 3344	 1930	 1368	 1017	621.7	483.7	525.7	738.9	 1421	 3772	 1994	136.4	2.250	0.154	-1.220	-1.729	-0.402	-1.346	-1.772	-1.562	-1.294	-1.115	-1.362	-1.032	-1.782	-1.010	-0.753	-0.585	-0.584	-0.167	1.575	3.943	3.592	3.696	2.063	1.279	0.440	1.330	1.069	1.384	1.759	1.909	3.983	4.948	5.350	6.713	8.295	8.847	9.982	11.34	9.539	11.21	12.35	12.32	11.99	10.08	9.818	7.228	5.161	3.650	2.504	2.690	2.124
340.0	722.1	 1043	 1047	 1056	961.8	 1243	 1663	 2375	 3172	 4126	 4963	 5512	 5500	 4711	 3247	 1784	 1193	 1105	742.4	505.6	484.0	386.4	474.2	 1718	 4664	 1650	74.54	1.544	-0.298	-1.367	-0.825	-1.552	-1.407	-1.204	-1.255	-0.388	-1.478	-0.790	-0.736	-0.778	-0.623	-0.575	0.058	0.257	1.454	2.990	3.530	3.976	1.690	1.199	0.732	1.406	1.319	1.480	2.443	2.461	3.934	4.614	5.505	6.796	7.932	8.467	9.922	10.40	10.56	9.952	12.25	12.45	11.72	9.969	9.048	8.174	5.764	3.549	2.254	1.390	1.870
345.0	722.3	934.6	 1072	 1062	 1045	 1256	 1685	 2344	 3147	 4010	 4717	 5169	 5168	 4455	 3000	 1644	 1030	977.4	888.0	565.4	487.0	362.2	303.3	527.0	 2512	 4784	 1217	29.46	0.816	-0.160	-0.912	-1.484	-0.957	-2.067	-1.593	-1.039	-1.608	-0.090	-0.602	-1.611	-0.646	-0.461	-0.544	0.875	1.253	2.034	3.558	2.892	1.076	1.134	1.526	1.718	1.452	2.010	2.489	2.634	3.772	4.209	5.563	5.831	7.366	7.971	9.737	9.840	9.196	9.747	11.86	12.39	9.835	9.706	9.003	6.940	5.026	3.019	1.682	1.095	1.154
350.0	608.0	900.1	978.8	 1085	 1077	 1295	 1661	 2232	 2940	 3690	 4387	 4773	 4738	 4020	 2744	 1495	964.7	823.5	841.5	750.7	584.0	418.2	332.9	296.2	721.2	 2362	 3804	 2025	89.68	1.187	0.081	-0.344	-1.178	-2.251	-1.245	-1.113	-1.036	-0.546	-1.256	-0.895	-0.527	-0.680	-0.238	0.232	1.232	1.844	2.544	1.938	1.672	1.470	1.402	1.704	1.578	2.049	2.560	3.259	3.273	3.603	5.005	5.942	7.057	7.837	9.234	9.292	9.377	9.234	10.34	10.13	9.436	8.136	7.313	6.311	3.808	2.466	1.436	0.847	1.296
355.0	542.7	815.3	920.6	 1067	 1101	 1309	 1596	 2250	 2795	 3374	 3881	 4204	 4175	 3529	 2414	 1310	905.1	771.8	730.6	778.6	761.2	509.7	385.3	299.2	324.9	617.0	 1345	 4589	 1667	115.7	1.197	-0.385	-1.481	-1.849	-1.339	-0.957	-0.477	-0.110	-0.669	-1.017	-1.119	-0.585	-0.040	0.143	1.315	2.206	1.965	1.920	1.881	1.350	1.359	1.914	1.892	1.852	2.188	2.201	3.062	3.973	4.723	5.231	6.563	7.592	7.391	7.689	7.886	8.235	8.544	9.321	7.755	6.609	6.550	5.118	2.704	2.624	0.982	1.656	0.896
360.0	432.3	735.0	898.1	 1023	 1084	 1247	 1560	 2062	 2507	 3056	 3549	 3808	 3719	 3170	 2142	 1208	832.0	747.2	695.3	711.8	817.1	641.5	451.3	339.3	269.4	248.5	363.8	 2094	 3707	 1423	65.84	0.640	-1.453	-1.624	-1.080	-1.086	-1.743	-0.300	-1.227	-1.930	-1.115	-0.283	0.097	0.736	0.180	1.385	1.594	2.200	1.787	1.184	1.034	1.562	1.750	1.556	2.367	2.727	3.167	3.634	5.100	5.232	5.368	6.098	6.382	7.215	6.847	8.297	7.273	7.702	7.053	6.648	5.358	4.387	3.765	2.355	1.404	0.806	0.993
365.0	403.3	665.7	827.7	 1073	 1105	 1295	 1503	 1944	 2317	 2812	 3206	 3473	 3341	 2839	 1933	 1110	804.8	731.1	692.1	692.4	763.9	764.3	528.4	380.1	285.5	184.5	151.4	539.3	 1999	 3919	 1114	16.96	0.340	0.129	-0.717	-2.030	-1.548	-1.184	-0.927	-0.601	-0.556	-0.110	-0.533	-0.298	0.184	0.642	1.361	1.130	1.223	1.073	1.169	1.661	1.514	2.052	2.638	2.331	2.568	2.904	3.410	5.514	4.902	5.915	6.158	7.276	6.328	7.121	7.004	6.013	6.117	5.704	5.291	3.138	2.434	1.700	0.605	0.727	0.721
370.0	336.0	597.8	787.2	 1013	 1099	 1237	 1394	 1734	 2093	 2474	 2796	 3001	 2893	 2472	 1706	 1018	782.5	732.7	711.7	697.5	705.2	717.5	662.5	456.3	318.8	197.7	120.4	167.4	506.9	 1900	 3483	 1443	77.83	0.907	-0.321	-0.804	-1.067	-1.083	-0.447	-0.993	-0.783	-0.650	-0.314	-0.449	-0.086	0.514	0.691	0.560	0.752	0.844	1.307	1.850	1.854	1.422	1.846	2.546	2.323	2.980	3.229	3.846	4.304	5.044	5.030	5.816	5.074	5.344	5.775	5.744	4.644	4.425	4.480	3.129	2.207	1.608	0.895	1.034	0.513
375.0	300.8	491.7	736.8	922.1	 1015	 1161	 1277	 1562	 1855	 2161	 2382	 2587	 2454	 2136	 1499	938.0	756.7	715.7	718.9	706.5	686.1	642.8	637.6	578.1	372.2	224.4	139.4	99.15	152.5	447.1	 1241	 3167	 1452	96.42	0.653	-0.169	-0.960	-0.262	-0.910	-1.656	-0.396	-0.247	-1.025	-0.720	-0.252	0.205	0.660	0.091	0.165	0.701	0.935	1.637	1.387	1.703	2.088	1.935	2.300	2.589	2.405	2.632	3.042	3.932	4.320	4.855	4.514	4.666	4.868	4.739	3.879	3.898	3.361	2.851	1.673	1.307	0.571	0.836	0.386
380.0	278.1	449.4	687.6	868.8	977.7	 1074	 1204	 1419	 1692	 1847	 2095	 2258	 2176	 1886	 1326	876.3	735.8	734.7	725.1	709.9	695.1	625.3	575.4	582.8	453.3	253.8	151.6	98.17	81.51	132.3	306.3	 1405	 3732	 1168	43.74	0.007	-0.941	-1.003	-0.765	-1.548	-0.513	-0.068	-0.392	-0.664	0.116	-0.220	0.083	0.709	0.829	0.501	0.757	1.264	1.313	1.926	2.129	1.814	1.646	2.310	2.339	2.455	2.871	3.283	3.410	5.117	4.931	3.679	3.777	2.837	3.373	2.512	3.170	2.945	1.476	1.819	1.185	0.502	0.441
385.0	194.1	391.7	617.5	820.0	948.7	985.3	 1069	 1256	 1500	 1730	 1868	 1948	 1958	 1689	 1209	825.5	701.0	703.8	707.5	703.8	675.2	608.7	548.6	508.8	494.7	300.0	169.9	107.5	73.25	68.37	93.36	355.3	 2038	 3353	761.7	13.37	-0.549	-0.125	-1.374	-0.642	-1.033	-0.584	-1.054	-0.708	-0.369	-0.493	0.272	0.186	0.825	1.285	0.837	0.895	1.517	1.517	1.331	1.341	2.086	1.992	1.978	2.065	2.163	3.684	3.424	3.337	3.679	3.955	3.386	3.315	2.091	2.604	2.705	1.925	2.092	1.460	0.805	0.674	-0.066
390.0	137.6	355.4	539.2	763.3	820.3	894.1	950.8	 1108	 1284	 1508	 1590	 1630	 1642	 1446	 1079	767.4	691.6	691.3	694.4	686.8	654.1	589.9	522.8	456.0	422.6	365.0	226.4	125.6	86.58	64.04	55.65	102.7	507.1	 1633	 2360	 1222	57.15	1.417	-0.455	-0.290	-0.849	-0.900	-0.966	-0.741	-0.777	-0.334	-0.167	0.081	0.545	0.572	0.936	0.754	1.427	1.518	1.214	0.987	1.425	1.535	1.164	1.729	1.714	2.666	2.563	2.169	2.301	2.541	2.877	2.273	1.820	1.850	2.643	1.604	1.152	0.802	0.769	0.676	0.397
