Sample:	'1
File name:	G2025070815—’«≈¥Â«≈.FD3
Run date:	'14:42:00, 07/09/2025
Operator:	Administrator
Comment:	'

Instrument
Model:	F-2700 FL Spectrophotometer
Serial number:	23B8-004
ROM Version:	4J14000 07

Instrument parameters
Measurement type:	3-D scan
Data mode:	Fluorescence
EX  Start WL:	220.0 nm
EX  End WL:	600.0 nm
EX Sampling interval:	5.0 nm
EM  Start WL:	230.0 nm
EM  End WL:	650.0 nm
EM Sampling interval:	5.0 nm
Scan speed:	12000 nm/min
EX Slit:	5.0 nm
EM Slit:	5.0 nm
PMT Voltage:	700 V
Response:	Auto 
Corrected spectra:	Off
Contour interval:	50.000

Peak integration
Integration method:	Rectangular
Sensitivity:	1
Threshold:	1.000

Peaks
No.	ApexEX/EM(nm)	Height(Data)
1	225.0/580.0	98.03
2	225.0/610.0	71.18
3	230.0/345.0	6112
4	240.0/265.0	306.4
5	245.0/270.0	305.7
6	250.0/275.0	407.3
7	250.0/440.0	5344
8	255.0/285.0	484.9
9	260.0/290.0	569.1
10	265.0/585.0	146.9
11	270.0/600.0	127.3
12	275.0/415.0	6214
13	275.0/435.0	6045
14	275.0/610.0	132.7
15	280.0/345.0	3100
16	285.0/640.0	96.35
17	340.0/415.0	3428
18	340.0/430.0	3309
19	345.0/435.0	3320
20	460.0/345.0	17.86
21	475.0/345.0	18.45
22	505.0/275.0	2.581
23	510.0/280.0	3.038
24	510.0/445.0	19.82
25	520.0/285.0	3.282
26	565.0/410.0	19.54
27	575.0/345.0	15.93
28	575.0/415.0	19.67
29	590.0/365.0	15.20

Data points
	220.0	225.0	230.0	235.0	240.0	245.0	250.0	255.0	260.0	265.0	270.0	275.0	280.0	285.0	290.0	295.0	300.0	305.0	310.0	315.0	320.0	325.0	330.0	335.0	340.0	345.0	350.0	355.0	360.0	365.0	370.0	375.0	380.0	385.0	390.0	395.0	400.0	405.0	410.0	415.0	420.0	425.0	430.0	435.0	440.0	445.0	450.0	455.0	460.0	465.0	470.0	475.0	480.0	485.0	490.0	495.0	500.0	505.0	510.0	515.0	520.0	525.0	530.0	535.0	540.0	545.0	550.0	555.0	560.0	565.0	570.0	575.0	580.0	585.0	590.0	595.0	600.0
230.0	39.98	624.6	1466	432.7	22.29	8.633	6.487	5.832	5.600	5.018	5.022	4.333	3.932	3.706	3.311	2.756	2.584	2.198	2.186	1.906	1.745	1.671	1.774	1.660	1.533	1.348	1.392	1.280	1.332	1.164	1.120	1.058	0.937	0.828	0.734	0.667	0.635	0.570	0.468	0.439	0.467	0.461	0.458	0.402	0.381	0.374	0.858	3.182	5.617	4.350	1.651	0.481	0.287	0.284	0.274	0.281	0.314	0.284	0.276	0.267	0.298	0.315	0.269	0.321	0.272	0.335	0.266	0.277	0.272	0.277	0.311	0.311	0.294	0.289	0.285	0.316	0.289
235.0	63.34	185.8	1068	1793	440.6	30.14	7.953	6.728	5.370	5.144	5.028	3.906	4.422	3.766	3.175	3.017	2.413	2.310	2.312	1.918	1.757	1.706	1.469	1.773	1.570	1.453	1.416	1.387	1.283	1.339	1.065	0.957	0.961	0.780	0.756	0.701	0.604	0.524	0.497	0.407	0.468	0.419	0.477	0.429	0.480	0.387	0.419	1.061	2.417	4.611	6.962	7.403	3.300	0.753	0.299	0.284	0.387	0.304	0.349	0.269	0.275	0.290	0.291	0.254	0.311	0.307	0.264	0.286	0.239	0.231	0.267	0.356	0.302	0.332	0.308	0.301	0.320
240.0	93.44	98.08	365.0	1774	2059	342.1	16.80	7.904	5.513	5.760	5.154	4.597	4.755	4.066	3.428	3.187	2.737	2.390	2.017	1.891	1.886	1.830	1.467	1.715	1.803	1.556	1.787	1.465	1.390	1.259	1.059	1.040	0.912	0.833	0.771	0.677	0.580	0.493	0.419	0.410	0.430	0.462	0.442	0.485	0.612	0.537	0.448	0.585	0.808	1.623	4.188	9.740	11.58	7.822	2.733	0.545	0.305	0.331	0.293	0.284	0.293	0.294	0.326	0.258	0.315	0.331	0.267	0.245	0.253	0.255	0.265	0.282	0.259	0.282	0.328	0.282	0.299
245.0	89.05	128.1	124.9	669.5	2565	2125	236.4	10.17	8.171	6.616	6.323	5.094	5.492	4.537	3.748	3.030	2.589	2.347	2.405	2.198	1.831	2.005	1.712	1.727	1.567	1.419	1.624	1.561	1.375	1.162	1.115	1.077	0.894	0.815	0.765	0.710	0.556	0.598	0.477	0.487	0.515	0.446	0.469	0.511	0.435	0.646	0.738	0.605	0.523	0.594	1.224	3.423	8.832	15.00	13.82	6.904	1.785	0.344	0.314	0.295	0.287	0.275	0.359	0.263	0.290	0.331	0.289	0.274	0.272	0.295	0.268	0.247	0.374	0.312	0.289	0.290	0.324
250.0	46.19	120.4	173.0	209.9	911.4	2596	2899	848.0	39.89	8.706	7.109	6.414	5.464	4.829	3.961	3.474	2.801	2.586	2.354	2.241	1.972	2.088	1.876	1.707	1.703	1.482	1.408	1.542	1.363	1.330	1.152	1.078	0.974	0.813	0.800	0.701	0.650	0.543	0.506	0.496	0.482	0.440	0.436	0.411	0.417	0.447	0.569	0.736	0.816	0.730	0.674	1.073	2.400	5.298	9.419	14.51	17.91	15.22	7.669	2.066	0.425	0.335	0.325	0.300	0.297	0.326	0.321	0.303	0.317	0.295	0.265	0.304	0.307	0.309	0.297	0.341	0.305
255.0	30.40	49.59	147.8	246.7	258.6	716.2	2901	4741	278.8	36.54	8.767	7.106	6.367	5.414	4.412	3.348	3.122	2.691	2.340	2.397	2.067	1.998	2.036	1.728	1.852	1.491	1.457	1.454	1.378	1.238	1.301	1.143	1.041	0.917	0.805	0.717	0.708	0.561	0.482	0.520	0.400	0.384	0.400	0.430	0.376	0.448	0.384	0.430	0.524	0.860	1.055	1.109	0.942	1.437	2.357	3.785	7.603	17.77	29.28	24.97	12.33	2.292	0.386	0.328	0.369	0.364	0.326	0.288	0.320	0.326	0.306	0.254	0.299	0.403	0.269	0.351	0.355
260.0	26.80	32.86	67.85	242.3	227.7	198.0	998.2	4750	4883	233.4	19.81	9.532	7.342	6.544	5.035	4.169	3.397	3.198	2.953	2.553	2.134	2.003	1.953	1.855	1.725	1.578	1.578	1.459	1.463	1.295	1.317	1.086	1.006	0.985	0.685	0.685	0.678	0.597	0.522	0.536	0.492	0.482	0.455	0.457	0.428	0.392	0.360	0.385	0.409	0.544	0.768	1.656	1.411	0.891	0.826	1.204	2.034	5.253	14.41	29.67	38.85	24.10	8.617	1.104	0.354	0.392	0.305	0.348	0.302	0.297	0.393	0.284	0.312	0.417	0.272	0.364	0.328
265.0	31.62	26.12	33.07	135.0	306.4	165.9	256.8	1827	6597	4739	174.2	12.68	9.139	7.251	5.333	4.360	3.399	3.180	2.742	2.430	2.091	1.903	1.958	2.060	1.844	1.779	1.532	1.643	1.585	1.382	1.226	1.261	1.025	0.946	0.862	0.701	0.689	0.634	0.540	0.519	0.488	0.494	0.446	0.520	0.459	0.361	0.393	0.413	0.351	0.351	0.462	1.077	1.640	1.810	1.054	0.739	0.755	1.539	3.733	9.426	23.76	41.74	32.33	20.08	4.860	0.579	0.407	0.382	0.380	0.348	0.345	0.393	0.337	0.351	0.399	0.315	0.292
270.0	46.88	43.08	38.90	53.64	171.6	305.7	205.2	459.0	2309	6189	5482	719.1	37.16	9.203	6.931	5.619	4.278	3.690	2.968	2.634	2.320	2.492	2.033	2.001	2.081	1.833	1.751	1.597	1.706	1.430	1.313	1.336	1.176	1.012	0.909	0.769	0.702	0.603	0.513	0.516	0.473	0.517	0.479	0.525	0.466	0.501	0.420	0.389	0.359	0.360	0.392	0.537	0.788	1.252	1.618	1.828	1.559	0.976	1.263	2.549	5.992	12.76	21.39	36.68	36.87	37.20	14.37	4.841	0.629	0.421	0.424	0.411	0.341	0.389	0.363	0.298	0.362
275.0	106.1	116.1	97.84	57.73	68.69	179.7	407.3	263.7	570.5	1637	5882	9999.9	971.6	31.12	9.420	7.016	5.470	4.681	3.596	3.163	2.738	2.394	2.066	2.282	2.079	2.047	1.932	1.772	1.473	1.576	1.475	1.202	1.341	1.201	0.868	0.887	0.943	0.663	0.592	0.574	0.572	0.594	0.550	0.580	0.577	0.699	0.626	0.527	0.629	0.534	0.364	0.466	0.538	0.633	0.800	1.161	2.083	2.581	1.992	1.244	1.846	3.327	5.358	8.880	12.80	31.77	59.66	63.12	22.61	4.631	0.519	0.408	0.380	0.447	0.414	0.375	0.343
280.0	189.3	203.8	163.9	91.58	60.50	96.36	315.5	375.2	257.9	464.1	1858	9423	8623	141.8	17.62	9.055	6.388	4.838	4.030	3.262	2.940	2.787	2.467	2.326	2.270	2.200	2.008	1.693	1.525	1.591	1.424	1.354	1.276	1.168	1.064	0.956	0.928	0.824	0.620	0.646	0.634	0.706	0.600	0.680	0.713	0.888	0.831	0.879	0.761	0.692	0.533	0.621	0.527	0.579	0.603	0.693	1.138	2.046	3.038	2.395	1.518	1.451	1.899	2.710	3.620	8.606	22.61	51.69	72.83	32.37	16.63	2.081	0.428	0.402	0.491	0.372	0.428
285.0	275.0	303.9	252.4	150.2	85.64	86.70	176.2	484.9	320.7	266.9	579.4	3226	9999.9	6527	104.8	12.93	8.452	5.855	4.621	3.538	3.286	2.957	2.631	2.235	2.282	2.233	1.903	1.938	1.654	1.414	1.536	1.448	1.292	1.272	1.054	1.109	0.976	0.945	0.726	0.901	0.775	0.759	0.697	0.740	0.964	1.123	1.059	1.087	1.062	0.919	0.766	0.765	0.645	0.632	0.638	0.611	0.904	1.117	2.119	3.268	3.282	2.076	1.391	1.445	1.841	2.866	6.218	14.43	33.89	61.23	78.18	28.55	10.31	1.002	0.595	0.528	0.464
290.0	377.3	441.9	387.8	251.1	153.9	141.2	172.6	312.7	569.1	512.4	454.5	1024	3441	8743	7954	426.2	26.17	8.273	6.045	4.861	4.005	3.417	2.903	2.668	2.411	2.251	1.938	1.918	1.877	1.665	1.725	1.618	1.274	1.289	1.196	1.149	1.071	0.991	0.903	0.936	0.850	0.823	0.932	0.954	1.132	1.316	1.466	1.676	1.486	1.249	1.107	1.089	0.927	0.879	0.830	0.818	0.997	1.109	1.393	1.962	2.775	3.430	3.646	2.887	2.327	2.373	3.055	4.981	9.252	17.40	33.19	46.82	60.99	52.04	18.83	8.446	1.059
295.0	454.1	573.8	550.5	366.1	239.8	221.7	237.6	305.4	457.3	845.1	835.4	725.0	1175	2374	6903	9999.9	603.2	22.51	8.794	6.022	4.718	3.822	3.431	2.998	2.658	2.552	2.450	2.183	2.139	1.923	1.690	1.456	1.340	1.289	1.305	1.274	1.274	1.077	1.061	0.958	0.941	0.935	1.042	1.252	1.361	1.540	1.870	2.017	2.082	1.619	1.333	1.486	1.314	1.260	1.143	1.186	1.430	1.450	1.524	1.734	2.095	2.428	3.134	5.238	5.424	4.364	3.455	3.706	4.898	6.128	9.497	12.17	17.22	31.60	64.52	83.64	29.97
300.0	517.7	653.5	666.5	456.9	326.8	309.6	340.6	376.7	519.1	816.5	1275	984.5	862.0	940.3	2147	9405	5748	87.03	16.55	7.750	6.073	4.879	4.593	3.289	2.775	2.796	2.461	2.120	2.099	2.068	1.807	1.726	1.553	1.249	1.355	1.460	1.305	1.216	1.219	1.079	0.990	1.043	1.093	1.171	1.467	1.737	2.140	2.111	2.347	1.908	1.797	1.873	1.591	1.571	1.635	1.606	1.708	1.973	2.134	2.110	2.401	2.719	3.472	4.488	5.998	6.906	6.035	4.673	4.466	4.538	5.149	5.103	5.784	9.159	21.02	51.49	83.13
305.0	580.4	812.6	760.9	563.3	428.5	428.0	453.1	574.8	728.8	975.3	1445	1581	1137	860.4	913.6	3188	9999.9	4723	71.62	11.71	7.386	5.622	5.192	4.210	3.440	2.824	2.692	2.187	2.129	2.111	1.820	1.732	1.501	1.248	1.520	1.401	1.455	1.182	1.055	1.382	1.100	1.175	1.189	1.460	1.673	2.000	2.205	2.560	2.807	2.149	1.967	2.102	2.072	1.856	2.013	2.141	2.367	2.485	2.953	3.012	3.280	3.647	4.530	5.243	5.785	7.303	8.879	8.588	6.939	5.998	5.111	4.950	4.474	4.723	7.038	14.24	32.13
310.0	657.6	894.4	889.9	685.4	548.6	553.2	638.2	776.4	933.5	1184	1503	1847	1725	1153	851.9	1123	3405	7633	6947	1305	22.51	8.044	5.833	4.658	4.003	3.212	3.095	2.461	2.452	2.261	2.004	1.812	1.693	1.603	1.659	1.400	1.383	1.278	1.216	1.223	1.117	1.215	1.221	1.523	1.799	2.136	2.548	2.894	3.014	2.549	2.248	2.570	2.414	2.339	2.370	2.649	2.988	3.239	3.616	3.992	4.351	4.604	5.552	6.255	6.592	7.234	8.397	9.183	9.999	9.282	7.933	6.241	5.606	5.160	4.897	6.075	9.800
315.0	780.6	1093	1048	815.7	667.7	662.2	773.8	927.6	1073	1342	1612	1835	1928	1677	1045	807.2	1182	2052	5930	9628	479.3	22.59	8.496	5.906	5.116	3.990	3.461	2.962	3.021	2.586	2.217	1.943	1.641	1.792	1.521	1.561	1.375	1.413	1.275	1.253	1.229	1.220	1.442	1.666	2.070	2.547	3.024	3.419	3.322	2.875	2.939	3.072	2.666	2.794	2.903	3.177	3.458	3.907	4.255	4.633	4.967	5.222	6.050	6.761	7.450	7.523	8.640	8.521	9.631	10.03	10.26	9.205	7.758	6.374	5.726	5.179	5.473
320.0	964.3	1462	1245	1055	806.5	767.5	876.1	1036	1214	1496	1771	1993	1997	1982	1447	902.1	811.1	782.5	1737	8048	7972	378.1	15.22	7.692	5.873	4.633	4.088	3.364	3.108	2.869	2.357	2.137	1.801	1.773	1.556	1.552	1.488	1.383	1.398	1.123	1.422	1.480	1.613	1.755	2.450	3.160	3.941	4.587	4.296	3.911	3.633	3.971	3.452	3.321	3.336	3.535	4.025	4.591	4.712	4.932	5.568	5.926	6.622	7.449	8.061	8.242	8.986	9.550	9.954	10.36	10.37	10.55	10.47	8.733	6.919	5.969	5.364
325.0	1419	2273	2331	1736	1132	933.3	1008	1166	1368	1669	1987	2244	2234	2112	1861	1203	860.5	599.2	621.1	2563	9052	3884	59.60	12.67	7.345	5.568	4.428	3.733	3.364	3.008	2.708	2.508	1.830	1.834	1.690	1.727	1.619	1.496	1.426	1.405	1.525	1.674	2.029	2.376	3.180	4.608	5.550	6.768	7.024	6.065	5.626	6.003	4.835	3.971	4.002	4.060	4.406	5.202	5.242	5.754	6.253	6.755	7.385	8.142	9.114	10.02	10.31	10.74	10.95	11.56	11.32	10.96	11.53	11.42	9.787	7.839	6.501
330.0	2080	3460	4052	3230	1947	1327	1249	1385	1609	1957	2324	2597	2626	2419	2123	1718	1191	752.0	545.3	859.8	2869	6232	6042	1249	24.73	8.773	5.916	4.517	4.002	3.439	2.958	2.416	2.386	1.927	1.761	1.830	1.649	1.568	1.633	1.537	1.746	1.861	2.484	3.172	4.456	6.304	8.223	11.06	11.87	11.08	10.28	10.29	8.064	6.612	5.603	5.332	5.304	5.854	6.266	6.444	7.253	7.862	8.733	9.243	10.52	11.49	11.81	12.24	12.91	12.89	13.08	13.12	12.49	12.44	11.53	11.04	9.616
335.0	2531	4323	5204	4519	2878	1819	1535	1599	1816	2181	2578	2865	2934	2738	2387	1974	1649	1089	745.8	693.0	1041	1785	5158	8885	424.6	28.35	9.446	6.317	4.965	3.637	3.443	3.101	2.598	2.042	2.094	1.814	1.683	1.655	1.728	1.960	1.884	2.217	2.743	3.923	5.550	7.950	10.07	12.99	14.65	14.46	14.34	14.74	11.73	9.837	7.755	7.227	6.967	6.823	7.077	7.165	8.046	9.360	9.447	10.40	11.22	12.58	12.94	13.64	14.37	14.55	14.67	14.78	14.29	14.03	12.88	12.29	12.28
340.0	2771	4710	5895	5170	3380	2140	1682	1739	1955	2305	2687	2971	3080	2903	2555	2094	1783	1389	930.7	767.5	730.2	806.4	1702	7130	7612	362.8	18.49	8.045	5.729	4.407	3.776	3.199	2.703	2.377	2.183	1.842	1.793	1.859	1.750	1.964	1.990	2.586	3.100	4.063	6.163	8.700	11.05	15.13	16.85	16.34	15.90	17.20	13.74	11.36	9.538	7.831	7.652	7.584	7.721	8.479	8.679	9.737	10.08	11.25	12.09	13.02	13.66	14.34	14.90	15.03	15.30	15.72	15.31	14.55	13.91	12.90	12.69
345.0	2803	4850	6112	5494	3630	2297	1791	1828	2034	2360	2715	3021	3100	2963	2640	2181	1806	1536	1153	882.4	750.0	661.3	781.0	2344	8005	3388	54.91	12.59	7.239	5.098	4.276	3.479	2.826	2.468	2.090	1.928	1.834	1.853	1.791	1.946	2.092	2.535	3.100	4.159	6.081	8.850	11.32	15.65	17.86	16.88	16.79	18.45	14.63	12.06	9.786	8.487	8.442	8.184	8.010	8.455	8.713	9.862	10.50	11.63	12.01	13.14	13.64	14.23	15.10	15.86	15.81	15.93	15.88	15.66	14.11	13.53	12.73
350.0	2694	4626	5881	5456	3792	2487	1984	1958	2118	2372	2685	2941	3029	2916	2641	2256	1875	1585	1386	1147	914.3	783.9	695.5	896.9	2516	5178	5209	1241	22.72	7.483	5.216	4.041	3.186	2.661	2.498	2.052	1.880	1.935	1.878	1.940	2.039	2.405	3.048	3.944	5.708	8.161	10.66	14.58	16.59	16.47	16.46	18.32	15.54	13.03	10.59	9.222	9.262	8.757	8.846	8.929	9.608	10.25	10.70	11.44	12.20	12.95	13.68	14.11	14.59	15.35	15.54	15.55	15.67	15.13	14.65	14.21	13.38
355.0	2459	4283	5465	5143	3802	2645	2146	2081	2186	2370	2629	2818	2907	2836	2615	2300	1989	1697	1510	1424	1191	969.3	809.4	691.0	882.2	1391	3780	7666	1837	27.32	7.916	5.090	3.707	3.086	2.516	2.223	2.076	1.929	1.978	1.873	2.032	2.226	2.943	3.809	5.063	7.517	10.22	13.80	15.20	15.40	15.31	17.31	15.20	13.22	11.08	10.09	9.549	9.092	9.330	9.323	10.02	10.67	11.06	11.20	11.65	12.28	13.17	13.93	13.93	14.19	15.05	15.00	15.32	15.23	14.33	14.07	13.66
360.0	2310	3950	5022	4912	3689	2701	2224	2153	2244	2379	2591	2750	2822	2745	2579	2320	2054	1806	1612	1531	1421	1153	945.6	734.3	601.6	567.5	1092	5416	7418	369.1	18.82	7.228	4.493	3.675	2.679	2.488	2.146	1.978	1.945	1.895	2.199	2.292	2.946	3.740	4.613	7.022	9.488	12.28	14.52	14.13	14.87	16.60	14.73	13.25	11.41	9.705	9.903	9.594	9.910	9.989	10.14	10.44	10.78	11.45	11.76	12.23	12.72	13.03	13.91	14.06	14.95	14.85	14.83	14.75	14.41	14.29	14.00
365.0	2175	3638	4675	4631	3612	2734	2304	2205	2279	2397	2546	2672	2732	2671	2540	2320	2101	1901	1742	1627	1564	1379	1088	837.4	628.7	456.8	433.5	1603	6625	6222	296.8	12.01	5.788	4.432	3.317	2.511	2.328	2.014	2.144	1.977	2.084	2.169	2.707	3.703	4.830	6.525	8.557	11.69	13.27	13.25	13.76	15.56	14.40	12.61	11.13	10.25	9.940	10.03	10.30	10.08	10.54	10.59	10.87	11.71	11.60	12.18	12.38	13.12	13.70	13.24	13.98	14.14	14.67	14.51	15.20	14.67	13.92
370.0	1980	3218	4263	4258	3482	2752	2392	2301	2321	2423	2536	2608	2636	2590	2474	2307	2152	2005	1888	1786	1680	1576	1350	1028	770.7	542.8	382.0	545.2	1929	5126	4896	1221	21.92	6.808	4.351	3.100	2.699	2.517	2.136	1.997	2.081	2.466	2.648	3.359	4.406	6.023	7.766	10.27	11.79	11.88	12.51	14.96	13.56	12.56	11.38	10.37	10.60	10.47	10.51	10.36	10.96	11.11	11.22	11.62	11.80	12.02	12.33	12.70	12.89	13.05	13.51	13.65	13.97	14.45	14.38	14.50	14.26
375.0	1873	2960	3840	3914	3351	2756	2474	2369	2350	2416	2516	2550	2546	2507	2390	2274	2180	2080	2006	1928	1819	1690	1553	1280	950.1	696.3	478.4	409.3	621.3	1297	3207	6896	1798	26.25	7.173	5.066	3.373	2.544	2.260	2.088	2.033	2.360	2.578	3.186	4.322	5.602	6.758	8.964	10.41	10.61	11.35	13.33	12.68	12.18	11.17	10.45	10.86	10.51	10.68	10.31	10.90	10.90	11.39	12.01	11.78	11.81	11.89	12.24	12.78	12.99	13.28	13.46	13.45	14.02	13.64	13.99	14.18
380.0	1719	2703	3547	3664	3259	2758	2484	2413	2358	2423	2482	2521	2502	2451	2356	2249	2173	2123	2062	2008	1900	1774	1623	1440	1114	818.8	601.3	457.8	400.2	466.5	918.0	4574	6295	319.1	19.20	8.067	5.025	3.356	2.736	2.367	2.082	2.393	2.609	3.133	4.154	5.475	6.472	8.662	10.06	10.11	10.71	12.81	12.23	12.01	11.17	10.39	11.05	10.52	10.83	10.70	11.07	11.32	11.38	11.48	11.33	11.39	11.69	11.84	12.27	12.90	13.09	13.07	13.17	13.62	13.08	13.51	14.03
385.0	1647	2567	3260	3502	3192	2783	2521	2423	2385	2458	2482	2508	2489	2435	2321	2236	2167	2127	2099	2056	1963	1845	1682	1518	1283	969.2	729.8	561.1	430.9	352.9	378.5	1333	5153	4985	254.3	17.73	9.245	5.327	3.182	2.470	2.187	2.416	2.673	3.096	3.877	5.022	6.073	8.188	9.066	9.359	9.998	12.45	11.95	11.76	11.43	10.94	11.10	10.82	11.21	11.42	11.02	11.14	11.48	11.38	11.75	11.48	11.29	11.82	11.99	12.73	12.34	12.87	12.80	13.40	13.49	13.60	13.85
390.0	1592	2461	3128	3365	3182	2895	2688	2588	2548	2615	2671	2686	2655	2568	2417	2288	2197	2156	2134	2121	2067	1981	1840	1675	1498	1265	999.1	805.6	652.0	523.4	400.0	545.2	1535	3847	3675	988.5	29.12	15.54	6.757	3.535	2.670	2.579	2.886	3.050	3.843	4.922	5.974	7.749	8.639	8.801	9.648	11.82	11.93	11.58	11.23	11.24	11.37	11.42	11.79	11.46	11.28	11.54	11.56	11.68	11.84	11.85	11.86	11.82	12.25	12.60	12.86	12.94	12.76	13.70	13.54	13.72	13.73
395.0	1580	2411	3083	3410	3349	3203	3040	2964	2987	3132	3254	3282	3217	3043	2800	2539	2338	2259	2250	2267	2264	2230	2151	2027	1865	1713	1520	1291	1114	958.5	795.1	675.2	677.6	1181	2464	5045	1501	38.12	18.01	6.539	3.815	2.980	3.102	3.337	4.136	4.677	5.859	7.303	8.367	8.387	9.501	11.87	12.00	11.86	11.71	11.67	12.44	12.93	12.28	12.42	12.16	12.38	12.76	13.27	13.12	13.10	13.08	13.17	13.72	13.48	14.01	13.54	14.09	14.06	13.99	14.42	13.97
400.0	1684	2428	3202	3544	3623	3566	3499	3445	3558	3806	4079	4137	4021	3738	3339	2917	2574	2422	2405	2446	2491	2524	2520	2457	2342	2207	2087	1884	1671	1500	1300	1066	855.9	802.7	1023	3433	4718	283.2	34.81	11.86	5.577	3.610	3.273	3.441	4.259	4.865	5.714	7.758	7.868	8.706	9.618	11.99	12.39	12.63	12.59	12.94	13.23	13.58	13.61	13.11	13.55	13.85	14.51	14.59	14.65	15.12	15.22	15.53	15.74	15.64	16.17	15.22	15.87	16.14	15.24	15.47	14.79
405.0	1757	2523	3363	3788	4008	4006	4018	4009	4238	4634	5057	5164	4995	4563	3982	3377	2851	2625	2589	2649	2758	2853	2913	2925	2868	2769	2662	2544	2315	2111	1881	1574	1235	986.5	866.2	1378	3928	3673	235.5	20.82	7.685	4.559	3.678	3.812	4.132	5.178	5.854	7.765	8.297	8.804	9.430	12.35	12.55	13.26	13.60	13.24	14.78	14.47	14.78	14.65	15.11	15.41	16.18	16.57	16.69	17.15	16.79	17.57	17.17	17.72	17.93	17.22	17.55	17.53	16.83	16.46	15.70
410.0	1781	2646	3437	4002	4276	4439	4519	4563	4854	5399	5933	6072	5845	5318	4570	3777	3105	2770	2722	2817	2955	3122	3253	3341	3343	3280	3201	3107	2936	2703	2434	2064	1628	1272	1031	945.9	1436	2873	2818	844.8	19.62	6.364	4.845	4.378	4.527	5.599	5.848	7.816	8.356	8.931	9.725	12.43	13.00	14.15	14.26	14.33	15.74	15.87	16.03	16.44	16.39	16.96	17.91	18.14	18.91	19.34	18.83	19.16	19.22	19.54	19.27	19.12	19.06	18.93	18.02	17.40	16.81
415.0	1758	2574	3425	3965	4345	4528	4667	4728	4988	5552	6080	6214	5953	5448	4653	3806	3095	2736	2681	2777	2926	3117	3283	3400	3428	3374	3300	3196	3062	2881	2584	2195	1729	1353	1075	856.1	738.5	866.0	1703	3506	1132	20.10	6.152	5.167	4.820	5.452	5.737	7.635	8.246	8.589	9.243	12.27	13.07	13.39	14.50	15.01	15.78	16.62	16.42	16.77	16.57	17.17	17.94	17.97	19.17	19.41	19.66	19.62	19.27	19.44	19.20	19.67	19.00	18.15	17.52	17.14	15.86
420.0	1733	2531	3307	3896	4257	4494	4646	4709	4925	5410	5931	6029	5778	5277	4524	3682	2986	2633	2589	2675	2822	3002	3175	3295	3327	3302	3226	3129	2989	2838	2565	2151	1701	1341	1056	806.2	567.8	401.0	507.0	2246	3275	244.5	12.20	5.641	5.426	5.204	5.876	7.575	7.787	8.228	9.039	12.07	12.66	13.03	13.76	14.58	15.90	16.29	16.86	17.25	16.98	17.02	17.68	17.65	18.17	18.40	18.42	18.58	18.87	18.29	18.84	18.23	18.08	17.79	16.64	16.98	15.98
425.0	1635	2458	3190	3795	4243	4501	4717	4738	4917	5351	5815	5924	5668	5152	4415	3604	2915	2564	2528	2609	2740	2914	3100	3220	3279	3248	3195	3104	2963	2807	2586	2164	1709	1344	1062	805.5	536.3	302.2	206.2	640.0	2595	2094	190.1	7.687	5.802	5.584	5.737	6.958	7.665	7.873	8.765	12.21	12.34	13.80	14.02	14.96	15.77	16.16	17.02	16.71	16.87	16.76	17.53	17.52	17.97	18.47	18.21	18.21	18.45	18.66	18.26	18.16	17.99	17.10	16.62	16.08	15.35
