Sample:	'1
File name:	Default_20230428_133030.FD3
Run date:	'13:24:09, 04/28/2023
Operator:	user
Comment:	'

Instrument
Model:	F-2700 FL Spectrophotometer
Serial number:	2190-003
ROM Version:	4J14000 07

Instrument parameters
Measurement type:	3-D scan
Data mode:	Fluorescence
EX  Start WL:	220.0 nm
EX  End WL:	600.0 nm
EX Sampling interval:	5.0 nm
EM  Start WL:	230.0 nm
EM  End WL:	650.0 nm
EM Sampling interval:	5.0 nm
Scan speed:	12000 nm/min
EX Slit:	5.0 nm
EM Slit:	5.0 nm
PMT Voltage:	700 V
Response:	Auto 
Corrected spectra:	Off
Contour interval:	50.000

Peak integration
Integration method:	Rectangular
Sensitivity:	1
Threshold:	1.000

Peaks
No.	ApexEX/EM(nm)	Height(Data)
1	225.0/260.0	54.22
2	225.0/280.0	57.74
3	225.0/295.0	69.49
4	225.0/555.0	49.44
5	225.0/610.0	43.52
6	225.0/630.0	46.26
7	230.0/325.0	121.8
8	230.0/540.0	57.95
9	230.0/550.0	58.97
10	230.0/565.0	49.81
11	230.0/605.0	38.48
12	235.0/340.0	144.7
13	235.0/585.0	38.21
14	235.0/625.0	35.75
15	240.0/520.0	113.4
16	240.0/570.0	38.89
17	240.0/580.0	37.59
18	240.0/620.0	35.88
19	245.0/265.0	206.1
20	245.0/530.0	124.5
21	245.0/605.0	35.15
22	250.0/405.0	319.1
23	250.0/545.0	122.8
24	250.0/585.0	34.09
25	255.0/280.0	342.1
26	255.0/555.0	108.5
27	260.0/285.0	432.6
28	260.0/565.0	93.08
29	260.0/625.0	23.57
30	265.0/290.0	457.4
31	265.0/430.0	348.4
32	265.0/575.0	92.92
33	270.0/295.0	638.8
34	270.0/590.0	87.26
35	275.0/305.0	748.1
36	275.0/420.0	361.6
37	275.0/440.0	371.8
38	275.0/600.0	82.47
39	280.0/250.0	11.14
40	280.0/310.0	750.2
41	280.0/340.0	429.8
42	280.0/395.0	375.6
43	280.0/610.0	62.68
44	285.0/315.0	731.5
45	285.0/355.0	406.5
46	285.0/375.0	384.2
47	285.0/390.0	370.9
48	285.0/625.0	57.54
49	290.0/320.0	726.6
50	290.0/635.0	45.38
51	300.0/335.0	417.4
52	305.0/340.0	436.0
53	305.0/395.0	322.9
54	310.0/345.0	407.8
55	315.0/350.0	327.6
56	315.0/405.0	317.1
57	320.0/360.0	354.5
58	325.0/365.0	361.8
59	330.0/370.0	331.9
60	335.0/375.0	333.2
61	340.0/385.0	333.5
62	345.0/390.0	301.5
63	350.0/395.0	292.3
64	355.0/405.0	291.2
65	360.0/410.0	262.9
66	365.0/415.0	250.9
67	370.0/425.0	232.8
68	385.0/445.0	170.9
69	400.0/465.0	106.2
70	415.0/485.0	63.95
71	430.0/505.0	40.30
72	435.0/510.0	34.24
73	445.0/525.0	25.65
74	450.0/530.0	21.47
75	455.0/535.0	17.98
76	460.0/545.0	14.93
77	505.0/275.0	2.923
78	515.0/285.0	3.148
79	530.0/290.0	2.835
80	540.0/295.0	3.361
81	545.0/300.0	3.662
82	550.0/305.0	4.217
83	560.0/310.0	3.574
84	570.0/315.0	3.712
85	575.0/320.0	3.640
86	580.0/325.0	3.330

Data points
	220.0	225.0	230.0	235.0	240.0	245.0	250.0	255.0	260.0	265.0	270.0	275.0	280.0	285.0	290.0	295.0	300.0	305.0	310.0	315.0	320.0	325.0	330.0	335.0	340.0	345.0	350.0	355.0	360.0	365.0	370.0	375.0	380.0	385.0	390.0	395.0	400.0	405.0	410.0	415.0	420.0	425.0	430.0	435.0	440.0	445.0	450.0	455.0	460.0	465.0	470.0	475.0	480.0	485.0	490.0	495.0	500.0	505.0	510.0	515.0	520.0	525.0	530.0	535.0	540.0	545.0	550.0	555.0	560.0	565.0	570.0	575.0	580.0	585.0	590.0	595.0	600.0
230.0	38.03	66.17	619.8	580.8	69.34	19.47	16.97	12.54	13.75	10.87	10.58	10.53	8.539	7.333	6.863	5.850	5.254	4.728	4.434	3.644	3.186	3.223	3.170	2.848	2.540	2.695	2.252	2.241	2.146	2.073	2.279	2.074	1.796	1.820	2.031	1.941	1.831	1.886	1.461	1.752	1.675	1.455	1.337	1.456	1.351	1.552	1.218	1.566	2.518	3.107	1.941	1.332	1.069	1.058	1.035	1.021	1.009	1.033	0.973	1.059	1.050	0.929	1.097	1.077	0.960	0.935	0.936	0.867	0.858	0.969	1.030	0.931	0.750	0.943	0.847	0.928	0.925
235.0	46.58	48.41	272.2	 1135	 1082	100.9	18.25	13.48	14.72	9.712	10.01	9.535	8.302	8.378	6.825	6.203	5.535	4.465	4.688	3.654	4.226	3.861	3.048	2.876	2.682	3.336	2.675	2.304	2.010	2.185	2.401	2.151	1.482	2.082	1.622	1.483	1.842	1.528	1.598	1.626	1.685	1.442	1.646	1.418	1.390	1.863	1.179	0.837	1.610	3.101	4.085	5.831	3.440	1.422	0.999	0.967	0.933	1.498	0.957	0.973	0.888	0.923	1.037	0.986	0.942	1.273	1.156	1.089	0.951	1.027	0.833	1.086	0.846	0.811	0.986	0.622	0.867
240.0	36.77	45.76	92.21	612.4	 2073	 1173	74.19	16.77	13.08	12.27	12.80	8.983	9.861	9.976	7.318	6.357	5.369	5.218	4.780	3.179	3.647	3.068	3.035	2.538	2.833	3.468	2.469	2.294	1.955	1.981	2.438	1.849	1.923	2.063	1.652	1.575	2.126	1.910	1.982	1.480	1.408	1.376	1.592	1.525	1.586	1.753	1.441	0.757	1.374	1.738	2.524	7.081	8.671	7.543	3.101	1.218	1.017	1.148	1.141	0.965	0.909	0.855	1.042	0.908	0.846	1.285	0.998	0.790	1.205	0.966	0.778	1.375	0.754	0.664	0.916	0.806	1.008
245.0	40.15	43.93	61.49	173.4	 1262	 2819	 1065	43.77	12.85	16.52	13.07	10.90	10.32	8.570	6.357	6.813	5.060	4.775	4.673	4.112	3.406	3.016	3.350	2.084	2.983	3.237	2.855	2.460	2.868	2.092	2.532	2.438	1.883	1.656	1.570	1.757	1.426	1.784	1.889	1.824	1.662	1.632	1.481	1.758	1.312	1.449	1.442	1.136	1.255	1.152	1.367	2.819	5.897	10.83	11.26	6.423	2.148	0.906	0.988	1.056	1.061	0.932	0.954	0.866	0.893	1.092	1.053	0.799	1.347	0.880	0.878	0.969	0.875	1.011	0.888	1.002	0.782
250.0	40.26	43.81	73.48	101.3	339.3	 1519	 3357	 2654	348.3	17.38	13.50	9.347	11.14	8.733	7.752	6.302	6.238	5.141	4.235	4.727	3.919	3.303	3.466	2.632	2.964	3.214	2.722	2.183	2.151	2.421	2.431	2.074	2.053	1.462	1.577	1.702	1.554	1.677	1.537	1.627	1.660	1.300	1.736	1.552	1.465	1.455	1.143	1.307	1.327	1.372	1.088	1.652	2.304	4.097	7.018	11.40	14.01	12.42	6.554	2.356	0.983	0.970	0.987	1.124	0.882	1.028	1.167	0.985	1.110	1.011	0.931	1.006	0.877	1.003	1.050	0.965	0.981
255.0	37.81	44.46	56.48	129.5	152.2	368.1	 1251	 5340	 4242	419.0	16.59	11.91	9.921	9.536	9.732	9.204	5.925	4.880	4.578	4.543	3.650	3.532	4.318	2.798	2.978	2.610	2.337	2.060	2.235	1.967	2.805	1.890	2.200	1.770	1.525	1.993	1.843	1.605	1.428	1.710	1.605	1.653	1.611	1.682	1.613	1.415	1.082	1.272	1.329	1.304	1.331	1.772	1.542	1.859	2.599	3.479	6.748	13.53	24.13	21.16	8.768	1.990	1.044	1.280	0.901	1.297	0.967	0.848	0.843	1.118	0.819	0.894	0.961	0.974	0.856	0.818	0.996
260.0	51.18	54.22	36.83	83.12	181.2	149.7	319.4	 2446	 6662	 3881	263.9	14.60	13.76	12.75	9.403	8.183	5.572	5.335	5.852	4.461	4.420	3.160	2.829	3.132	2.654	3.056	3.060	3.073	2.518	2.397	2.038	2.408	1.817	1.963	2.020	1.689	1.707	1.974	1.598	1.660	1.810	1.820	1.689	1.622	1.358	1.470	1.157	1.195	1.216	1.106	0.903	1.692	1.767	1.650	1.645	1.669	2.457	4.790	11.96	23.12	29.31	18.98	5.813	1.017	0.852	1.266	0.986	1.144	0.749	0.828	0.992	0.973	0.973	0.729	1.075	0.828	1.369
265.0	41.83	43.14	39.48	45.00	140.2	206.1	121.4	629.6	 3404	 7935	 1106	113.7	19.23	11.80	11.34	9.231	6.465	5.874	5.504	4.565	4.374	2.893	3.169	3.110	2.844	3.417	2.193	2.754	2.538	2.504	2.324	1.990	1.648	1.756	2.024	1.769	1.537	1.441	1.394	1.436	1.522	1.606	1.529	1.778	1.139	1.406	1.369	1.487	1.151	0.945	1.117	1.341	1.867	1.960	1.789	1.071	1.566	2.074	3.981	7.672	17.89	32.89	30.02	13.94	2.313	1.115	0.857	1.106	0.854	1.017	0.988	0.813	0.647	0.980	0.890	0.960	0.840
270.0	47.38	46.05	37.05	31.25	62.11	161.4	238.2	217.3	842.8	 3576	 7368	 4162	368.6	16.99	14.14	9.171	6.655	6.773	4.779	4.965	5.758	3.187	3.001	3.443	2.954	3.126	3.019	2.799	2.435	2.638	2.096	2.261	2.173	1.801	1.672	1.635	1.806	1.708	1.488	1.534	1.627	1.483	1.662	1.538	1.649	1.380	1.468	1.534	1.367	0.930	1.035	1.359	1.404	1.496	1.947	1.990	1.921	1.665	1.938	2.644	5.136	10.59	17.79	26.75	30.05	23.32	10.17	2.195	0.920	0.971	0.977	0.899	1.101	1.052	0.827	0.865	0.940
275.0	56.30	49.20	38.21	30.05	35.00	63.62	191.8	333.6	261.2	832.1	 2410	9999.9	 6302	431.8	17.81	11.93	8.707	7.432	4.966	5.282	4.960	3.560	3.987	3.985	3.584	3.323	2.832	2.568	2.448	2.598	2.590	2.448	1.826	2.151	2.123	1.541	1.731	1.805	1.360	1.676	1.511	1.304	1.351	1.632	1.396	1.424	1.381	1.223	1.320	1.173	1.268	1.037	1.029	1.302	1.161	1.541	2.636	2.923	2.045	1.458	2.292	3.192	4.866	7.224	11.89	27.63	44.21	33.76	10.48	1.211	1.119	0.861	0.941	1.055	1.022	0.616	1.096
280.0	43.06	57.74	38.84	42.83	37.49	35.28	84.63	342.1	322.8	231.6	597.9	 3879	9999.9	 5133	252.6	14.90	10.44	8.315	4.772	6.181	4.946	3.868	4.446	3.516	3.910	2.996	2.667	2.157	2.863	2.376	2.562	2.181	1.949	1.854	1.955	2.253	1.528	1.563	1.123	1.584	1.217	1.255	1.421	1.529	1.514	1.913	1.250	1.087	1.393	1.171	1.155	1.280	1.129	1.033	1.193	1.203	1.678	2.156	2.696	2.705	1.700	1.864	1.933	2.566	3.823	8.187	21.37	40.78	45.13	23.13	4.720	1.192	0.703	1.300	0.813	0.550	0.897
285.0	50.50	46.35	45.42	50.55	44.38	35.30	46.11	169.1	432.6	227.9	186.7	975.1	 4724	9999.9	 3593	102.5	13.23	7.714	6.537	6.609	4.805	4.436	3.423	3.868	2.818	2.532	3.081	2.852	2.670	2.576	2.680	2.493	1.891	2.197	1.975	2.095	1.444	1.307	1.288	1.858	1.410	1.315	1.615	1.440	1.509	1.513	1.370	1.159	1.339	1.303	1.174	1.398	0.984	1.279	1.219	1.313	1.542	1.402	2.083	3.148	2.648	1.786	1.392	1.299	2.221	3.001	5.968	13.55	31.14	47.97	38.70	12.61	2.038	1.125	1.186	0.690	1.148
290.0	48.14	53.93	61.57	53.93	41.79	36.97	45.42	75.74	226.4	457.4	314.6	329.7	 1208	 4728	 9299	 5333	229.3	13.65	9.061	7.030	5.711	5.339	4.326	3.892	3.593	3.121	3.189	2.702	2.576	2.888	2.409	2.769	2.071	2.161	1.921	1.737	1.442	1.711	1.464	1.452	1.378	1.517	1.464	1.380	1.335	1.426	1.177	1.296	1.340	1.277	1.153	1.185	1.144	1.084	1.208	1.100	1.445	1.389	1.548	1.678	2.129	2.633	2.835	2.457	1.876	1.599	2.430	4.186	8.133	16.03	26.60	33.31	35.73	24.58	9.362	2.120	1.294
295.0	54.20	69.49	64.67	64.55	49.18	46.56	57.97	66.91	118.9	274.2	638.8	395.5	421.2	 1189	 2728	 9409	 8091	284.8	11.93	9.572	6.819	4.937	4.247	3.560	3.712	3.263	3.620	3.066	2.323	2.882	2.546	2.549	2.438	2.017	1.861	1.364	1.690	2.152	1.851	1.576	1.418	1.534	1.356	1.324	1.377	1.251	1.361	1.360	1.483	1.177	1.162	1.527	1.336	1.396	1.084	1.173	1.267	1.431	1.448	1.223	1.461	1.589	2.547	3.240	3.361	2.226	1.748	2.063	3.156	4.606	6.973	8.712	15.61	32.97	48.66	35.12	10.33
300.0	69.66	61.72	74.57	79.99	55.11	46.59	56.46	66.10	104.9	176.5	500.6	738.9	357.8	418.1	724.6	 3446	9999.9	 3181	182.4	10.72	7.649	7.111	4.527	4.701	4.108	3.913	2.888	3.054	2.601	2.687	3.511	3.023	2.481	1.879	1.554	1.975	2.014	1.622	1.685	1.455	1.505	1.245	1.391	1.386	1.147	1.669	1.012	1.714	1.612	1.661	1.188	1.545	1.005	1.554	1.139	1.378	1.137	1.511	1.164	1.523	1.166	1.850	1.769	2.668	3.357	3.662	2.428	1.841	1.953	2.359	2.536	2.925	4.875	10.07	24.98	50.53	49.85
305.0	57.25	51.62	83.26	104.1	61.63	56.52	65.99	82.75	111.9	156.7	311.1	748.1	624.9	299.7	290.5	870.2	 4672	9999.9	 2509	91.70	10.71	7.748	5.714	4.943	4.617	3.980	3.431	3.355	2.983	3.055	3.071	3.233	2.535	2.006	1.481	1.877	1.868	1.544	1.934	1.733	1.442	1.393	1.268	1.401	1.440	1.543	1.243	1.353	1.290	1.474	1.361	1.170	1.353	1.295	1.265	1.250	1.504	1.560	1.638	1.366	1.554	1.762	1.863	2.074	2.278	3.249	4.217	2.934	2.157	1.747	1.603	1.617	2.279	3.360	6.638	17.74	36.99
310.0	54.16	62.01	91.15	106.6	78.18	71.21	78.24	99.50	125.1	174.1	261.7	463.9	750.2	592.7	253.2	289.6	 1145	 4471	 8771	 5403	165.1	12.14	7.476	5.758	4.942	3.600	3.952	3.458	2.915	3.323	2.829	3.002	2.669	2.409	1.802	1.694	1.893	1.711	1.854	1.577	1.567	1.383	1.431	1.580	1.388	1.590	1.355	1.262	1.213	1.358	1.364	1.485	1.515	1.464	1.563	1.194	1.412	1.373	1.527	1.543	1.990	1.636	2.000	1.987	1.901	2.323	2.854	3.295	3.574	2.943	2.213	1.617	1.745	1.526	2.545	4.827	9.854
315.0	66.81	70.90	109.6	109.8	71.71	78.18	83.59	115.8	139.7	193.9	265.9	373.2	465.3	731.5	523.6	205.2	323.2	 1040	 2607	 9023	 7455	222.5	10.66	7.516	5.792	4.232	4.320	3.546	3.009	2.945	2.943	3.253	2.493	2.601	2.412	2.030	1.676	1.977	2.227	1.406	1.559	1.685	1.266	1.317	1.274	1.230	1.409	1.335	1.315	1.253	1.080	1.577	1.313	1.731	1.412	1.408	1.711	1.342	1.393	1.549	1.922	1.647	1.839	1.926	1.839	2.009	2.348	2.171	2.541	3.409	3.712	2.938	1.962	1.297	1.859	2.258	3.225
320.0	53.98	65.10	110.5	118.3	78.36	89.63	90.40	121.6	169.7	209.0	284.8	349.2	395.2	543.7	726.6	306.1	148.5	284.1	624.4	 3403	9999.9	 2293	148.1	8.918	7.706	5.289	4.640	4.338	3.909	3.902	3.449	3.416	2.842	2.435	2.362	1.845	1.877	2.010	1.864	1.573	1.896	1.568	1.390	1.650	1.275	1.216	1.863	1.482	1.319	1.150	1.292	1.238	1.152	1.390	1.421	1.416	1.695	1.290	1.262	1.563	2.095	1.432	1.797	1.971	1.839	2.087	2.322	2.195	2.278	2.241	3.206	3.640	2.602	1.824	1.683	1.706	1.678
325.0	55.87	79.43	121.8	121.5	75.27	80.98	102.4	127.3	167.1	220.0	285.8	346.4	406.5	422.5	612.7	541.5	167.5	123.5	178.8	822.3	 4757	9999.9	 1963	78.58	8.192	6.464	4.146	4.373	4.446	3.807	3.285	3.089	2.790	2.063	2.176	1.684	2.012	1.642	1.463	1.506	1.529	1.524	1.730	1.347	1.464	1.548	1.498	1.423	1.645	1.275	1.115	1.058	1.194	1.340	1.288	1.434	1.423	1.839	1.440	1.597	1.698	1.953	1.918	2.036	1.968	2.039	2.326	2.202	2.189	2.060	2.330	3.123	3.330	3.057	2.141	1.528	1.282
330.0	55.52	75.84	117.1	129.8	105.7	96.90	113.6	139.0	179.5	233.1	315.9	369.4	408.8	403.1	409.1	502.5	407.5	156.4	96.05	224.1	 1139	 4366	 8119	 4954	131.7	10.67	6.542	5.654	4.521	4.072	2.934	3.157	2.755	2.449	2.604	2.013	1.893	1.782	1.708	1.837	1.635	1.623	1.551	1.374	1.454	1.563	1.424	1.314	1.447	1.359	1.346	1.325	1.341	1.623	1.503	1.817	1.396	1.704	1.648	1.608	1.847	1.989	1.803	1.823	1.912	2.251	2.199	2.087	2.138	2.225	2.203	2.314	2.582	2.497	2.966	2.419	2.125
335.0	66.78	78.11	121.2	136.5	116.5	111.2	127.5	140.0	189.2	239.7	327.2	381.6	402.0	414.9	367.8	330.1	417.4	379.1	123.2	101.8	295.6	 1008	 2530	 8893	 7138	179.9	9.252	6.808	5.879	4.211	4.728	3.598	3.263	2.542	2.507	2.158	2.065	1.995	1.513	2.180	1.696	1.742	1.190	1.782	1.516	1.478	1.311	1.330	1.508	1.205	1.422	1.488	1.411	1.206	1.756	1.694	1.532	1.544	2.204	1.779	1.858	2.307	1.946	2.309	1.970	2.010	2.260	1.984	2.164	2.596	2.427	2.237	2.155	1.759	2.037	2.636	3.401
340.0	61.73	76.23	123.2	144.7	130.4	134.5	139.3	169.5	207.5	247.7	341.5	376.0	429.8	417.0	355.0	290.5	287.9	436.0	262.7	97.69	119.7	268.1	604.0	 3502	9999.9	 5049	128.2	8.434	6.896	4.939	4.261	3.889	3.769	3.147	2.755	2.040	2.269	2.212	1.587	1.955	1.547	1.765	1.540	1.631	1.611	1.555	1.460	1.490	1.404	1.182	1.437	1.318	1.547	1.499	1.593	1.613	1.946	1.956	2.289	1.925	1.943	2.330	2.337	2.162	2.372	2.068	2.511	2.112	2.246	2.616	2.293	2.526	2.107	1.619	2.077	1.963	2.354
345.0	63.53	76.83	125.9	138.0	140.2	135.1	150.9	180.3	210.7	256.2	340.6	386.1	426.1	409.7	363.7	281.0	227.7	319.0	407.8	162.3	93.99	108.6	177.3	842.9	 5085	9999.9	 1626	65.22	8.292	6.683	5.054	3.857	3.831	3.100	2.569	2.513	2.161	1.926	2.136	1.658	1.932	1.821	1.554	1.556	1.949	1.513	1.394	1.707	1.351	1.273	1.575	1.586	1.446	1.618	1.608	1.464	1.838	1.747	1.901	2.066	1.810	2.372	1.984	2.234	2.261	2.155	2.215	2.436	2.058	2.780	1.951	2.032	1.860	1.985	2.068	1.942	2.009
350.0	60.21	76.57	123.4	133.5	159.9	155.1	157.2	188.4	217.7	258.8	308.3	375.6	403.1	393.0	363.3	287.1	229.0	218.6	322.3	327.6	163.2	97.33	96.29	232.5	 1242	 4630	 7814	 4429	110.9	9.730	6.656	4.422	4.111	3.190	2.746	3.031	2.455	2.180	1.969	1.787	1.932	1.769	1.473	1.532	1.524	1.577	1.428	1.855	1.678	1.586	1.360	1.653	1.580	1.833	1.550	1.495	1.463	1.756	2.010	2.008	1.941	2.105	2.352	2.361	2.319	2.125	2.321	2.369	2.303	2.431	2.195	2.231	1.657	1.968	1.749	2.015	1.836
355.0	58.38	77.87	122.0	141.8	170.5	174.6	167.6	201.8	224.7	259.3	306.6	360.3	400.5	406.5	368.3	304.2	249.9	210.7	226.0	299.0	334.3	155.8	100.5	111.6	325.5	 1068	 2606	 8464	 6076	152.5	8.345	5.988	5.005	3.528	2.572	2.982	2.778	2.522	2.366	1.901	2.234	1.923	1.759	1.535	1.738	1.801	1.672	1.742	1.630	1.446	1.573	1.764	1.559	1.763	1.621	1.698	1.669	1.524	1.946	2.272	2.269	1.997	2.324	2.469	2.121	2.433	2.601	2.154	2.272	1.977	2.115	2.526	1.805	2.161	1.803	1.990	2.134
360.0	63.98	73.11	122.3	157.9	165.3	182.7	189.3	197.4	234.7	267.5	313.9	346.3	381.0	385.7	357.5	308.9	255.4	228.5	209.6	228.5	354.5	272.8	128.1	96.72	133.6	284.1	625.1	 3570	 9935	 4366	102.0	8.037	5.351	3.893	2.924	3.270	2.775	2.945	2.336	1.957	2.421	2.012	1.422	1.674	1.865	1.589	1.888	1.810	1.298	1.327	1.868	1.587	1.829	1.771	1.785	1.823	1.914	1.807	1.666	1.921	1.886	2.321	2.361	2.120	2.262	2.248	2.602	2.207	1.940	1.813	2.373	2.708	2.085	2.271	1.648	1.918	2.030
365.0	52.03	67.19	126.6	155.2	178.1	201.7	188.2	212.1	239.6	266.9	306.7	343.6	382.5	386.7	354.4	317.3	265.3	241.7	221.7	211.5	273.4	361.8	211.5	114.0	106.2	121.3	181.7	871.9	 5080	9999.9	 1415	50.89	6.321	5.746	4.145	3.697	2.695	3.219	2.201	2.201	2.084	2.176	1.446	1.950	1.515	1.429	1.720	1.836	1.414	1.369	1.751	1.761	1.877	1.807	1.607	2.064	2.481	2.025	1.881	1.884	1.948	2.292	2.264	2.029	2.205	2.269	2.068	2.338	2.181	2.211	2.313	2.361	2.302	2.242	1.729	2.018	1.785
370.0	47.48	62.08	103.4	155.6	198.5	224.0	222.5	240.1	256.7	283.2	311.5	355.7	380.0	376.3	353.9	325.7	283.2	263.7	253.4	233.6	237.9	296.6	331.9	202.4	127.4	103.1	100.2	239.3	 1240	 4822	 7823	 4142	89.06	7.615	4.871	4.140	3.085	2.791	2.351	2.358	1.920	2.288	1.526	1.772	1.545	1.666	1.657	1.444	1.447	1.389	1.436	2.014	1.764	1.986	1.544	2.122	2.089	1.882	1.797	2.172	2.102	2.346	2.174	2.154	2.191	2.097	2.270	2.249	2.386	2.334	2.288	1.838	2.420	2.324	1.817	2.291	1.941
375.0	42.70	82.66	105.0	161.2	211.3	217.0	238.6	247.8	268.2	291.4	320.8	352.1	369.7	384.2	360.4	336.5	302.9	290.0	271.9	253.5	255.2	256.3	296.0	333.2	197.2	119.9	101.5	113.6	321.2	 1107	 2822	 8950	 5392	116.6	7.009	5.102	4.497	3.106	2.904	2.229	2.029	1.987	1.941	1.808	1.581	1.599	1.623	2.028	1.563	1.549	1.666	2.054	1.984	1.983	1.869	1.981	2.255	2.172	2.210	2.271	1.566	2.097	2.173	2.138	2.189	1.639	2.262	2.571	2.270	2.058	1.994	2.161	2.510	2.003	2.047	2.405	2.007
380.0	63.00	74.22	118.8	179.4	227.6	234.4	252.5	257.1	281.8	284.2	322.7	338.8	374.1	372.5	362.6	332.9	315.1	296.2	288.0	281.4	260.7	250.7	256.1	331.9	275.6	152.6	114.1	95.44	124.7	285.6	675.0	 4118	 9813	 1300	68.66	6.287	5.215	4.053	3.031	2.417	2.341	2.531	2.136	1.761	1.575	1.806	1.573	1.865	1.606	1.695	1.643	2.162	1.902	2.227	1.879	2.045	1.743	2.267	2.027	2.649	1.743	2.012	1.908	2.304	1.997	2.436	2.629	2.502	2.466	2.247	2.402	2.014	2.456	2.204	2.258	2.264	2.140
385.0	51.21	76.83	136.4	182.2	226.8	231.2	274.8	287.4	295.8	300.4	321.4	337.0	359.9	367.2	360.7	327.3	327.4	304.2	298.3	288.9	281.3	263.4	253.1	276.9	333.5	227.8	131.0	103.4	94.54	110.7	187.7	 1014	 5627	 8611	 1071	22.65	5.368	4.163	3.400	3.149	2.901	2.628	2.324	2.574	1.858	1.747	1.578	1.977	1.514	1.875	1.518	2.059	1.972	2.034	2.318	2.121	1.674	1.919	1.939	2.201	1.926	2.313	2.134	2.494	1.983	2.190	2.297	2.430	2.465	2.378	2.197	2.080	2.436	1.998	1.924	1.988	2.183
390.0	50.44	79.16	129.4	185.9	221.3	256.1	283.2	292.5	297.3	304.9	325.0	338.2	358.9	370.9	362.1	331.1	324.7	317.9	314.8	303.6	295.3	280.6	265.7	256.7	282.9	301.5	205.3	128.5	105.1	88.27	89.65	259.9	 1398	 4669	 7107	 2738	63.97	5.323	4.363	3.484	2.799	2.854	2.198	2.168	1.800	1.576	1.384	1.912	1.524	1.641	1.601	2.006	1.934	1.876	2.165	2.320	1.935	2.267	1.801	2.085	2.082	2.155	2.264	2.201	2.335	1.853	2.182	2.398	2.458	2.299	2.359	2.056	2.116	2.183	2.121	2.081	2.262
395.0	52.98	76.30	145.7	201.5	239.7	290.1	281.2	303.5	306.6	320.6	322.0	357.5	375.6	356.5	353.8	324.4	315.8	322.9	314.6	312.6	304.2	296.7	280.3	261.3	251.4	272.7	292.3	189.9	124.8	102.5	80.93	100.7	345.6	 1068	 2967	 7687	 3800	79.25	5.620	4.099	3.176	2.705	2.593	2.385	1.649	1.931	1.981	1.673	1.686	1.960	1.390	1.996	1.885	2.042	2.230	2.072	2.000	2.651	2.005	2.353	2.171	2.027	2.202	1.832	2.038	1.927	2.204	2.197	2.380	2.301	2.280	2.118	2.229	2.422	1.928	2.579	2.354
400.0	67.11	78.60	120.6	186.1	241.4	272.0	293.5	304.5	313.4	324.2	327.3	349.0	367.1	362.3	354.7	341.0	322.9	310.4	312.8	313.0	307.9	300.1	288.0	263.9	249.4	243.2	286.9	248.0	157.1	113.1	89.62	75.81	114.8	267.0	712.6	 4026	 7933	 1046	45.43	5.244	3.395	3.042	2.878	2.683	2.273	2.039	1.822	1.682	1.690	2.018	1.474	2.185	2.116	2.192	1.978	2.142	2.173	2.394	1.902	2.228	2.189	2.278	1.951	1.917	2.169	2.019	2.142	2.441	2.690	2.251	1.976	2.229	2.251	1.608	1.961	2.565	2.031
405.0	62.12	77.42	133.0	178.1	252.9	283.7	319.1	296.2	325.3	326.3	347.2	353.2	347.8	355.5	354.0	330.2	326.0	310.3	311.9	317.1	312.7	302.0	289.1	275.3	257.5	241.1	251.4	291.2	215.3	133.1	102.8	80.49	74.04	92.19	183.4	 1027	 5017	 6726	844.5	15.48	4.665	3.434	2.598	2.621	1.987	1.990	1.969	1.722	1.763	1.749	1.439	2.020	1.980	2.637	1.866	2.186	2.475	1.894	1.612	2.205	2.208	2.206	2.207	2.270	2.104	2.210	1.878	2.417	1.996	1.879	2.034	2.258	2.007	1.824	2.188	2.264	2.406
