Sample:	'1
File name:	Default_20230428_131427.FD3
Run date:	'13:08:06, 04/28/2023
Operator:	user
Comment:	'

Instrument
Model:	F-2700 FL Spectrophotometer
Serial number:	2190-003
ROM Version:	4J14000 07

Instrument parameters
Measurement type:	3-D scan
Data mode:	Fluorescence
EX  Start WL:	220.0 nm
EX  End WL:	600.0 nm
EX Sampling interval:	5.0 nm
EM  Start WL:	230.0 nm
EM  End WL:	650.0 nm
EM Sampling interval:	5.0 nm
Scan speed:	12000 nm/min
EX Slit:	5.0 nm
EM Slit:	5.0 nm
PMT Voltage:	700 V
Response:	Auto 
Corrected spectra:	Off
Contour interval:	50.000

Peak integration
Integration method:	Rectangular
Sensitivity:	1
Threshold:	1.000

Peaks
No.	ApexEX/EM(nm)	Height(Data)
1	225.0/270.0	44.53
2	225.0/540.0	52.87
3	225.0/570.0	53.65
4	225.0/580.0	49.92
5	230.0/340.0	435.0
6	230.0/535.0	56.35
7	230.0/545.0	47.75
8	230.0/590.0	44.28
9	230.0/635.0	42.40
10	235.0/440.0	182.6
11	235.0/510.0	107.7
12	235.0/575.0	39.98
13	240.0/385.0	199.5
14	240.0/520.0	109.4
15	245.0/265.0	221.6
16	245.0/375.0	206.0
17	245.0/415.0	219.3
18	245.0/530.0	106.3
19	250.0/540.0	109.4
20	250.0/580.0	30.19
21	250.0/595.0	25.08
22	255.0/280.0	364.1
23	255.0/555.0	89.84
24	260.0/285.0	475.4
25	260.0/565.0	100.9
26	265.0/290.0	494.6
27	265.0/410.0	266.6
28	265.0/420.0	270.0
29	265.0/430.0	267.3
30	265.0/580.0	100.4
31	270.0/245.0	15.52
32	270.0/295.0	700.7
33	270.0/385.0	276.9
34	270.0/395.0	272.7
35	270.0/450.0	281.2
36	270.0/590.0	85.22
37	275.0/305.0	820.7
38	275.0/440.0	284.3
39	275.0/605.0	79.86
40	280.0/310.0	806.6
41	280.0/335.0	540.8
42	280.0/415.0	274.0
43	280.0/425.0	268.5
44	280.0/615.0	68.94
45	285.0/315.0	795.1
46	285.0/395.0	287.1
47	285.0/420.0	262.4
48	285.0/625.0	55.34
49	290.0/320.0	786.9
50	290.0/375.0	312.8
51	290.0/640.0	48.26
52	300.0/335.0	448.3
53	305.0/245.0	6.565
54	305.0/340.0	458.2
55	305.0/400.0	243.3
56	310.0/345.0	408.9
57	315.0/350.0	325.1
58	320.0/265.0	5.176
59	320.0/360.0	324.3
60	325.0/365.0	325.2
61	330.0/370.0	278.8
62	335.0/375.0	280.0
63	340.0/385.0	276.6
64	345.0/390.0	239.9
65	350.0/395.0	239.4
66	355.0/405.0	231.3
67	360.0/410.0	211.8
68	365.0/415.0	202.2
69	370.0/425.0	183.7
70	375.0/430.0	164.6
71	380.0/435.0	149.2
72	385.0/445.0	136.2
73	390.0/450.0	115.4
74	395.0/455.0	99.73
75	400.0/465.0	87.02
76	405.0/470.0	70.77
77	410.0/475.0	60.17
78	415.0/485.0	51.53
79	420.0/490.0	43.91
80	425.0/495.0	39.00
81	430.0/505.0	34.19
82	435.0/510.0	27.14
83	440.0/515.0	24.22
84	445.0/525.0	21.58
85	450.0/530.0	18.08
86	455.0/535.0	15.01
87	460.0/340.0	2.663
88	460.0/545.0	12.85
89	480.0/575.0	4.859
90	505.0/275.0	3.123
91	510.0/280.0	3.462
92	515.0/285.0	3.221
93	525.0/290.0	3.329
94	535.0/295.0	3.444
95	545.0/300.0	4.054
96	550.0/305.0	4.266
97	555.0/310.0	3.883
98	565.0/315.0	3.830
99	575.0/320.0	3.784
100	580.0/325.0	3.511

Data points
	220.0	225.0	230.0	235.0	240.0	245.0	250.0	255.0	260.0	265.0	270.0	275.0	280.0	285.0	290.0	295.0	300.0	305.0	310.0	315.0	320.0	325.0	330.0	335.0	340.0	345.0	350.0	355.0	360.0	365.0	370.0	375.0	380.0	385.0	390.0	395.0	400.0	405.0	410.0	415.0	420.0	425.0	430.0	435.0	440.0	445.0	450.0	455.0	460.0	465.0	470.0	475.0	480.0	485.0	490.0	495.0	500.0	505.0	510.0	515.0	520.0	525.0	530.0	535.0	540.0	545.0	550.0	555.0	560.0	565.0	570.0	575.0	580.0	585.0	590.0	595.0	600.0
230.0	38.51	142.6	 1360	 1137	100.1	22.36	17.24	16.42	14.28	12.88	8.953	9.756	9.298	7.993	6.681	5.643	5.395	5.046	3.594	3.817	3.324	3.168	2.852	3.070	2.420	2.542	2.455	2.141	2.407	2.208	2.176	1.980	2.145	1.825	1.883	1.993	1.997	1.637	1.855	1.560	1.420	1.442	1.643	1.417	1.237	1.437	1.418	2.803	5.987	5.277	2.570	1.274	1.150	1.170	0.904	1.105	1.183	1.092	1.099	1.031	1.036	0.900	1.016	0.963	1.020	0.944	1.077	1.000	1.004	1.100	0.903	0.939	0.927	1.018	0.985	0.881	0.845
235.0	48.63	73.62	514.8	 1745	 1362	136.3	17.54	21.75	12.75	11.22	12.22	9.009	8.996	8.313	6.354	5.602	5.844	4.907	3.974	3.752	3.168	3.194	3.148	2.889	2.791	2.301	2.474	2.871	2.117	2.844	2.093	2.580	1.875	1.696	1.729	2.106	1.880	1.585	1.857	1.453	1.347	1.535	1.841	1.457	1.239	1.560	1.483	1.711	2.803	4.573	6.335	8.012	3.774	1.538	1.184	0.828	1.376	1.325	1.187	0.923	0.877	0.860	1.131	1.053	0.969	0.888	1.031	0.821	0.896	1.249	0.818	0.810	0.658	0.841	0.857	0.898	0.776
240.0	49.28	61.58	148.4	846.4	 2486	 1241	81.16	16.16	15.09	15.18	13.30	9.732	8.815	7.858	5.572	6.528	5.426	5.361	4.125	4.171	2.770	3.571	3.488	2.510	3.148	1.914	3.239	2.414	2.771	2.779	1.745	2.671	2.149	1.506	1.908	1.566	1.873	1.973	2.007	1.707	1.292	1.330	1.559	1.332	1.211	1.741	1.135	1.217	1.433	2.140	3.626	8.105	9.916	7.105	3.190	1.307	1.014	1.440	1.082	1.049	0.936	0.793	1.195	0.833	0.944	0.782	0.870	0.934	0.897	0.910	0.916	0.960	0.802	0.975	1.176	0.985	0.940
245.0	42.68	76.14	75.01	230.2	 1495	 3065	 1073	44.71	16.93	12.86	15.52	9.906	8.897	8.769	7.449	6.521	5.080	6.565	4.721	4.352	4.098	3.485	4.072	2.822	2.396	2.260	3.231	2.716	2.434	2.046	2.583	2.599	2.158	1.527	1.729	1.783	1.593	1.437	2.001	1.641	1.791	1.353	1.779	1.340	1.030	1.422	1.235	1.330	1.237	1.264	1.564	3.238	6.374	11.90	11.78	6.920	2.185	1.360	1.177	0.932	0.715	1.121	0.997	0.878	0.949	0.679	1.011	0.967	0.894	0.856	1.037	1.165	0.920	1.040	0.930	0.859	0.906
250.0	39.46	53.44	98.09	127.4	401.9	 1611	 3254	 2404	344.1	15.81	14.37	12.47	10.65	8.263	6.180	6.966	5.487	5.042	4.479	4.246	3.616	3.826	3.226	2.834	2.636	2.814	2.901	2.405	2.523	2.369	1.949	2.377	1.987	1.905	1.738	1.884	1.493	1.398	1.597	1.795	1.870	1.519	1.964	1.528	1.289	1.439	1.286	1.433	1.411	1.172	1.370	1.653	2.228	4.671	7.456	11.20	14.24	12.85	6.971	2.393	1.217	1.046	0.954	1.143	0.837	0.967	0.848	1.189	0.804	0.910	0.986	0.878	0.925	1.023	0.833	1.010	0.674
255.0	39.78	41.87	61.83	135.7	183.3	394.8	 1239	 4826	 4493	433.3	19.00	14.85	11.68	10.38	8.903	6.630	6.145	5.752	4.474	4.015	4.069	3.748	3.491	2.857	2.689	2.746	2.950	2.420	2.547	2.476	2.374	2.029	2.266	1.891	1.544	1.736	1.342	1.592	1.543	2.082	1.615	1.542	1.908	1.435	1.488	1.669	1.323	1.345	1.232	1.522	1.245	1.480	1.817	2.092	2.502	3.855	6.268	13.51	23.51	22.74	9.339	1.974	1.036	1.020	1.033	1.137	0.984	1.108	1.309	0.815	0.945	0.976	0.834	0.914	0.977	1.086	0.739
260.0	43.18	36.84	44.51	102.1	198.5	159.1	313.1	 2184	 6964	 4133	226.8	12.67	15.34	12.23	9.938	7.102	6.508	4.998	5.714	4.469	4.168	3.258	3.433	2.807	3.162	3.053	2.878	2.506	2.712	2.302	2.426	2.374	2.307	1.489	1.673	1.453	1.007	1.257	1.635	1.525	1.623	1.650	1.953	1.379	1.657	1.491	1.628	1.327	1.250	1.322	1.296	1.476	1.867	1.696	1.676	1.822	2.341	4.785	11.68	24.12	31.17	20.28	5.777	1.137	1.311	0.959	0.940	0.766	0.940	0.905	0.999	0.940	0.935	0.961	0.794	1.060	0.929
265.0	39.54	39.13	38.12	51.99	150.8	221.6	123.1	556.9	 3583	 8462	 1096	92.51	17.44	13.25	10.48	7.454	6.663	5.693	5.446	3.715	5.176	3.051	3.292	3.161	3.073	3.004	2.609	2.646	2.768	2.703	2.126	2.074	2.262	1.904	2.093	1.290	1.556	1.524	1.743	1.483	1.445	1.413	1.880	1.369	1.382	1.530	1.173	1.357	1.260	1.099	1.036	1.165	1.537	2.081	1.901	1.651	1.222	1.880	3.655	8.026	19.02	32.53	32.45	13.77	2.390	0.999	1.087	0.854	1.062	1.155	1.083	0.924	0.956	0.766	0.922	1.072	0.935
270.0	42.94	44.53	38.57	40.75	71.19	176.4	237.0	206.2	884.2	 3784	 7026	 4065	355.1	15.51	11.48	9.882	6.518	6.843	6.028	4.218	4.164	2.756	3.372	3.211	3.017	3.174	2.968	2.734	2.637	3.043	2.335	2.187	2.086	2.165	1.950	1.296	1.536	1.597	1.544	1.510	1.201	1.400	1.970	1.308	1.466	1.528	1.082	1.273	1.331	1.015	0.886	1.129	1.256	1.439	1.776	2.323	1.986	1.786	1.868	2.757	5.273	10.72	18.47	26.99	31.16	25.27	11.16	2.146	0.990	0.997	1.079	0.946	1.002	0.923	0.891	1.126	0.931
275.0	41.91	41.84	38.60	30.72	40.65	66.41	203.4	360.9	276.9	879.2	 2292	 8821	 6269	454.6	16.35	10.90	7.319	7.277	4.534	4.342	4.429	3.530	3.548	3.465	3.758	3.764	3.728	2.773	2.496	2.694	1.710	2.367	1.792	2.066	2.237	1.327	1.891	1.718	1.289	1.125	1.159	1.525	1.924	1.495	1.712	1.670	1.134	1.206	1.367	1.217	0.898	0.996	1.011	1.256	1.447	1.561	1.998	3.123	2.500	1.774	2.050	3.320	5.043	7.085	12.17	27.90	45.94	34.87	10.88	1.566	0.868	0.928	1.036	0.915	1.043	1.206	0.730
280.0	48.41	46.80	43.51	40.99	36.64	36.19	84.15	364.1	322.9	246.6	566.9	 3396	9999.9	 5107	272.3	15.74	9.014	8.235	6.068	5.472	4.366	4.458	3.538	3.911	4.505	2.796	3.372	2.807	2.507	2.478	2.274	2.240	1.833	2.276	1.973	1.690	1.536	1.496	1.752	1.611	1.190	1.385	1.398	1.267	1.516	1.839	1.157	1.626	1.399	1.090	0.944	1.130	1.174	1.218	0.998	1.369	1.715	2.484	3.462	2.789	1.651	1.626	2.314	2.678	3.672	8.569	22.00	42.16	48.30	25.27	4.988	0.874	1.046	1.028	0.871	1.257	0.881
285.0	48.16	63.82	51.42	47.47	41.40	30.76	42.65	177.3	475.4	252.1	188.2	862.4	 4802	9999.9	 3776	105.8	12.54	8.782	7.529	6.319	5.861	5.002	3.727	3.211	4.240	3.200	3.015	2.803	2.677	2.593	2.414	2.334	2.578	1.849	1.969	1.628	1.651	1.527	1.802	1.399	1.215	1.400	1.451	1.372	1.228	1.719	1.545	1.694	1.280	1.174	1.329	1.313	1.176	1.260	1.003	1.196	1.726	1.609	2.004	3.221	3.148	1.692	1.400	1.455	1.819	3.061	5.974	14.05	32.22	51.37	43.35	14.67	2.439	1.142	1.222	0.968	0.752
290.0	61.06	70.32	68.35	60.05	44.63	37.93	42.51	80.36	251.3	494.6	332.4	324.0	 1237	 4649	9999.9	 5794	230.6	16.52	8.760	6.984	5.766	4.679	4.247	3.719	3.967	3.169	2.805	2.881	2.561	2.554	2.327	2.154	2.342	2.431	1.857	2.224	1.882	1.718	1.806	1.558	1.445	1.494	1.405	1.455	1.368	1.714	1.340	1.382	1.358	1.011	1.293	1.131	1.119	1.243	0.977	1.297	1.347	1.335	1.355	1.753	2.511	3.329	2.901	2.122	1.631	1.847	2.433	4.439	8.764	17.00	28.69	37.67	38.93	27.01	10.39	2.399	1.105
295.0	74.52	72.90	106.6	90.86	56.63	50.39	53.72	64.99	128.3	292.3	700.7	425.2	457.0	 1188	 2938	9999.9	 9038	299.7	15.41	8.670	6.581	5.737	5.405	4.381	4.253	4.040	4.276	3.712	2.069	3.394	2.236	1.956	2.767	2.023	2.239	2.105	1.935	1.754	1.670	1.363	1.464	1.371	1.516	1.063	1.430	1.501	1.420	1.770	1.383	1.360	1.388	1.417	1.464	1.296	1.159	0.918	1.175	1.160	1.023	1.755	1.992	1.954	2.405	3.444	3.218	2.367	1.806	2.472	3.014	4.903	7.444	9.896	16.13	34.47	50.58	37.87	11.38
300.0	70.93	95.03	115.3	102.1	66.38	52.80	60.33	69.04	116.2	188.5	558.7	774.5	409.0	440.3	769.4	 3684	9999.9	 3242	192.1	10.92	8.972	6.893	5.503	4.530	4.794	3.032	3.771	3.130	2.731	3.216	2.386	3.233	2.574	2.248	2.243	2.101	2.151	1.785	1.591	1.526	1.322	1.474	1.506	1.616	1.467	1.713	1.234	1.613	1.444	1.366	1.467	1.310	1.627	1.288	1.266	1.138	1.315	1.118	1.099	1.662	1.763	1.421	1.846	2.337	4.008	4.054	2.851	2.025	2.236	2.167	2.861	3.328	4.768	10.32	26.31	53.02	52.43
305.0	72.48	123.8	131.3	106.9	80.78	62.22	64.25	87.05	125.8	196.6	344.9	820.7	712.3	330.3	300.4	926.7	 4929	9999.9	 2594	94.30	10.29	8.530	5.094	5.664	5.014	3.572	3.375	3.277	2.931	3.590	2.773	3.161	2.858	1.850	2.293	2.148	1.717	1.762	2.123	1.712	1.744	1.547	1.458	1.410	1.632	1.635	1.197	1.254	1.392	1.333	1.448	1.551	1.278	1.341	1.117	1.391	0.983	1.346	1.437	1.530	1.875	1.614	1.820	1.825	2.436	3.722	4.266	3.217	2.331	1.913	1.950	1.913	2.463	3.205	7.010	17.95	37.96
310.0	80.68	124.7	145.8	117.9	88.11	68.44	80.94	101.5	141.5	206.1	301.8	513.7	806.6	621.5	264.1	306.0	 1206	 5088	 9612	 5905	167.7	12.84	7.683	6.119	5.058	4.526	3.715	3.715	3.165	2.949	2.897	2.691	2.790	2.537	2.311	2.237	2.141	1.987	1.705	1.876	1.812	1.467	1.473	1.469	1.777	1.480	1.511	1.562	1.432	1.230	1.555	1.713	1.205	1.471	1.502	1.389	1.451	1.363	1.488	1.825	1.832	1.594	1.914	1.993	2.256	2.709	3.306	3.883	3.819	2.998	2.260	1.937	1.861	1.845	2.436	4.917	10.19
315.0	89.75	136.4	165.5	135.5	85.32	78.28	89.88	109.5	151.4	225.1	301.3	412.1	537.4	795.1	545.5	216.4	341.1	 1180	 2830	 9811	 7965	223.8	10.57	8.740	7.626	5.029	4.285	4.133	3.844	2.476	2.909	3.384	2.474	2.556	2.025	2.080	1.978	1.831	2.052	1.653	1.507	1.131	1.760	1.629	1.656	1.340	1.379	1.790	1.298	1.479	1.512	1.712	1.596	1.562	1.476	1.480	1.563	1.337	1.452	1.633	1.936	2.045	1.808	2.050	2.385	2.199	2.315	2.663	3.001	3.830	3.789	2.671	2.193	1.654	1.677	2.411	3.690
320.0	118.7	168.3	224.3	177.5	96.38	96.64	97.94	139.6	183.7	263.3	353.6	428.6	489.8	610.9	786.9	354.7	175.2	321.1	679.3	 3703	9999.9	 5741	151.8	10.33	7.289	6.398	4.739	4.587	3.555	3.134	2.982	3.262	2.839	3.073	2.095	2.200	1.761	1.906	1.468	2.024	1.562	1.455	1.820	1.671	1.491	1.641	1.384	1.732	1.726	1.686	1.267	1.654	1.314	1.736	1.378	1.594	1.560	1.476	1.778	1.492	1.881	2.150	1.758	1.992	2.493	2.064	2.262	2.432	2.770	2.587	3.416	3.784	3.302	1.971	1.586	1.253	1.765
325.0	139.3	238.9	348.6	263.1	133.1	103.7	102.4	154.0	207.1	304.3	380.1	472.1	502.5	531.3	688.9	590.4	208.6	144.9	200.5	894.9	 4893	9999.9	 1965	80.49	8.276	6.378	4.946	3.784	3.485	3.144	2.947	2.604	2.623	2.432	2.175	2.355	1.964	1.807	2.084	1.707	1.396	1.741	1.215	1.829	1.488	1.711	1.837	1.809	2.196	1.540	1.413	1.840	1.779	1.838	1.402	2.067	1.841	1.490	2.102	1.770	2.195	2.225	1.787	2.307	2.454	2.446	2.766	2.656	2.574	2.545	2.818	2.809	3.511	3.262	2.057	1.511	1.748
330.0	143.8	247.2	392.2	303.6	158.0	117.5	125.0	164.6	228.0	307.9	413.5	492.3	517.2	517.2	493.0	557.2	445.1	176.2	107.0	246.2	 1180	 4533	 8355	 5104	131.0	10.37	6.720	5.543	4.762	3.863	3.234	3.218	2.772	2.373	2.267	2.353	1.993	1.963	2.016	1.818	1.921	1.798	1.701	1.728	1.999	2.330	2.159	2.249	2.444	2.028	1.503	1.677	1.595	1.697	1.800	1.941	1.993	1.723	1.673	2.059	1.996	2.122	2.233	2.323	2.582	2.623	2.635	2.697	2.503	2.394	2.223	2.506	2.668	2.931	2.855	2.690	1.971
335.0	170.7	295.2	412.4	338.9	191.3	124.3	136.9	188.2	232.4	317.0	423.3	508.0	540.8	532.0	447.1	374.1	448.3	396.9	129.4	112.8	312.0	 1051	 2613	 9189	 7278	181.1	10.07	7.634	5.955	4.458	3.641	3.362	3.532	2.791	2.754	1.890	2.174	2.025	1.829	1.759	1.957	2.243	1.695	1.856	2.011	1.859	2.179	2.497	2.365	2.156	1.561	1.594	1.563	1.735	1.774	1.795	2.165	1.414	1.871	1.953	2.449	2.214	2.308	2.103	2.372	2.511	3.075	2.290	2.263	2.479	2.551	2.122	2.260	2.142	2.187	2.685	3.057
340.0	160.3	294.9	435.0	359.5	186.5	141.7	145.2	189.2	242.4	342.0	414.8	501.2	529.3	516.3	439.8	324.0	313.5	458.2	270.0	99.70	123.1	280.1	621.4	 3636	9999.9	 5175	126.5	8.924	7.117	4.696	4.603	3.623	3.404	3.209	2.952	2.184	2.160	2.197	2.021	2.245	1.884	2.129	1.595	1.754	1.783	1.899	2.312	2.635	2.663	2.208	1.649	1.715	1.735	1.593	1.451	1.869	2.082	1.728	2.302	2.382	2.239	2.443	2.339	2.438	2.148	2.153	2.683	2.584	2.104	2.421	2.531	2.131	2.622	1.919	1.715	2.312	2.460
345.0	119.6	274.3	416.7	350.3	197.1	141.9	156.8	179.9	241.4	313.8	387.2	464.4	503.1	484.3	418.9	315.3	236.2	332.6	408.9	161.9	87.60	110.2	174.7	873.8	 5026	9999.9	 1625	68.57	9.092	6.010	5.311	4.128	3.406	3.037	2.899	2.789	2.547	2.378	2.307	2.065	1.714	1.935	1.597	1.763	1.921	1.821	2.413	2.419	2.317	2.544	1.886	2.031	2.074	1.897	1.684	1.572	1.819	2.060	1.992	2.078	2.140	2.409	2.519	2.416	2.191	2.533	2.243	2.419	2.512	2.249	2.366	2.045	2.442	2.044	1.624	2.093	2.090
350.0	119.7	222.4	360.8	317.4	189.8	159.7	156.9	189.1	234.3	289.7	355.2	419.3	443.2	449.1	398.4	298.2	225.2	213.1	306.3	325.1	156.5	85.04	85.33	229.5	 1216	 4732	 7959	 4539	112.1	9.610	6.339	4.550	4.216	3.296	3.175	2.301	2.474	2.428	2.348	2.132	2.055	1.799	1.542	2.160	1.788	1.700	2.114	1.960	2.022	2.004	1.777	2.038	1.567	1.597	1.582	1.726	1.691	1.740	2.140	2.327	2.286	2.248	2.208	2.414	2.094	2.539	2.179	2.320	2.509	2.437	2.165	1.873	2.364	1.889	1.779	1.851	1.940
355.0	115.7	208.2	332.4	299.3	188.3	172.9	178.2	198.5	230.5	267.5	324.9	375.7	418.3	410.0	360.9	284.2	227.3	189.2	191.4	275.0	315.7	133.4	77.06	97.00	304.4	 1086	 2676	 8787	 6344	152.8	8.117	5.363	4.953	3.786	3.126	2.857	2.720	2.247	2.305	2.149	1.963	1.832	1.418	2.173	1.617	1.690	2.477	1.963	1.773	1.754	1.750	2.022	1.503	1.716	1.872	1.826	1.961	1.410	1.897	1.857	1.925	2.032	2.172	2.405	2.126	2.083	2.380	1.975	2.403	2.131	2.181	2.344	2.150	1.893	1.725	1.682	2.050
360.0	96.51	196.5	297.2	262.3	183.1	176.6	185.2	195.1	228.1	267.6	298.9	350.4	385.0	374.2	342.9	277.5	228.2	188.2	174.1	199.5	324.3	250.9	96.75	78.49	110.3	275.8	635.2	 3750	9999.9	 4547	101.1	8.437	6.088	4.871	3.244	2.667	3.379	2.423	2.547	2.043	1.556	1.740	1.706	1.968	2.022	1.694	1.784	2.023	1.947	1.452	1.741	1.880	1.646	1.652	1.536	1.954	2.253	1.813	2.175	2.091	1.927	2.252	2.509	1.906	2.102	2.023	2.080	1.928	1.958	2.117	2.218	1.902	1.690	2.032	2.002	1.829	1.913
365.0	104.9	166.1	264.1	232.8	194.2	185.5	187.7	196.2	227.1	266.9	291.2	336.8	357.4	357.9	311.9	279.8	239.6	196.6	171.8	172.1	235.0	325.2	173.6	83.58	76.25	101.3	175.8	909.8	 5218	9999.9	 1421	48.13	7.408	5.136	3.922	3.790	2.982	2.883	2.417	2.148	2.039	1.721	1.971	1.864	1.999	1.786	1.526	2.021	2.016	1.847	1.743	1.561	1.473	1.475	1.850	2.121	1.989	1.901	1.950	2.093	1.934	2.464	2.305	2.180	2.126	2.066	1.868	2.060	2.107	2.002	2.194	1.957	1.789	2.018	1.802	1.891	2.030
370.0	100.1	163.4	212.9	210.4	192.4	192.3	192.6	197.9	224.3	255.9	282.1	312.9	334.3	330.0	306.6	269.3	235.0	208.4	195.9	175.7	179.2	247.4	278.8	161.4	87.12	77.56	80.98	236.4	 1269	 5027	 7970	 4135	88.03	7.242	5.003	3.862	3.323	3.150	2.553	2.669	2.241	1.862	2.010	2.002	1.765	1.745	1.587	1.840	1.818	1.627	1.584	1.725	1.797	1.693	1.648	1.924	1.674	2.028	1.849	1.961	1.979	2.393	1.994	2.175	2.253	2.230	2.251	2.118	2.252	2.138	2.225	1.946	1.829	2.084	2.036	1.890	1.921
375.0	97.03	145.1	177.9	197.0	193.8	206.0	195.4	217.6	234.1	251.2	274.6	296.5	307.2	307.2	312.8	263.7	237.9	219.2	208.4	193.3	181.1	184.9	228.9	280.0	148.6	84.11	69.24	94.20	313.6	 1148	 2902	 9049	 5442	113.6	7.680	5.194	3.814	3.862	2.446	2.899	1.900	1.870	1.882	2.171	1.784	1.527	1.585	2.048	1.597	1.635	1.413	1.687	1.684	1.564	1.447	2.017	1.720	1.799	1.829	1.599	2.167	2.330	2.249	2.176	2.160	2.241	2.408	1.953	2.187	2.308	1.861	1.897	1.990	1.717	2.165	1.985	2.002
380.0	94.76	143.1	177.9	192.9	199.3	191.6	206.4	216.7	233.1	240.9	271.3	282.1	300.7	296.2	297.2	258.7	240.4	239.6	213.2	204.7	190.9	174.6	185.5	269.0	230.0	109.9	74.57	68.88	110.1	285.7	686.2	 4223	9999.9	 1294	68.89	5.923	4.742	3.449	3.130	2.353	2.242	2.329	1.741	2.038	1.794	1.701	1.539	2.065	1.971	1.694	1.378	1.740	1.854	1.918	1.736	2.225	2.301	1.860	1.790	1.612	2.105	2.080	2.313	2.342	2.293	1.880	2.406	1.776	2.444	2.200	1.899	2.127	1.795	1.596	1.774	1.768	2.115
385.0	94.31	113.0	183.9	198.6	199.5	195.0	207.2	212.5	220.1	255.3	276.9	266.9	283.4	288.0	291.3	263.0	241.2	236.4	217.3	213.7	200.0	179.6	174.2	206.6	276.6	174.6	92.48	71.66	69.00	96.92	179.7	 1042	 5797	 8578	 1062	22.11	5.478	4.383	3.176	2.799	2.436	2.044	2.210	1.867	1.942	2.009	1.614	1.928	1.822	1.480	1.659	1.925	1.745	1.916	1.790	1.976	2.069	1.942	1.760	2.014	1.984	1.797	1.846	1.985	2.525	2.065	2.005	1.897	2.034	1.893	1.887	2.325	2.050	1.961	1.970	1.913	1.685
390.0	92.82	119.6	175.0	186.3	189.2	211.7	221.1	217.2	230.1	248.0	265.5	268.0	274.1	284.4	278.1	259.8	249.6	229.4	228.9	217.8	206.4	194.2	178.5	181.2	215.2	239.9	160.9	89.58	71.40	64.50	73.33	258.4	 1440	 4711	 6841	 2741	64.25	5.761	4.040	3.220	2.866	2.622	2.331	2.198	2.187	2.000	1.806	1.921	1.672	1.611	1.379	1.955	1.913	1.872	2.122	1.837	1.865	1.890	1.909	1.846	1.988	1.864	2.024	1.817	2.232	1.999	2.231	1.881	1.929	1.796	1.959	1.958	2.013	2.188	2.062	2.248	2.021
395.0	83.92	122.2	151.1	187.6	202.6	208.3	193.2	232.4	230.9	260.3	272.7	265.5	273.7	287.1	274.1	250.5	248.0	233.4	227.9	224.0	210.9	206.4	188.5	177.2	170.7	202.8	239.4	138.1	83.28	66.55	58.23	91.49	345.7	 1073	 2847	 7692	 3783	78.16	4.828	4.210	3.597	2.667	2.193	2.202	2.250	2.005	1.985	1.712	1.703	1.579	1.470	1.881	1.853	1.521	2.004	1.875	2.014	2.507	1.863	1.935	1.820	1.937	1.666	2.342	2.062	1.832	1.979	2.334	2.071	2.008	2.487	2.176	1.914	2.067	1.587	2.015	2.255
400.0	87.69	108.4	152.9	177.9	203.4	206.9	200.2	252.8	245.5	262.8	270.7	262.6	271.6	280.7	274.8	252.1	234.2	243.3	230.2	224.9	217.8	205.2	196.3	179.1	171.0	167.7	225.1	200.4	112.3	78.56	60.75	58.41	105.3	260.0	681.6	 4039	 7889	 1045	45.82	4.837	3.905	3.114	2.453	1.436	2.092	2.148	1.894	1.757	1.531	1.568	1.687	1.931	1.810	1.744	1.928	1.798	2.311	2.228	1.797	2.249	1.980	1.833	1.962	2.149	2.138	1.890	1.795	1.854	2.125	1.967	2.194	2.217	1.976	2.315	2.063	2.083	2.065
