Sample:	'1
File name:	t2025022708¶þ²ã³Ø8  3Íò±¶.FD3
Run date:	'10:41:43, 02/28/2025
Operator:	Administrator
Comment:	'

Instrument
Model:	F-2700 FL Spectrophotometer
Serial number:	23B8-004
ROM Version:	4J14000 07

Instrument parameters
Measurement type:	3-D scan
Data mode:	Fluorescence
EX  Start WL:	220.0 nm
EX  End WL:	600.0 nm
EX Sampling interval:	5.0 nm
EM  Start WL:	230.0 nm
EM  End WL:	650.0 nm
EM Sampling interval:	5.0 nm
Scan speed:	12000 nm/min
EX Slit:	5.0 nm
EM Slit:	5.0 nm
PMT Voltage:	700 V
Response:	Auto 
Corrected spectra:	Off
Contour interval:	50.000

Peak integration
Integration method:	Rectangular
Sensitivity:	1
Threshold:	1.000

Peaks
No.	ApexEX/EM(nm)	Height(Data)
1	225.0/490.0	174.2
2	230.0/500.0	152.6
3	235.0/515.0	132.0
4	240.0/265.0	449.0
5	240.0/525.0	126.9
6	245.0/270.0	420.0
7	245.0/540.0	112.3
8	250.0/550.0	104.1
9	265.0/585.0	439.3
10	270.0/300.0	5789
11	270.0/595.0	431.7
12	300.0/335.0	313.9
13	305.0/345.0	256.8
14	310.0/350.0	194.8
15	315.0/355.0	183.0
16	320.0/360.0	166.1
17	330.0/375.0	120.3
18	335.0/380.0	130.9
19	340.0/385.0	105.0
20	350.0/400.0	87.48
21	355.0/405.0	78.09
22	360.0/410.0	59.62
23	365.0/420.0	60.98
24	370.0/425.0	58.73
25	375.0/430.0	43.84
26	380.0/440.0	41.27
27	385.0/300.0	13.54
28	385.0/445.0	37.80
29	390.0/450.0	29.39
30	395.0/455.0	26.17
31	400.0/465.0	24.35
32	405.0/470.0	17.91
33	410.0/480.0	16.23
34	415.0/485.0	15.50
35	420.0/490.0	11.69
36	425.0/500.0	11.38
37	430.0/505.0	10.27
38	435.0/510.0	7.838
39	440.0/300.0	9.087
40	440.0/520.0	7.481
41	445.0/525.0	6.396
42	455.0/540.0	4.952
43	465.0/555.0	2.830
44	470.0/560.0	2.546
45	480.0/575.0	1.642
46	485.0/265.0	2.187
47	485.0/580.0	1.506
48	495.0/270.0	2.281
49	545.0/300.0	26.37
50	550.0/305.0	23.93

Data points
	220.0	225.0	230.0	235.0	240.0	245.0	250.0	255.0	260.0	265.0	270.0	275.0	280.0	285.0	290.0	295.0	300.0	305.0	310.0	315.0	320.0	325.0	330.0	335.0	340.0	345.0	350.0	355.0	360.0	365.0	370.0	375.0	380.0	385.0	390.0	395.0	400.0	405.0	410.0	415.0	420.0	425.0	430.0	435.0	440.0	445.0	450.0	455.0	460.0	465.0	470.0	475.0	480.0	485.0	490.0	495.0	500.0	505.0	510.0	515.0	520.0	525.0	530.0	535.0	540.0	545.0	550.0	555.0	560.0	565.0	570.0	575.0	580.0	585.0	590.0	595.0	600.0
230.0	89.58	1080	2834	751.5	28.64	4.805	3.835	3.794	3.634	3.722	3.567	2.838	2.227	1.625	1.222	1.217	0.878	0.810	0.819	0.677	0.650	0.547	0.497	0.547	0.455	0.493	0.455	0.422	0.381	0.441	0.392	0.361	0.363	0.356	0.325	0.346	0.318	0.261	0.267	0.270	0.479	0.861	0.879	0.431	0.281	0.276	1.339	6.401	10.02	6.418	2.004	0.407	0.176	0.193	0.170	0.168	0.196	0.183	0.159	0.185	0.185	0.189	0.183	0.196	0.181	0.201	0.204	0.222	0.203	0.185	0.189	0.180	0.204	0.193	0.192	0.184	0.190
235.0	227.5	318.2	1588	2537	513.9	34.33	4.882	3.875	4.534	4.102	4.174	2.950	2.421	1.568	1.289	1.128	0.972	0.950	0.834	0.749	0.683	0.527	0.642	0.527	0.507	0.426	0.402	0.440	0.410	0.342	0.427	0.362	0.405	0.358	0.331	0.320	0.291	0.296	0.292	0.228	0.329	0.471	0.625	0.668	0.671	0.370	0.490	1.724	3.747	6.630	8.356	7.510	2.949	0.570	0.204	0.174	0.168	0.172	0.155	0.215	0.163	0.170	0.175	0.200	0.172	0.182	0.253	0.182	0.198	0.167	0.181	0.177	0.200	0.190	0.173	0.211	0.221
240.0	323.1	227.8	468.0	2115	2369	367.4	17.01	5.856	4.945	3.984	4.071	3.362	2.812	1.942	1.492	1.042	0.936	0.772	0.815	0.793	0.579	0.601	0.475	0.511	0.479	0.530	0.493	0.483	0.397	0.419	0.431	0.343	0.326	0.461	0.308	0.287	0.325	0.300	0.292	0.293	0.402	0.301	0.413	0.511	0.884	0.860	0.579	0.622	1.053	2.096	4.806	10.75	11.64	7.032	2.383	0.355	0.182	0.172	0.180	0.182	0.175	0.186	0.177	0.177	0.187	0.190	0.201	0.185	0.227	0.195	0.217	0.162	0.187	0.179	0.161	0.174	0.192
245.0	212.4	327.6	196.9	719.3	2648	2226	255.0	7.902	5.429	5.110	4.371	3.961	3.131	1.912	1.697	1.366	1.052	0.845	0.730	0.748	0.549	0.548	0.627	0.499	0.542	0.511	0.472	0.469	0.389	0.369	0.407	0.356	0.343	0.371	0.341	0.276	0.303	0.306	0.289	0.307	0.254	0.319	0.286	0.299	0.527	0.909	1.095	0.930	0.551	0.634	1.282	3.898	9.236	14.07	12.58	5.652	1.270	0.223	0.263	0.211	0.240	0.200	0.180	0.216	0.192	0.186	0.208	0.180	0.223	0.188	0.206	0.170	0.186	0.226	0.176	0.216	0.199
250.0	79.97	222.3	326.3	270.6	885.3	2805	3237	811.6	40.19	7.275	5.669	4.912	3.301	2.046	1.813	1.375	1.085	1.034	0.964	0.876	0.655	0.667	0.627	0.565	0.581	0.486	0.554	0.435	0.462	0.444	0.445	0.408	0.357	0.359	0.339	0.299	0.286	0.311	0.310	0.327	0.252	0.312	0.303	0.280	0.323	0.425	0.622	1.037	1.136	0.891	0.659	1.080	2.415	4.944	9.133	13.86	16.87	14.15	6.976	1.490	0.299	0.241	0.200	0.203	0.225	0.212	0.265	0.206	0.224	0.203	0.214	0.205	0.188	0.207	0.186	0.236	0.236
255.0	39.53	70.69	231.1	387.4	296.8	815.8	3863	4896	279.0	33.95	8.700	6.324	4.060	2.890	2.125	1.534	1.340	1.049	0.991	0.878	0.660	0.692	0.745	0.656	0.513	0.434	0.569	0.485	0.456	0.518	0.453	0.367	0.366	0.326	0.351	0.271	0.298	0.288	0.316	0.307	0.278	0.321	0.290	0.296	0.288	0.288	0.321	0.444	0.571	0.988	1.399	1.280	0.979	1.326	2.234	3.673	8.325	21.15	33.74	24.18	10.61	1.364	0.275	0.230	0.248	0.219	0.267	0.225	0.203	0.244	0.219	0.205	0.191	0.215	0.201	0.211	0.183
260.0	32.23	33.88	93.11	341.1	357.6	238.2	1462	5877	5023	228.9	18.10	6.991	4.949	3.855	2.508	1.916	1.476	1.212	0.799	0.850	0.757	0.627	0.897	0.634	0.550	0.592	0.461	0.476	0.515	0.479	0.475	0.492	0.364	0.390	0.390	0.330	0.335	0.333	0.383	0.345	0.321	0.295	0.266	0.332	0.272	0.257	0.250	0.272	0.345	0.488	1.029	1.913	1.682	1.016	0.804	1.091	2.198	6.806	20.11	38.23	45.75	21.70	7.951	0.718	0.337	0.274	0.255	0.285	0.228	0.191	0.238	0.228	0.200	0.297	0.340	0.252	0.248
265.0	36.66	24.23	33.78	158.9	449.0	250.6	370.6	2648	8052	4343	170.6	12.60	6.201	3.951	2.715	2.128	1.727	1.251	1.131	0.967	0.880	0.772	0.722	0.685	0.565	0.652	0.438	0.559	0.542	0.479	0.472	0.494	0.413	0.417	0.412	0.375	0.299	0.329	0.349	0.329	0.300	0.299	0.264	0.299	0.267	0.301	0.276	0.244	0.285	0.298	0.418	1.046	1.791	2.187	1.337	0.633	0.762	1.882	5.292	14.67	36.29	57.09	31.00	19.04	3.663	0.433	0.351	0.257	0.237	0.250	0.258	0.204	0.245	0.252	0.289	0.301	0.269
270.0	54.67	31.56	26.54	51.59	214.9	420.0	307.1	666.5	3202	7088	5627	669.4	33.41	6.621	3.786	2.485	2.067	1.629	1.311	1.142	1.006	0.869	0.840	0.750	0.719	0.578	0.542	0.577	0.523	0.492	0.555	0.522	0.525	0.472	0.456	0.488	0.389	0.362	0.355	0.421	0.371	0.330	0.366	0.372	0.354	0.324	0.298	0.262	0.248	0.258	0.248	0.449	0.714	1.288	1.872	2.281	1.833	1.146	1.543	3.619	9.303	20.48	33.56	54.10	49.65	47.09	13.28	4.715	0.519	0.352	0.343	0.242	0.272	0.269	0.259	0.286	0.268
275.0	259.1	151.4	77.73	51.88	88.46	224.6	576.5	419.0	901.0	2199	7399	8794	887.0	28.48	6.755	3.955	2.742	2.392	1.632	1.373	1.179	1.118	1.041	0.888	0.857	0.672	0.528	0.574	0.629	0.579	0.653	0.675	0.887	1.088	0.998	0.971	0.672	0.799	0.707	0.647	0.674	0.655	0.754	0.718	0.697	0.683	0.440	0.404	0.339	0.341	0.287	0.395	0.464	0.583	0.819	1.456	2.830	3.445	2.460	1.739	2.945	5.578	8.808	14.52	24.16	57.35	89.39	83.89	21.73	4.750	0.622	0.436	0.380	0.336	0.347	0.294	0.305
280.0	942.0	543.2	271.1	170.7	129.2	179.5	554.1	963.8	921.8	1370	3344	9928	7501	134.9	13.84	5.715	3.727	2.826	2.288	1.959	1.212	1.230	1.286	0.884	0.817	0.747	0.635	0.578	0.632	0.616	0.878	1.211	2.379	3.057	2.792	2.114	1.766	1.618	1.748	1.781	1.647	1.916	1.877	2.056	1.890	1.836	1.233	1.095	0.873	0.768	0.649	0.687	0.556	0.607	0.693	0.993	1.747	3.369	5.151	4.692	3.766	4.475	5.587	7.515	10.29	19.77	45.11	89.20	107.7	31.50	17.41	1.935	0.508	0.557	0.470	0.391	0.425
285.0	2001	1164	655.1	407.1	279.6	286.6	553.3	1336	1823	2003	2370	5042	9999.9	5236	93.92	9.614	5.214	3.564	2.521	2.438	1.455	1.463	1.210	1.257	0.973	0.769	0.934	0.827	0.824	0.761	1.000	2.088	4.355	6.003	5.419	4.002	3.133	3.411	3.140	3.262	3.494	3.515	3.922	3.908	3.719	3.439	2.741	2.195	1.702	1.513	1.328	1.409	1.137	0.929	1.087	1.425	1.908	2.877	5.026	7.240	8.288	8.289	8.263	9.928	11.47	12.36	18.67	33.28	64.70	99.85	113.7	28.21	11.09	1.218	0.715	0.532	0.507
290.0	3375	2115	1207	771.5	519.5	468.4	780.9	1568	2853	3753	3820	3755	4400	7245	5176	382.1	17.10	5.267	3.601	2.752	1.936	1.764	1.525	1.248	1.129	0.874	1.038	0.900	0.846	0.849	1.216	2.976	7.265	9.911	9.453	7.209	6.037	5.817	5.314	5.588	5.719	6.186	6.654	6.613	6.555	5.865	4.443	3.950	3.122	2.445	2.251	2.385	1.899	1.699	1.705	2.036	2.750	3.786	5.453	7.398	10.70	14.24	15.90	17.42	17.67	16.67	17.33	19.44	23.56	33.15	58.43	76.57	99.65	79.67	19.21	9.619	1.525
295.0	4423	2864	1690	1103	715.0	607.0	964.8	1815	3186	4858	5247	4130	2383	2172	5378	5959	497.2	12.03	5.358	3.761	2.556	2.306	1.972	1.477	1.238	1.221	1.098	0.991	0.838	0.923	1.516	4.276	9.347	12.72	12.10	9.892	8.119	7.295	6.910	7.121	7.217	7.871	8.526	8.163	8.501	7.494	6.021	5.227	4.347	3.497	3.283	3.211	2.637	2.276	2.259	2.475	3.424	4.723	6.537	8.535	11.41	15.16	18.67	23.25	25.31	22.72	20.53	19.38	15.74	13.70	16.36	19.67	30.94	62.79	118.8	148.5	31.61
300.0	4704	3132	1868	1225	797.6	661.8	1019	1856	3209	4768	5789	4456	2031	888.0	1745	6585	4826	75.56	7.758	4.637	3.186	2.607	2.042	1.907	1.267	1.311	1.237	1.171	0.962	1.016	1.473	4.504	9.761	13.54	13.18	10.81	9.246	7.699	7.472	7.416	7.569	8.536	9.053	9.066	9.087	8.493	6.306	5.980	4.782	3.956	3.596	3.584	2.906	2.566	2.494	2.550	3.529	4.982	6.861	8.873	11.47	14.83	17.94	22.32	25.69	26.37	23.39	20.05	14.72	9.639	7.369	6.813	8.667	16.58	42.15	104.1	152.0
305.0	4500	3093	1862	1222	801.3	653.4	972.6	1763	3019	4395	5311	4680	2000	643.1	526.4	2352	7095	3639	54.23	6.014	4.010	2.934	2.249	1.819	1.433	1.341	1.276	1.283	0.974	1.021	1.662	4.274	9.331	13.53	12.94	10.62	9.402	7.949	6.954	7.474	7.370	8.425	8.751	8.572	8.578	8.218	6.538	5.736	4.955	4.143	3.562	3.615	2.954	2.351	2.433	2.657	3.450	4.520	6.140	8.735	11.06	14.28	17.35	20.28	23.42	23.80	23.93	21.67	15.38	8.709	5.551	4.132	3.815	5.143	10.67	27.36	63.76
310.0	3908	2719	1678	1119	710.4	560.2	818.9	1484	2513	3648	4265	3947	2154	666.1	264.7	587.3	2350	5000	4269	268.2	12.04	3.876	3.007	2.241	1.799	1.481	1.394	1.131	1.116	1.123	1.517	3.884	8.322	12.08	11.79	9.544	8.366	7.153	6.564	6.393	6.708	7.022	7.340	7.479	7.706	7.205	5.855	5.268	4.600	3.538	3.148	3.279	2.720	2.275	2.160	2.238	2.980	3.858	5.424	7.453	9.294	11.88	14.59	16.94	18.71	18.95	18.57	17.91	15.03	10.38	6.282	3.633	2.627	2.533	3.473	6.987	15.12
315.0	3080	2145	1385	921.4	585.8	448.2	624.6	1124	1924	2783	3247	2900	1774	941.9	259.4	189.8	554.4	1250	3928	4254	381.4	8.450	4.211	2.969	2.285	1.666	1.368	1.311	1.227	1.054	1.320	3.110	6.303	9.237	9.551	8.002	6.809	5.972	5.334	5.318	5.534	5.576	6.219	6.079	6.266	5.893	4.807	4.395	3.607	2.932	2.739	2.672	2.244	1.837	1.755	1.762	2.590	3.252	4.448	5.669	7.138	9.258	11.27	13.41	14.18	13.99	14.03	13.30	10.72	8.110	7.084	5.606	3.437	2.004	1.848	2.385	4.121
320.0	2443	1747	1107	772.6	477.6	362.2	505.4	882.6	1503	2180	2546	2272	1324	895.5	437.8	112.4	153.9	299.1	1133	4603	3720	57.70	6.218	3.460	2.978	1.959	1.562	1.278	1.268	0.966	1.259	2.833	5.457	7.740	7.802	6.520	5.656	5.113	4.678	4.290	4.436	4.634	5.074	4.939	4.887	4.863	3.889	3.484	3.000	2.540	2.423	2.246	1.974	1.594	1.591	1.407	1.914	2.788	3.467	4.262	5.654	7.224	8.763	10.43	11.59	11.25	10.79	10.14	8.294	5.659	4.937	5.072	4.882	3.097	1.797	1.312	1.630
325.0	1983	1410	943.2	653.4	392.7	296.6	402.2	692.8	1184	1708	2013	1792	1035	607.2	574.9	186.2	66.61	85.40	271.1	1505	5078	3035	45.26	4.908	3.348	2.112	1.842	1.376	1.265	1.162	1.177	2.457	4.160	6.215	6.500	5.624	4.812	4.266	3.836	3.824	3.584	3.830	4.080	4.182	3.928	3.770	3.458	3.003	2.467	2.154	1.901	2.063	1.730	1.346	1.365	1.265	1.720	2.128	2.805	3.360	4.452	5.779	7.091	8.400	9.135	8.949	8.648	7.993	6.903	4.563	3.544	3.208	3.858	4.000	3.190	1.652	1.023
330.0	1508	1115	736.9	504.9	319.0	227.8	295.4	501.6	844.8	1231	1463	1318	783.7	398.5	351.6	350.8	141.2	40.84	74.45	352.0	1565	3671	3533	226.5	11.43	3.087	2.212	1.587	1.347	1.197	1.208	2.011	3.324	4.788	5.014	4.439	3.897	3.299	2.909	2.950	2.807	2.844	3.006	3.059	2.962	2.862	2.541	2.470	2.047	1.748	1.446	1.731	1.361	1.058	1.025	1.096	1.375	1.558	2.132	2.562	3.314	4.113	5.017	5.981	6.582	6.561	6.479	6.247	4.951	3.767	2.746	2.197	2.132	2.294	2.580	2.707	2.391
335.0	1105	809.2	567.3	379.8	247.1	174.1	214.2	349.7	583.4	852.7	1014	937.6	574.7	296.7	183.4	212.2	313.9	80.23	31.38	90.10	359.7	885.3	2766	4512	359.4	8.572	3.310	2.342	1.586	1.295	1.256	1.732	2.633	3.437	3.900	3.402	3.035	2.614	2.306	2.112	2.175	2.260	2.260	2.280	2.123	2.185	1.923	1.933	1.695	1.388	1.217	1.299	1.176	0.906	0.866	0.948	1.003	1.203	1.568	1.789	2.364	3.024	3.404	3.975	4.600	4.465	4.672	4.214	3.657	2.827	2.052	1.685	1.593	1.466	1.327	1.379	2.048
340.0	868.5	637.5	473.8	313.9	206.0	143.4	167.2	264.5	438.1	628.1	768.5	711.6	446.5	238.6	129.8	102.9	242.3	230.2	44.65	31.47	91.08	208.5	754.6	3641	3244	51.19	5.458	2.581	1.953	1.683	1.484	1.628	2.240	3.025	3.374	2.716	2.554	1.897	2.015	1.821	1.652	1.781	1.742	1.853	1.779	1.794	1.495	1.651	1.384	1.138	1.094	1.089	0.812	0.779	0.740	0.777	0.803	1.029	1.152	1.369	1.827	2.299	2.638	3.047	3.536	3.252	3.464	3.469	2.865	2.244	1.970	1.372	1.317	1.017	0.953	0.901	1.041
345.0	691.6	531.0	394.2	269.6	173.8	119.5	135.8	208.3	328.0	476.6	581.6	545.7	361.7	199.4	106.3	66.25	112.2	256.8	138.1	24.74	30.71	56.79	179.7	1097	3850	2682	43.06	3.678	2.471	1.783	1.514	1.644	1.950	2.554	2.722	2.207	2.236	1.721	1.788	1.596	1.380	1.485	1.380	1.564	1.599	1.559	1.303	1.269	1.131	1.019	0.893	0.961	0.747	0.771	0.633	0.612	0.695	0.807	0.952	1.089	1.422	1.679	2.176	2.488	2.652	2.879	2.897	2.711	2.333	1.877	1.470	1.283	1.023	0.833	0.770	0.753	0.709
350.0	527.1	423.8	305.3	204.2	136.3	95.76	102.9	149.6	230.2	339.0	415.4	397.3	275.4	159.1	85.92	51.45	50.59	114.6	194.8	108.5	26.09	22.61	49.68	255.6	1120	2548	2651	207.0	11.99	2.391	1.758	1.581	1.729	2.113	2.313	1.862	1.697	1.499	1.423	1.279	1.099	1.149	1.144	1.188	1.256	1.230	1.093	1.071	0.976	0.851	0.701	0.825	0.623	0.621	0.515	0.505	0.596	0.642	0.755	0.943	1.173	1.311	1.598	1.865	1.881	2.054	2.004	1.969	1.794	1.470	1.251	1.057	0.915	0.743	0.642	0.679	0.650
355.0	399.4	324.6	241.0	159.8	106.0	77.33	78.07	110.4	165.2	239.3	292.8	288.7	204.2	124.7	71.60	43.90	33.74	44.86	86.84	183.0	68.02	19.96	20.81	65.33	257.3	597.7	1675	3003	350.0	12.08	2.469	1.842	1.706	1.921	1.973	1.661	1.406	1.308	1.217	0.959	0.930	0.903	0.986	1.054	1.063	1.003	0.917	0.863	0.750	0.657	0.593	0.668	0.593	0.482	0.481	0.482	0.570	0.536	0.643	0.800	0.907	1.023	1.186	1.480	1.561	1.596	1.564	1.546	1.473	1.217	0.924	0.883	0.843	0.630	0.563	0.529	0.520
360.0	346.5	278.5	208.7	142.3	94.17	66.29	64.02	88.71	131.2	187.1	226.0	226.2	164.8	105.4	64.42	40.89	30.26	27.75	38.54	115.4	166.1	49.17	15.72	22.98	65.32	140.7	433.3	2077	2876	291.6	5.339	2.568	1.758	1.954	1.933	1.574	1.460	1.087	1.033	0.923	0.910	0.881	0.838	0.849	0.908	0.913	0.828	0.745	0.722	0.579	0.524	0.539	0.515	0.418	0.413	0.438	0.465	0.454	0.550	0.643	0.777	0.843	1.027	1.112	1.319	1.136	1.334	1.193	1.135	0.993	0.813	0.751	0.679	0.629	0.592	0.512	0.484
365.0	292.4	232.3	180.5	127.9	80.51	60.26	58.24	74.50	107.0	149.6	177.0	184.2	139.0	93.71	58.11	38.61	30.24	24.69	25.80	50.44	148.7	129.8	27.63	14.18	21.83	37.76	103.9	579.3	2452	2555	44.26	3.606	2.071	2.002	1.835	1.630	1.352	0.975	0.934	0.816	0.836	0.745	0.741	0.839	0.741	0.746	0.759	0.780	0.669	0.591	0.518	0.476	0.527	0.452	0.453	0.362	0.481	0.449	0.542	0.583	0.659	0.745	0.866	0.899	1.012	0.887	1.114	1.029	0.910	0.871	0.670	0.646	0.642	0.611	0.538	0.550	0.481
370.0	231.4	197.8	157.2	107.6	71.95	55.54	51.31	60.94	84.80	113.2	139.6	142.6	112.1	80.78	52.36	37.96	30.51	24.92	23.72	28.11	63.56	128.8	95.62	27.70	13.03	14.96	29.02	135.6	668.8	1878	2166	716.6	12.68	2.483	1.979	1.466	1.218	1.066	0.945	0.826	0.792	0.737	0.656	0.691	0.694	0.738	0.613	0.697	0.611	0.519	0.493	0.505	0.476	0.439	0.405	0.359	0.412	0.412	0.491	0.471	0.561	0.556	0.671	0.749	0.885	0.744	0.856	0.850	0.822	0.698	0.607	0.675	0.601	0.528	0.495	0.484	0.450
375.0	200.9	175.8	137.6	97.14	63.70	46.82	45.57	51.56	65.32	86.98	105.7	113.6	89.70	66.40	48.42	37.72	31.02	26.98	24.66	24.33	29.96	54.73	120.3	95.06	19.41	9.615	11.95	35.42	153.9	434.3	1149	2650	316.1	12.59	2.108	1.637	1.250	1.167	0.889	0.812	0.820	0.742	0.703	0.616	0.607	0.677	0.564	0.696	0.506	0.516	0.475	0.484	0.375	0.401	0.392	0.370	0.367	0.369	0.430	0.432	0.431	0.513	0.527	0.673	0.711	0.654	0.747	0.761	0.711	0.627	0.608	0.651	0.492	0.486	0.494	0.483	0.474
380.0	180.7	158.8	134.2	88.90	59.43	46.90	44.11	46.43	58.19	71.50	88.69	92.95	77.68	61.99	44.44	37.65	31.08	27.75	24.76	23.60	23.28	28.18	67.82	130.9	48.97	10.36	7.629	12.60	38.74	101.5	288.9	1579	2127	256.4	6.085	1.971	1.398	1.106	1.006	0.715	0.654	0.745	0.765	0.674	0.563	0.635	0.580	0.592	0.598	0.475	0.453	0.451	0.408	0.424	0.409	0.354	0.394	0.390	0.433	0.406	0.422	0.475	0.496	0.581	0.706	0.592	0.600	0.665	0.573	0.585	0.597	0.654	0.505	0.455	0.465	0.421	0.467
385.0	160.2	141.6	121.6	87.10	61.34	44.66	41.34	41.71	49.07	61.94	77.56	78.76	66.32	55.50	41.69	36.14	30.77	28.10	26.06	24.02	21.29	20.50	32.31	93.36	105.0	27.06	6.834	7.052	12.58	27.16	69.11	419.0	1588	1762	38.11	2.794	1.594	1.052	0.933	0.705	0.684	0.652	0.719	0.664	0.546	0.580	0.562	0.510	0.602	0.419	0.439	0.380	0.471	0.366	0.361	0.321	0.409	0.415	0.370	0.377	0.386	0.431	0.387	0.542	0.594	0.600	0.586	0.547	0.523	0.506	0.554	0.518	0.540	0.461	0.476	0.435	0.404
390.0	150.7	133.5	107.2	77.16	57.03	42.55	39.43	37.33	42.43	51.89	64.79	65.82	57.41	49.72	38.68	34.50	30.74	28.93	26.21	23.81	21.57	18.93	20.23	38.15	85.26	74.66	24.24	6.301	6.360	9.642	18.98	97.47	415.8	1145	1544	489.8	11.37	1.388	1.120	0.862	0.750	0.741	0.771	0.620	0.552	0.565	0.491	0.565	0.531	0.414	0.430	0.392	0.363	0.420	0.372	0.334	0.406	0.371	0.353	0.362	0.403	0.408	0.409	0.476	0.461	0.530	0.514	0.469	0.487	0.513	0.554	0.480	0.537	0.498	0.493	0.510	0.456
395.0	136.5	125.8	99.72	68.89	54.31	42.40	36.93	33.04	34.80	41.80	49.65	55.35	50.35	43.25	34.70	33.14	30.86	28.16	26.56	23.18	20.88	17.84	16.95	18.15	32.50	74.62	74.95	16.74	4.520	5.122	7.448	24.81	95.78	263.0	752.6	1607	262.5	12.77	1.254	1.071	0.882	0.725	0.778	0.669	0.588	0.518	0.495	0.525	0.535	0.434	0.404	0.378	0.410	0.404	0.372	0.326	0.416	0.328	0.336	0.416	0.358	0.397	0.412	0.417	0.415	0.373	0.458	0.495	0.444	0.446	0.379	0.507	0.409	0.426	0.419	0.550	0.555
400.0	132.1	117.9	99.53	68.54	53.00	39.70	35.75	30.89	31.50	38.20	44.49	47.31	45.39	40.67	34.19	31.56	29.98	27.80	25.58	22.92	19.79	16.99	15.20	13.31	15.13	37.72	87.48	45.63	7.780	4.167	4.336	8.458	24.13	61.38	185.8	907.0	1403	223.6	5.210	1.182	0.836	0.798	0.652	0.699	0.581	0.606	0.505	0.577	0.506	0.416	0.379	0.397	0.450	0.392	0.362	0.332	0.366	0.304	0.329	0.424	0.319	0.361	0.400	0.347	0.422	0.386	0.407	0.475	0.461	0.442	0.388	0.457	0.391	0.361	0.423	0.512	0.582
405.0	110.3	101.5	90.33	67.87	51.65	38.08	31.56	31.21	30.32	34.66	38.36	42.70	40.09	37.66	32.41	29.99	29.44	26.87	24.69	22.22	19.67	16.37	14.62	11.81	11.04	16.64	55.88	78.09	24.83	4.310	3.387	4.436	7.891	16.14	44.59	237.9	999.8	1278	33.72	2.275	1.007	0.881	0.855	0.606	0.573	0.567	0.513	0.509	0.457	0.385	0.392	0.427	0.419	0.391	0.318	0.302	0.324	0.291	0.350	0.370	0.325	0.296	0.339	0.331	0.378	0.389	0.340	0.428	0.484	0.485	0.417	0.510	0.458	0.399	0.406	0.441	0.498
410.0	101.5	90.91	82.57	67.53	48.45	34.39	29.37	28.34	27.42	30.67	35.27	36.01	35.47	33.30	30.10	27.81	27.18	25.32	22.88	20.67	18.62	15.00	13.17	10.88	9.189	9.437	20.99	54.22	59.62	21.55	4.083	3.155	4.217	6.009	12.23	55.70	258.9	810.1	994.9	339.3	10.22	1.102	0.798	0.667	0.618	0.558	0.520	0.490	0.463	0.414	0.415	0.426	0.371	0.332	0.340	0.280	0.351	0.288	0.331	0.322	0.315	0.339	0.317	0.318	0.360	0.321	0.341	0.366	0.397	0.408	0.377	0.436	0.414	0.382	0.417	0.413	0.398
415.0	92.28	87.22	82.86	64.94	42.60	32.94	25.85	24.29	23.75	27.69	31.18	31.55	29.75	30.39	29.20	26.73	25.93	23.67	20.47	19.56	16.76	14.60	12.36	10.20	8.478	7.031	9.201	18.56	49.56	57.13	15.24	2.989	2.815	3.289	4.951	14.31	59.46	186.0	471.1	1053	234.7	10.64	0.926	0.695	0.662	0.575	0.514	0.477	0.484	0.399	0.377	0.361	0.310	0.382	0.261	0.302	0.316	0.323	0.314	0.290	0.361	0.304	0.297	0.290	0.318	0.331	0.401	0.327	0.443	0.342	0.300	0.432	0.384	0.383	0.372	0.366	0.353
