Sample:	'1
File name:	G2025090903月河六路西034雨水井.FD3
Run date:	'14:11:32, 09/10/2025
Operator:	Administrator
Comment:	'

Instrument
Model:	F-2700 FL Spectrophotometer
Serial number:	24D1-003
ROM Version:	4J14000 07

Instrument parameters
Measurement type:	3-D scan
Data mode:	Fluorescence
EX  Start WL:	220.0 nm
EX  End WL:	600.0 nm
EX Sampling interval:	5.0 nm
EM  Start WL:	230.0 nm
EM  End WL:	650.0 nm
EM Sampling interval:	5.0 nm
Scan speed:	12000 nm/min
EX Slit:	5.0 nm
EM Slit:	5.0 nm
PMT Voltage:	700 V
Response:	Auto 
Corrected spectra:	Off
Contour interval:	50.000

Peak integration
Integration method:	Rectangular
Sensitivity:	1
Threshold:	1.000

Peaks
No.	ApexEX/EM(nm)	Height(Data)
1	225.0/595.0	35.33
2	225.0/605.0	34.03
3	230.0/340.0	1027
4	230.0/575.0	34.12
5	235.0/350.0	974.8
6	235.0/515.0	198.9
7	240.0/265.0	376.8
8	240.0/525.0	202.9
9	245.0/270.0	380.7
10	245.0/400.0	592.3
11	245.0/540.0	179.2
12	250.0/275.0	473.3
13	250.0/415.0	558.7
14	250.0/445.0	590.5
15	250.0/550.0	156.9
16	255.0/280.0	616.9
17	255.0/440.0	579.4
18	255.0/560.0	140.3
19	260.0/285.0	633.9
20	260.0/575.0	116.9
21	265.0/585.0	118.2
22	270.0/300.0	1243
23	270.0/600.0	113.1
24	275.0/305.0	1557
25	275.0/610.0	114.2
26	280.0/310.0	1411
27	280.0/620.0	96.37
28	285.0/315.0	1233
29	285.0/635.0	69.67
30	290.0/325.0	1088
31	295.0/330.0	895.3
32	300.0/335.0	802.9
33	305.0/340.0	724.2
34	315.0/355.0	466.8
35	320.0/360.0	483.4
36	325.0/365.0	452.1
37	335.0/380.0	428.6
38	340.0/385.0	399.3
39	350.0/400.0	336.0
40	355.0/405.0	325.2
41	365.0/420.0	262.7
42	370.0/425.0	242.1
43	415.0/485.0	52.59
44	430.0/505.0	30.97
45	445.0/525.0	18.14
46	455.0/540.0	12.04
47	465.0/555.0	7.431
48	470.0/560.0	6.561
49	475.0/340.0	3.583
50	480.0/350.0	3.568
51	485.0/265.0	2.315
52	500.0/270.0	2.222
53	505.0/275.0	2.919
54	505.0/445.0	2.778
55	510.0/280.0	3.476
56	520.0/285.0	3.883
57	530.0/290.0	3.920
58	540.0/295.0	5.564
59	545.0/300.0	6.033
60	555.0/305.0	6.945
61	560.0/310.0	6.469
62	570.0/315.0	5.884
63	580.0/320.0	5.738
64	585.0/325.0	6.113

Data points
	220.0	225.0	230.0	235.0	240.0	245.0	250.0	255.0	260.0	265.0	270.0	275.0	280.0	285.0	290.0	295.0	300.0	305.0	310.0	315.0	320.0	325.0	330.0	335.0	340.0	345.0	350.0	355.0	360.0	365.0	370.0	375.0	380.0	385.0	390.0	395.0	400.0	405.0	410.0	415.0	420.0	425.0	430.0	435.0	440.0	445.0	450.0	455.0	460.0	465.0	470.0	475.0	480.0	485.0	490.0	495.0	500.0	505.0	510.0	515.0	520.0	525.0	530.0	535.0	540.0	545.0	550.0	555.0	560.0	565.0	570.0	575.0	580.0	585.0	590.0	595.0	600.0
230.0	29.86	320.1	986.2	272.8	14.83	7.834	6.029	5.466	5.020	4.388	3.962	3.979	2.875	2.756	2.236	2.094	1.850	1.543	1.299	1.355	1.158	1.219	1.118	1.001	1.012	0.927	0.899	0.812	0.838	0.816	0.772	0.704	0.614	0.619	0.588	0.522	0.552	0.583	0.556	0.453	0.498	0.508	0.471	0.503	0.473	0.464	0.571	1.322	2.847	2.790	1.249	0.517	0.387	0.367	0.452	0.437	0.448	0.389	0.433	0.401	0.457	0.427	0.401	0.433	0.425	0.469	0.424	0.422	0.453	0.500	0.456	0.434	0.492	0.484	0.452	0.455	0.498
235.0	38.56	102.4	802.4	1714	398.1	24.18	7.866	5.875	5.401	5.099	4.494	3.511	3.192	3.243	2.369	2.308	1.947	1.541	1.758	1.362	1.505	1.105	1.112	1.152	0.981	0.895	0.803	0.717	0.775	0.802	0.801	0.669	0.656	0.581	0.538	0.595	0.575	0.672	0.516	0.415	0.543	0.554	0.645	0.630	0.524	0.459	0.418	0.670	1.294	2.788	4.707	5.267	3.730	0.929	0.452	0.311	0.478	0.436	0.495	0.410	0.438	0.485	0.430	0.443	0.446	0.486	0.501	0.403	0.541	0.507	0.458	0.428	0.439	0.474	0.388	0.514	0.541
240.0	61.15	58.15	257.4	1665	2271	314.9	12.61	5.831	4.934	5.499	4.425	4.652	3.998	3.146	2.332	2.361	1.846	1.511	1.582	1.235	1.201	1.162	1.164	1.118	0.906	0.768	1.003	0.943	0.894	0.818	0.854	0.643	0.678	0.520	0.606	0.641	0.590	0.595	0.528	0.444	0.558	0.509	0.554	0.595	0.548	0.540	0.519	0.502	0.652	1.107	2.738	6.835	9.531	7.023	2.569	0.523	0.424	0.335	0.475	0.392	0.397	0.461	0.466	0.454	0.367	0.445	0.420	0.411	0.448	0.476	0.399	0.382	0.478	0.554	0.501	0.482	0.442
245.0	66.26	101.5	96.58	578.2	2509	2399	240.1	7.564	6.507	5.359	4.622	4.859	3.667	2.638	2.630	2.235	1.645	1.576	1.481	1.327	1.132	0.990	1.015	1.113	1.025	0.887	0.821	0.890	0.792	0.804	0.916	0.636	0.709	0.621	0.614	0.572	0.689	0.573	0.489	0.555	0.467	0.505	0.528	0.482	0.532	0.558	0.649	0.577	0.522	0.591	0.843	2.614	6.025	10.66	11.31	6.028	1.618	0.490	0.484	0.379	0.427	0.466	0.391	0.439	0.455	0.466	0.458	0.460	0.446	0.472	0.488	0.462	0.494	0.466	0.504	0.435	0.505
250.0	39.30	96.33	179.3	204.7	787.7	2284	2697	923.4	46.27	6.546	5.523	4.962	3.692	2.974	2.849	2.388	2.015	1.548	1.559	1.300	1.243	1.225	1.025	1.084	1.034	0.956	0.976	0.844	0.995	0.729	0.908	0.672	0.669	0.695	0.585	0.514	0.579	0.538	0.528	0.626	0.464	0.502	0.537	0.436	0.451	0.490	0.480	0.656	0.857	0.872	0.749	0.931	1.806	3.403	6.320	8.600	10.72	8.750	5.205	1.753	0.527	0.484	0.437	0.414	0.467	0.516	0.497	0.361	0.445	0.499	0.460	0.435	0.514	0.512	0.516	0.510	0.562
255.0	26.85	37.30	144.5	303.0	260.1	568.5	1865	3767	1219	39.89	6.018	5.121	4.401	3.622	2.666	2.251	2.216	1.914	1.512	1.353	1.419	1.244	1.176	1.056	1.063	1.047	0.968	0.989	0.980	0.876	0.764	0.763	0.587	0.693	0.632	0.588	0.533	0.483	0.581	0.629	0.554	0.577	0.533	0.490	0.496	0.473	0.474	0.527	0.498	0.828	1.264	1.619	1.162	1.198	1.813	2.316	3.788	7.488	13.81	14.25	7.520	1.872	0.517	0.451	0.470	0.547	0.504	0.355	0.538	0.479	0.439	0.468	0.464	0.573	0.539	0.437	0.631
260.0	30.02	22.33	60.74	287.4	306.8	178.3	544.0	2795	3739	248.2	17.84	6.483	4.927	3.093	2.736	2.266	2.319	1.912	1.585	1.496	1.315	1.337	1.231	1.088	1.210	1.057	0.912	0.953	0.819	0.955	0.885	0.703	0.796	0.768	0.646	0.499	0.635	0.505	0.557	0.609	0.549	0.587	0.498	0.441	0.466	0.401	0.455	0.568	0.440	0.460	0.831	1.808	1.767	1.325	0.806	0.810	1.257	2.354	5.828	12.32	17.25	13.51	5.138	0.949	0.516	0.471	0.456	0.330	0.408	0.448	0.464	0.461	0.321	0.459	0.547	0.504	0.647
265.0	29.68	20.02	28.08	131.1	376.8	245.2	154.7	862.2	3330	3513	198.1	9.503	5.347	4.037	3.377	2.914	2.154	2.015	1.511	1.329	1.273	1.403	1.289	1.196	1.237	1.018	0.911	1.110	0.789	0.766	0.832	0.801	0.845	0.695	0.672	0.575	0.613	0.540	0.570	0.506	0.523	0.520	0.520	0.470	0.526	0.411	0.425	0.383	0.420	0.301	0.529	0.916	1.639	2.315	1.880	0.872	0.705	0.954	1.876	3.740	8.703	15.96	20.14	11.68	2.915	0.644	0.451	0.355	0.385	0.488	0.461	0.463	0.372	0.453	0.515	0.460	0.591
270.0	30.04	23.62	23.54	41.46	167.4	380.7	271.0	239.2	968.8	2802	3007	824.7	55.47	5.145	4.457	3.213	2.498	2.144	1.682	1.607	1.456	1.387	1.124	1.114	1.029	1.090	1.061	0.960	0.996	0.860	0.925	0.823	0.786	0.677	0.653	0.543	0.696	0.520	0.538	0.449	0.534	0.548	0.542	0.495	0.564	0.494	0.452	0.431	0.461	0.351	0.389	0.528	0.736	1.173	1.839	2.119	2.222	1.357	0.987	1.317	2.403	4.754	8.953	13.68	16.01	14.74	8.681	2.807	0.571	0.517	0.519	0.462	0.435	0.540	0.499	0.497	0.540
275.0	31.76	41.90	33.56	27.34	50.35	156.0	473.3	321.0	266.2	698.0	1817	4971	1263	62.85	4.921	3.501	3.086	2.541	2.072	1.711	1.535	1.433	1.017	1.239	1.022	0.994	1.121	0.924	0.943	0.856	0.873	0.810	0.825	0.638	0.582	0.557	0.708	0.491	0.651	0.497	0.456	0.540	0.579	0.538	0.545	0.483	0.457	0.537	0.608	0.415	0.347	0.414	0.612	0.605	0.845	1.049	1.926	2.919	2.690	1.377	1.170	1.568	2.545	3.630	5.055	9.837	19.35	23.31	13.13	2.558	0.586	0.558	0.488	0.471	0.490	0.479	0.620
280.0	46.75	58.61	52.20	36.73	28.87	56.38	267.6	616.9	246.2	225.2	547.6	2965	5460	904.6	30.15	4.513	3.407	2.792	2.098	1.899	1.627	1.358	1.159	1.140	1.111	1.109	0.987	0.924	0.977	0.816	0.753	0.733	0.890	0.699	0.625	0.656	0.700	0.576	0.698	0.529	0.505	0.548	0.570	0.555	0.540	0.570	0.507	0.572	0.632	0.456	0.318	0.555	0.509	0.492	0.519	0.544	0.884	1.816	3.476	3.408	1.970	1.011	1.178	1.407	1.813	2.913	6.884	16.33	25.26	21.21	8.045	1.382	0.536	0.483	0.448	0.646	0.594
285.0	60.61	101.5	98.47	59.22	31.44	38.67	108.7	480.3	633.9	223.9	265.2	925.0	3585	4949	653.3	11.29	4.178	2.927	2.214	1.838	1.716	1.543	1.280	1.346	1.157	1.154	1.085	1.092	0.888	0.999	0.882	0.832	0.804	0.672	0.593	0.622	0.615	0.596	0.605	0.510	0.463	0.587	0.599	0.578	0.580	0.696	0.500	0.576	0.627	0.501	0.528	0.540	0.465	0.510	0.469	0.562	0.549	0.985	1.632	3.132	3.883	2.794	1.467	1.093	1.269	1.601	2.395	4.872	10.57	20.57	26.42	17.18	4.217	0.670	0.501	0.520	0.529
290.0	90.56	156.5	163.2	91.59	52.49	51.01	76.71	217.9	592.3	731.1	412.1	470.7	1100	2815	3965	1664	38.69	4.040	2.779	2.256	2.024	1.782	1.394	1.329	1.178	1.074	1.057	1.098	0.973	0.938	0.966	0.749	0.741	0.709	0.568	0.598	0.632	0.611	0.576	0.612	0.603	0.572	0.623	0.628	0.598	0.709	0.650	0.803	0.928	0.681	0.606	0.611	0.521	0.548	0.598	0.588	0.615	0.909	1.030	1.494	2.343	3.485	3.920	3.187	2.233	1.836	1.889	2.349	3.641	6.152	10.63	16.65	20.50	18.16	10.92	3.258	0.714
295.0	110.5	207.1	211.3	133.2	72.72	75.85	97.38	172.8	339.3	757.5	1036	552.4	556.8	802.4	1441	4372	776.4	46.21	4.159	2.920	2.098	2.096	1.538	1.383	1.410	1.032	1.108	0.956	1.041	1.150	0.922	0.841	0.713	0.785	0.644	0.601	0.606	0.641	0.504	0.589	0.642	0.618	0.500	0.637	0.639	0.760	0.833	1.079	1.192	0.933	0.755	0.740	0.671	0.636	0.729	0.653	0.786	0.906	0.959	1.219	1.568	2.049	2.704	4.122	5.564	3.993	2.738	2.292	2.266	2.982	3.432	4.625	5.892	10.77	22.24	27.36	15.18
300.0	133.3	233.2	251.5	157.5	101.7	106.8	133.7	202.6	328.1	595.6	1243	1024	569.2	434.3	475.6	1985	4444	630.9	27.39	3.795	2.587	2.122	1.866	1.405	1.456	0.989	1.284	1.232	1.051	0.860	0.909	0.914	0.771	0.729	0.673	0.593	0.555	0.590	0.556	0.570	0.549	0.708	0.513	0.592	0.664	0.728	1.017	1.095	1.219	1.021	0.888	0.941	0.772	0.855	0.886	0.679	0.794	1.011	1.071	1.290	1.546	2.032	2.354	3.154	4.652	6.033	5.327	3.500	2.558	2.446	2.274	2.244	2.187	3.431	7.575	17.92	29.73
305.0	135.2	253.3	268.0	184.4	136.3	140.7	197.3	291.3	433.6	654.9	1069	1557	970.1	510.6	382.8	674.3	2617	4272	480.8	12.10	3.128	2.169	1.714	1.500	1.423	1.321	0.982	1.250	1.080	0.949	1.036	0.851	0.758	0.749	0.756	0.597	0.507	0.620	0.564	0.639	0.488	0.684	0.548	0.501	0.645	0.841	0.989	1.054	1.363	1.161	0.906	0.946	0.910	0.849	0.823	0.891	1.144	1.375	1.399	1.658	2.007	2.533	2.751	3.098	3.801	5.064	6.684	6.945	4.536	3.479	2.658	2.213	2.044	2.419	3.003	5.550	11.88
310.0	130.8	254.4	285.0	207.9	163.8	183.7	254.5	362.1	502.4	703.2	934.6	1281	1411	833.8	453.0	410.1	846.1	2282	3233	1360	29.13	3.538	2.587	1.896	1.529	1.279	1.230	1.196	1.251	0.887	1.039	0.854	0.894	0.638	0.823	0.652	0.551	0.536	0.613	0.630	0.544	0.639	0.641	0.599	0.656	0.769	0.974	1.120	1.364	1.159	0.973	1.077	1.038	0.982	0.986	1.012	1.393	1.589	1.669	1.913	2.248	2.847	2.985	3.476	3.859	4.378	4.964	6.072	6.469	6.164	4.229	3.038	2.435	2.373	2.373	2.777	4.221
315.0	135.4	267.1	311.5	236.2	199.0	223.1	283.4	400.0	518.1	702.9	889.9	1043	1137	1233	716.1	402.0	447.7	716.2	1150	3432	1842	36.11	3.481	2.447	1.714	1.620	1.325	1.210	1.331	1.041	1.215	0.907	0.743	0.835	0.690	0.667	0.461	0.593	0.506	0.605	0.562	0.732	0.657	0.682	0.763	0.788	0.921	1.177	1.183	1.250	1.032	1.167	1.144	1.099	1.213	1.261	1.414	1.719	1.916	2.095	2.461	2.664	3.006	3.474	3.578	4.146	4.423	4.609	4.684	5.326	5.884	5.584	3.476	2.682	2.413	2.287	2.638
320.0	148.0	344.9	432.9	303.7	238.8	250.2	323.5	417.6	549.4	722.1	899.5	1020	1019	1117	1068	522.6	397.2	392.2	356.8	1507	3664	484.1	22.16	2.999	2.234	1.765	1.425	1.342	1.316	1.182	1.115	0.960	0.913	0.782	0.723	0.838	0.675	0.635	0.512	0.570	0.605	0.609	0.550	0.683	0.763	0.871	1.017	1.354	1.652	1.446	1.191	1.305	1.320	1.216	1.298	1.210	1.751	1.764	2.008	2.326	2.738	2.681	3.176	3.569	3.738	3.873	3.976	4.554	4.452	4.587	4.790	5.594	5.738	4.259	3.135	2.523	2.648
325.0	170.2	458.6	623.9	444.4	291.7	273.3	347.0	437.6	565.0	742.5	905.0	1012	998.6	929.8	1088	796.4	422.2	331.2	193.9	425.7	1988	3196	387.4	10.04	2.727	1.787	1.536	1.414	1.123	1.270	1.161	1.026	0.892	0.769	0.747	0.803	0.665	0.668	0.651	0.573	0.555	0.578	0.551	0.616	0.759	0.942	1.264	1.778	2.196	2.001	1.595	1.795	1.741	1.366	1.541	1.363	1.717	1.887	1.944	2.259	2.662	2.772	3.152	3.498	3.825	3.916	4.322	4.342	4.387	4.456	4.126	4.367	5.348	6.113	4.870	3.279	2.589
330.0	191.6	509.6	788.6	655.2	440.3	345.9	363.2	443.2	554.2	710.6	860.9	975.6	962.0	863.4	845.0	895.3	669.9	362.7	191.0	191.8	539.9	1665	2544	1103	24.81	2.959	1.956	1.593	1.276	1.310	1.002	0.952	0.920	0.775	0.722	0.746	0.668	0.669	0.627	0.571	0.592	0.665	0.631	0.662	0.787	1.023	1.393	1.970	2.562	2.568	2.253	2.405	2.178	1.844	1.761	1.629	1.823	1.969	2.095	2.308	2.595	2.745	3.014	3.379	3.498	3.823	4.063	4.122	4.139	4.291	4.033	3.768	4.223	4.678	4.840	4.964	4.067
335.0	206.6	597.1	965.8	867.8	632.9	443.6	394.4	458.8	555.1	693.0	835.4	953.0	949.8	863.3	774.7	713.2	802.9	580.0	250.7	178.3	222.4	444.7	924.9	2826	1530	32.41	2.864	2.310	1.425	1.206	1.018	1.012	1.074	0.940	0.742	0.776	0.592	0.638	0.573	0.549	0.715	0.604	0.599	0.665	0.831	1.009	1.377	2.288	2.929	3.197	3.065	3.088	2.858	2.665	2.184	1.770	1.947	1.823	2.047	2.126	2.474	2.760	2.965	3.182	3.502	3.799	3.887	3.920	4.099	4.194	3.775	3.855	4.213	3.839	3.692	4.013	4.649
340.0	215.8	600.6	1027	955.9	718.5	494.4	415.3	462.5	547.0	675.4	808.2	900.2	917.0	843.7	753.6	650.7	653.3	724.2	369.7	200.7	171.5	186.9	277.7	1294	3002	407.3	19.56	2.396	1.632	1.630	1.240	1.200	0.956	1.019	0.730	0.768	0.733	0.845	0.688	0.644	0.565	0.548	0.635	0.602	0.797	0.967	1.378	2.492	3.379	3.463	3.250	3.583	3.252	2.916	2.351	1.971	2.037	1.921	2.085	2.159	2.368	2.859	2.731	3.045	3.219	3.664	3.570	3.950	4.065	4.036	3.996	3.852	4.044	3.593	3.688	3.456	3.778
345.0	199.1	566.8	1009	972.2	732.9	514.0	414.8	448.9	528.0	641.4	754.3	834.8	860.3	798.5	721.1	612.0	541.3	629.5	543.7	253.5	173.4	145.0	139.0	365.3	1688	2537	332.6	8.447	2.248	1.724	1.270	1.180	0.854	1.052	0.813	0.681	0.742	0.808	0.775	0.620	0.636	0.535	0.612	0.680	0.781	0.986	1.462	2.275	3.168	3.316	3.034	3.513	3.412	2.866	2.586	2.179	1.878	2.019	2.171	2.253	2.220	2.664	2.589	3.125	3.231	3.495	3.500	3.722	3.793	3.813	3.796	3.775	3.891	3.410	3.072	3.044	3.157
350.0	184.3	521.6	930.0	974.8	769.6	541.8	434.8	450.3	506.9	605.1	691.0	763.5	782.3	741.8	679.2	587.8	503.7	479.8	517.9	440.9	239.2	163.8	134.4	155.9	453.4	1357	1987	851.3	21.81	2.382	1.614	1.426	1.043	0.988	0.806	0.768	0.680	0.782	0.675	0.670	0.577	0.593	0.619	0.689	0.712	0.910	1.277	2.128	2.765	3.003	3.001	3.506	3.568	2.965	2.570	2.168	2.066	2.041	2.163	2.222	2.402	2.553	2.692	2.784	2.920	3.025	3.102	3.208	3.380	3.616	3.581	3.593	3.333	3.461	3.176	3.079	3.085
355.0	170.9	474.4	837.8	928.2	781.5	576.8	463.4	456.4	507.7	581.0	657.9	705.6	723.7	692.4	644.5	562.6	493.1	438.5	399.6	466.8	415.7	222.4	161.4	136.1	169.7	349.3	734.4	2191	1222	24.53	2.369	1.712	1.207	1.044	1.018	0.833	0.921	0.764	0.691	0.777	0.592	0.565	0.688	0.693	0.683	1.045	1.154	1.799	2.542	2.710	2.862	3.416	3.271	3.186	2.628	2.203	2.350	2.158	2.153	2.386	2.314	2.480	2.638	2.691	2.765	2.789	2.922	3.007	3.029	3.283	3.069	3.410	3.169	3.034	3.328	3.252	3.043
360.0	146.6	428.7	771.9	870.4	749.2	584.9	470.6	461.1	497.7	557.3	617.1	667.2	678.5	652.6	612.3	546.7	483.8	434.3	380.2	387.8	483.4	329.4	192.6	150.7	124.0	138.4	210.2	1008	2429	354.1	13.71	2.047	1.334	1.235	0.907	0.759	0.854	0.759	0.659	0.590	0.609	0.668	0.600	0.711	0.713	0.990	1.156	1.688	2.151	2.647	2.698	3.032	3.375	3.079	2.709	2.456	2.460	2.011	2.196	2.288	2.251	2.441	2.584	2.710	2.865	2.755	2.852	2.828	3.141	3.035	3.113	3.378	3.296	3.030	3.106	3.455	3.117
365.0	136.4	373.1	675.2	777.5	740.6	586.9	484.0	478.2	491.5	546.7	593.5	627.8	633.3	617.4	583.5	530.8	483.3	428.3	383.9	353.7	416.7	452.1	263.5	178.2	135.7	108.7	100.8	278.1	1372	2159	279.1	4.161	1.864	1.506	1.022	0.742	0.855	0.761	0.650	0.692	0.692	0.614	0.676	0.680	0.594	0.809	1.027	1.612	2.049	2.376	2.511	2.946	3.203	3.144	2.556	2.486	2.243	2.192	2.322	2.312	2.350	2.434	2.478	2.874	2.764	2.722	2.792	2.833	2.790	2.860	2.781	2.961	3.065	3.137	3.246	3.165	3.076
370.0	125.2	330.8	606.4	740.0	712.9	602.2	508.2	487.5	499.7	534.4	571.6	594.0	593.3	581.9	558.3	513.0	473.2	435.0	394.2	362.1	360.6	419.5	405.0	256.0	168.0	128.5	97.92	113.7	367.9	1281	1723	574.9	14.73	1.924	1.217	1.011	0.869	0.700	0.714	0.696	0.881	0.640	0.696	0.622	0.722	0.886	1.023	1.462	1.787	2.095	2.229	2.682	3.070	2.798	2.804	2.415	2.403	2.340	2.274	2.436	2.322	2.353	2.381	2.558	2.555	2.632	2.614	2.684	2.659	2.841	2.740	2.786	2.927	2.883	2.939	3.141	3.104
375.0	114.6	296.4	540.4	678.2	675.9	591.6	522.9	505.1	504.1	527.1	554.4	566.4	562.3	552.6	526.7	496.3	462.4	441.6	404.0	381.2	363.2	360.3	404.7	398.4	235.6	162.1	123.6	100.6	130.2	320.7	700.9	1907	328.5	17.45	1.724	1.215	0.989	0.856	0.665	0.750	0.771	0.735	0.596	0.586	0.620	0.780	0.927	1.500	1.612	1.884	2.251	2.668	2.865	2.695	2.661	2.425	2.462	2.355	2.464	2.368	2.427	2.487	2.365	2.597	2.351	2.547	2.535	2.578	2.524	2.566	2.786	2.512	2.859	2.768	2.785	2.806	2.851
380.0	116.5	279.4	490.5	641.7	649.9	586.5	531.1	506.5	506.7	525.9	542.6	556.7	541.7	528.3	508.1	476.6	459.2	435.8	414.4	394.6	374.9	358.1	359.9	428.6	330.1	196.3	148.0	114.4	93.94	114.4	194.3	1067	1738	268.6	7.038	1.615	1.132	0.862	0.772	0.739	0.734	0.802	0.714	0.670	0.583	0.653	0.944	1.269	1.577	1.849	1.984	2.542	2.881	2.587	2.775	2.301	2.405	2.420	2.500	2.156	2.317	2.556	2.422	2.609	2.117	2.365	2.531	2.667	2.523	2.745	2.694	2.496	2.657	2.597	2.808	2.872	3.013
385.0	108.7	269.6	461.1	607.9	648.1	591.7	540.9	521.1	505.3	523.6	528.4	540.8	530.1	508.3	494.1	465.0	448.9	432.2	414.0	400.9	382.3	365.5	348.8	373.9	399.3	262.5	172.9	133.3	101.0	79.98	80.59	297.9	1237	1488	38.81	3.243	1.357	0.976	0.882	0.668	0.823	0.742	0.697	0.685	0.549	0.768	0.786	1.258	1.496	1.744	1.883	2.549	2.849	2.698	2.525	2.341	2.420	2.227	2.438	2.309	2.046	2.378	2.357	2.326	2.286	2.394	2.565	2.430	2.408	2.507	2.616	2.490	2.543	2.806	2.718	2.723	2.832
390.0	108.5	247.8	439.7	578.0	627.7	590.4	547.7	527.0	513.0	523.1	525.9	522.0	513.8	490.4	476.3	450.4	433.4	423.5	411.1	402.8	390.0	373.5	356.3	345.9	365.3	353.7	239.0	162.7	122.9	91.03	68.94	100.2	338.0	950.8	1156	417.2	12.53	1.561	1.132	0.868	0.749	0.658	0.635	0.714	0.643	0.717	0.843	1.133	1.522	1.685	1.767	2.334	2.652	2.572	2.466	2.352	2.516	2.495	2.466	2.407	2.268	2.316	2.333	2.403	2.333	2.342	2.405	2.373	2.341	2.496	2.549	2.389	2.544	2.603	2.726	2.701	2.622
395.0	101.0	231.1	402.1	543.9	597.7	591.1	556.0	535.4	520.5	515.3	524.3	513.3	493.1	475.8	457.3	427.9	418.8	415.7	413.0	400.7	392.4	382.4	362.3	344.9	326.6	337.9	331.3	216.9	148.6	109.9	82.99	68.44	105.5	235.2	533.6	1312	270.3	13.79	1.709	1.001	0.912	0.750	0.790	0.760	0.618	0.756	0.935	1.184	1.472	1.569	1.722	2.246	2.464	2.506	2.393	2.492	2.503	2.464	2.415	2.323	2.345	2.271	2.351	2.286	2.277	2.221	2.230	2.361	2.409	2.476	2.538	2.352	2.485	2.497	2.630	2.425	2.744
400.0	92.53	227.0	399.1	518.3	584.5	592.3	559.2	537.3	522.3	518.7	518.1	504.0	494.1	465.7	438.7	413.1	404.9	405.0	403.6	395.8	387.9	383.1	368.2	348.1	323.1	307.3	336.0	284.2	177.2	129.0	98.45	71.92	61.76	77.90	144.4	720.1	1235	218.4	6.416	1.330	1.164	0.864	0.728	0.738	0.756	0.755	0.834	1.216	1.489	1.651	1.621	2.278	2.289	2.509	2.398	2.390	2.657	2.549	2.472	2.553	2.434	2.341	2.413	2.197	2.203	2.202	2.200	2.370	2.311	2.461	2.305	2.306	2.143	2.587	2.415	2.255	2.667
405.0	91.67	220.0	371.4	502.6	575.3	583.3	562.5	546.6	517.1	517.6	519.5	494.1	480.5	448.4	431.6	407.8	399.1	389.7	388.2	386.7	383.2	378.8	371.6	351.5	325.8	296.5	295.2	325.2	228.5	149.2	113.1	81.81	60.55	49.67	55.78	198.6	847.6	1052	34.92	2.624	1.365	0.954	0.737	0.598	0.646	0.880	0.765	1.249	1.283	1.490	1.588	2.086	2.211	2.335	2.616	2.308	2.720	2.351	2.409	2.574	2.382	2.320	2.401	2.273	2.268	2.399	2.209	2.152	2.115	2.382	2.168	2.290	2.266	2.368	2.356	2.572	2.543
410.0	100.1	215.4	369.0	497.6	568.1	575.3	556.5	542.4	520.2	519.6	507.8	490.6	460.7	429.9	413.6	388.1	380.6	374.0	373.9	372.1	371.5	370.4	361.3	347.1	324.3	295.1	274.1	286.0	284.5	197.1	133.0	97.85	71.49	53.20	43.45	65.68	230.0	658.5	861.9	307.4	10.81	1.231	0.907	0.832	0.745	0.843	0.790	1.170	1.318	1.290	1.619	1.983	2.248	2.254	2.429	2.320	2.646	2.545	2.425	2.417	2.345	2.346	2.283	2.205	2.329	2.349	2.164	2.277	2.059	2.218	2.140	2.206	2.217	2.362	2.232	2.519	2.611
