Sample:	'1
File name:	t2025031912淦清污水厂出水  10倍.FD3
Run date:	'20:44:47, 03/19/2025
Operator:	Administrator
Comment:	'

Instrument
Model:	F-2700 FL Spectrophotometer
Serial number:	23B8-004
ROM Version:	4J14000 07

Instrument parameters
Measurement type:	3-D scan
Data mode:	Fluorescence
EX  Start WL:	220.0 nm
EX  End WL:	600.0 nm
EX Sampling interval:	5.0 nm
EM  Start WL:	230.0 nm
EM  End WL:	650.0 nm
EM Sampling interval:	5.0 nm
Scan speed:	12000 nm/min
EX Slit:	5.0 nm
EM Slit:	5.0 nm
PMT Voltage:	700 V
Response:	Auto 
Corrected spectra:	Off
Contour interval:	50.000

Peak integration
Integration method:	Rectangular
Sensitivity:	1
Threshold:	1.000

Peaks
No.	ApexEX/EM(nm)	Height(Data)
1	225.0/540.0	50.37
2	230.0/340.0	5488
3	230.0/500.0	207.6
4	230.0/635.0	112.6
5	235.0/515.0	173.3
6	240.0/265.0	415.2
7	240.0/525.0	154.6
8	245.0/270.0	403.3
9	245.0/540.0	132.3
10	250.0/275.0	507.1
11	250.0/550.0	115.5
12	255.0/280.0	581.9
13	255.0/565.0	104.1
14	260.0/290.0	512.1
15	260.0/575.0	96.51
16	265.0/585.0	84.93
17	275.0/615.0	185.2
18	280.0/320.0	3137
19	280.0/625.0	170.0
20	285.0/635.0	146.6
21	330.0/375.0	283.3
22	335.0/380.0	252.7
23	345.0/395.0	162.8
24	350.0/400.0	162.0
25	355.0/405.0	144.0
26	365.0/420.0	118.6
27	370.0/425.0	101.9
28	380.0/440.0	73.75
29	385.0/445.0	62.17
30	395.0/460.0	42.18
31	400.0/465.0	37.02
32	410.0/480.0	24.71
33	415.0/485.0	21.99
34	420.0/490.0	18.16
35	425.0/500.0	16.69
36	430.0/505.0	15.13
37	435.0/510.0	12.52
38	440.0/520.0	11.52
39	445.0/525.0	9.905
40	455.0/540.0	7.424
41	465.0/555.0	4.182
42	470.0/560.0	3.457
43	475.0/340.0	18.99
44	485.0/580.0	2.030
45	495.0/270.0	2.365
46	505.0/275.0	3.648
47	510.0/280.0	3.925
48	520.0/285.0	4.110
49	530.0/290.0	3.716
50	570.0/315.0	16.48
51	575.0/320.0	16.35
52	585.0/325.0	15.75

Data points
	220.0	225.0	230.0	235.0	240.0	245.0	250.0	255.0	260.0	265.0	270.0	275.0	280.0	285.0	290.0	295.0	300.0	305.0	310.0	315.0	320.0	325.0	330.0	335.0	340.0	345.0	350.0	355.0	360.0	365.0	370.0	375.0	380.0	385.0	390.0	395.0	400.0	405.0	410.0	415.0	420.0	425.0	430.0	435.0	440.0	445.0	450.0	455.0	460.0	465.0	470.0	475.0	480.0	485.0	490.0	495.0	500.0	505.0	510.0	515.0	520.0	525.0	530.0	535.0	540.0	545.0	550.0	555.0	560.0	565.0	570.0	575.0	580.0	585.0	590.0	595.0	600.0
230.0	79.03	1097	2268	505.4	23.44	8.439	7.642	6.108	5.173	4.925	4.718	4.164	3.504	3.123	2.641	2.273	2.184	1.859	1.457	1.415	1.304	1.206	1.279	1.063	1.029	1.013	0.957	0.889	0.857	0.872	0.841	0.814	0.812	0.687	0.690	0.633	0.609	0.578	0.603	0.651	0.718	0.930	0.842	0.614	0.526	0.539	1.743	5.585	7.912	4.915	1.733	0.568	0.450	0.402	0.414	0.427	0.477	0.407	0.412	0.404	0.427	0.416	0.433	0.437	0.437	0.432	0.409	0.415	0.413	0.408	0.434	0.441	0.403	0.415	0.409	0.437	0.446
235.0	159.4	331.1	1639	2141	481.2	30.88	7.691	6.136	5.220	5.031	5.333	5.047	3.758	3.308	2.929	2.386	2.275	1.975	1.777	1.533	1.299	1.289	1.338	1.002	1.166	0.934	0.891	0.914	0.884	0.867	0.916	0.776	0.753	0.720	0.761	0.698	0.672	0.590	0.635	0.611	0.573	0.684	0.752	0.961	0.739	0.676	0.775	1.837	3.717	6.008	7.947	7.576	3.352	0.912	0.382	0.425	0.448	0.436	0.416	0.404	0.431	0.403	0.399	0.392	0.496	0.444	0.473	0.406	0.437	0.425	0.468	0.428	0.414	0.398	0.443	0.431	0.551
240.0	222.2	189.4	536.0	2038	2279	364.4	17.42	7.587	5.597	5.598	5.344	4.535	3.725	4.301	2.996	2.560	2.430	1.654	1.861	1.519	1.348	1.341	1.298	1.099	1.223	0.957	0.967	1.023	0.958	0.804	0.813	0.886	0.780	0.737	0.756	0.686	0.626	0.605	0.637	0.545	0.536	0.542	0.659	0.760	0.986	1.138	0.849	0.875	1.228	2.108	4.932	11.02	12.68	7.779	2.751	0.715	0.424	0.435	0.411	0.480	0.428	0.421	0.448	0.463	0.563	0.383	0.495	0.413	0.474	0.400	0.417	0.433	0.451	0.402	0.445	0.460	0.522
245.0	174.0	272.6	191.4	758.8	2710	2392	272.0	11.02	7.357	6.274	6.037	4.526	4.518	3.970	3.489	2.453	2.501	1.950	1.583	1.458	1.395	1.320	1.275	1.105	1.061	1.143	0.965	0.867	0.948	0.823	0.955	0.860	0.860	0.730	0.721	0.590	0.667	0.609	0.671	0.593	0.488	0.613	0.614	0.587	0.806	1.119	1.305	1.070	0.728	0.817	1.539	4.128	9.759	15.39	14.08	7.253	1.964	0.551	0.438	0.431	0.435	0.415	0.367	0.415	0.429	0.451	0.404	0.412	0.457	0.504	0.414	0.386	0.440	0.367	0.450	0.410	0.462
250.0	77.65	216.8	279.7	267.4	923.7	2685	3780	1011	51.98	8.288	7.454	5.988	4.708	3.848	3.872	2.686	2.482	2.044	1.997	1.540	1.387	1.328	1.424	1.099	1.078	0.997	0.979	0.938	1.054	0.956	0.916	0.838	0.865	0.782	0.713	0.705	0.681	0.603	0.578	0.589	0.513	0.594	0.575	0.593	0.618	0.732	0.808	1.164	1.296	1.052	0.952	1.318	2.660	5.433	9.444	14.22	17.74	15.58	8.392	2.316	0.546	0.435	0.418	0.431	0.461	0.474	0.452	0.462	0.428	0.463	0.436	0.405	0.445	0.424	0.504	0.446	0.435
255.0	45.13	76.73	214.2	346.0	299.3	709.2	3282	5302	1364	49.05	9.674	7.044	5.442	4.120	3.722	2.761	2.588	2.330	2.145	1.821	1.446	1.446	1.390	1.108	1.168	1.084	1.014	1.029	1.039	1.018	0.943	0.856	0.954	0.763	0.733	0.641	0.676	0.593	0.606	0.593	0.599	0.595	0.616	0.514	0.611	0.560	0.570	0.596	0.789	1.097	1.669	1.566	1.263	1.682	2.527	3.756	7.011	16.62	28.27	26.46	12.53	2.381	0.557	0.415	0.519	0.461	0.461	0.456	0.431	0.416	0.469	0.427	0.508	0.435	0.491	0.438	0.486
260.0	37.59	40.35	93.06	330.1	326.0	212.8	1015	4677	5373	249.8	32.32	9.144	6.276	4.661	4.155	3.144	2.992	2.299	1.941	1.889	1.611	1.531	1.569	1.265	1.190	1.144	1.097	1.127	1.019	0.929	0.928	0.833	0.852	0.822	0.690	0.663	0.678	0.627	0.667	0.566	0.585	0.567	0.650	0.540	0.521	0.508	0.504	0.508	0.530	0.667	1.203	2.145	1.947	1.458	1.024	1.260	2.094	4.775	12.57	28.05	36.93	24.70	9.973	1.362	0.629	0.448	0.477	0.539	0.476	0.410	0.460	0.446	0.488	0.487	0.504	0.536	0.493
265.0	43.73	30.28	41.36	159.3	415.2	245.3	269.6	1616	5821	5288	210.0	15.89	7.672	6.311	4.750	3.735	3.103	3.079	2.248	1.868	1.759	1.606	1.484	1.268	1.209	1.231	1.058	1.142	1.162	0.969	0.996	1.021	0.951	0.781	0.748	0.660	0.689	0.607	0.635	0.620	0.665	0.588	0.664	0.591	0.541	0.548	0.473	0.502	0.529	0.481	0.606	1.215	2.114	2.443	1.727	0.970	0.960	1.528	3.418	8.510	20.40	37.17	32.87	21.63	5.929	0.831	0.553	0.535	0.505	0.435	0.495	0.489	0.495	0.484	0.471	0.487	0.519
270.0	48.81	36.98	34.62	58.32	205.6	403.3	296.4	415.6	1848	5348	9999.9	797.5	51.44	9.351	6.043	4.641	3.976	3.053	2.606	2.075	1.869	1.744	1.547	1.497	1.362	1.280	1.152	1.185	1.224	1.090	1.134	1.056	0.954	0.824	0.827	0.726	0.720	0.738	0.750	0.623	0.646	0.658	0.634	0.576	0.534	0.581	0.515	0.551	0.536	0.454	0.481	0.643	0.957	1.436	2.021	2.365	2.210	1.580	1.278	2.372	5.160	10.81	18.22	30.99	32.98	36.26	15.48	6.259	1.026	0.484	0.542	0.515	0.499	0.475	0.468	0.509	0.519
275.0	70.40	51.30	45.48	37.93	66.16	185.4	507.1	335.4	455.0	1320	6975	9999.9	1170	54.69	9.407	6.184	4.977	3.909	2.981	2.500	2.057	1.902	1.826	1.472	1.317	1.272	1.330	1.132	1.102	1.083	1.136	1.056	0.995	0.942	0.898	0.908	0.749	0.809	0.803	0.765	0.661	0.629	0.626	0.674	0.656	0.619	0.542	0.611	0.528	0.520	0.468	0.473	0.632	0.653	0.918	1.278	2.550	3.648	2.839	1.404	1.612	2.939	4.711	7.530	10.03	24.21	48.19	58.43	25.77	6.798	0.805	0.571	0.580	0.476	0.488	0.521	0.604
280.0	97.92	88.33	65.28	40.20	38.46	71.65	312.8	581.9	256.2	345.5	1937	7119	9545	867.2	26.66	7.961	6.457	4.443	3.427	2.699	2.478	2.025	2.087	1.558	1.247	1.423	1.447	1.181	1.092	1.205	1.058	1.182	0.968	1.028	0.906	0.912	0.894	0.885	0.844	0.828	0.745	0.733	0.821	0.656	0.772	0.686	0.649	0.640	0.639	0.523	0.525	0.493	0.596	0.525	0.656	0.675	1.176	2.468	3.925	3.309	1.729	1.250	1.568	2.238	2.898	6.347	15.95	37.97	66.45	33.82	20.07	3.532	0.636	0.552	0.515	0.565	0.595
285.0	131.4	122.4	94.10	54.21	39.49	43.49	126.7	488.6	509.6	173.8	505.4	2082	8840	7882	122.2	14.26	8.261	5.554	4.267	3.164	2.876	2.329	2.015	1.696	1.386	1.498	1.476	1.377	1.308	1.213	1.290	1.173	0.928	1.116	0.967	1.050	0.953	0.936	0.955	0.919	0.785	0.820	0.798	0.774	0.812	0.840	0.719	0.838	0.704	0.541	0.559	0.596	0.543	0.496	0.572	0.635	0.689	1.124	1.993	3.396	4.110	2.565	1.167	1.148	1.330	2.047	4.286	9.869	24.52	45.73	69.27	31.09	14.56	1.786	0.657	0.591	0.580
290.0	201.4	182.3	143.0	80.50	53.36	46.47	71.55	198.3	512.1	471.6	254.3	558.3	2463	6732	7704	2140	37.67	9.213	6.090	4.142	3.369	2.584	2.356	1.991	1.739	1.765	1.497	1.412	1.319	1.335	1.211	1.177	1.130	1.236	1.250	1.107	1.144	1.106	1.003	1.101	0.860	0.911	0.889	0.944	0.935	0.963	0.946	0.973	0.795	0.633	0.650	0.650	0.622	0.573	0.592	0.614	0.647	0.834	1.045	1.554	2.429	3.268	3.716	3.078	1.772	1.254	1.727	3.028	6.374	11.96	24.26	35.30	50.75	46.04	35.72	11.10	2.203
295.0	295.1	298.1	236.4	139.1	107.1	93.08	118.5	162.9	282.1	616.8	722.5	302.8	695.3	1676	4181	9999.9	732.7	47.47	10.23	5.868	4.277	3.333	2.948	2.398	2.111	1.762	1.582	1.497	1.299	1.575	1.230	1.179	1.257	1.344	1.311	1.270	1.468	1.209	1.192	1.142	1.016	1.261	1.020	1.030	1.187	1.162	1.058	1.230	1.144	1.025	0.925	0.937	0.851	0.876	0.756	0.802	0.942	1.035	1.111	1.299	1.552	1.951	2.612	4.199	5.165	3.640	2.173	1.987	2.762	3.892	6.620	8.920	12.89	20.38	47.30	73.11	33.89
300.0	445.3	531.0	440.7	306.4	251.0	243.0	302.4	328.4	334.6	767.8	1320	1033	777.5	852.7	1437	6523	9999.9	601.3	36.86	9.155	5.227	4.222	3.387	2.530	2.257	1.999	1.985	1.748	1.530	1.564	1.476	1.240	1.324	1.490	1.402	1.536	1.599	1.431	1.413	1.498	1.235	1.351	1.343	1.476	1.649	1.655	1.617	1.899	1.664	1.553	1.389	1.438	1.370	1.349	1.406	1.566	1.705	2.022	2.084	2.370	2.842	3.032	3.371	4.494	6.125	7.308	7.035	5.223	4.289	4.235	4.555	4.931	5.757	7.572	14.84	34.75	63.21
305.0	828.9	915.8	830.1	599.7	498.1	494.9	694.3	892.3	1134	1558	1947	2483	1440	1246	1220	2499	9152	5367	458.6	17.64	7.635	5.457	4.235	3.209	2.718	2.271	2.157	2.017	1.770	1.693	1.635	1.451	1.616	1.553	1.698	1.853	1.986	1.887	1.957	1.945	1.823	1.838	1.979	2.112	2.171	2.584	2.685	3.123	2.823	2.460	2.216	2.527	2.288	2.080	2.348	2.614	3.269	3.967	4.333	4.552	5.339	5.937	6.846	7.821	8.853	10.25	12.26	12.80	11.11	8.913	8.311	7.315	7.849	8.443	9.292	13.12	23.55
310.0	1217	1470	1323	979.6	775.2	797.8	1053	1309	1565	2013	2432	2945	2810	2134	1747	1653	3399	6026	8482	1831	29.88	7.619	5.612	4.052	3.108	2.801	2.330	2.397	1.948	1.952	1.753	1.653	1.538	1.679	1.934	2.007	2.269	2.332	2.344	2.364	2.473	2.414	2.699	2.836	3.111	3.611	4.092	4.576	4.646	3.796	3.369	3.857	3.634	3.470	3.548	3.699	4.630	5.480	6.046	6.363	7.090	7.853	8.998	10.36	11.07	12.13	13.22	14.66	15.31	14.40	13.35	11.51	10.53	10.80	9.817	9.592	11.40
315.0	1600	1985	1896	1377	1058	1047	1294	1520	1727	2176	2637	3036	3111	2902	2167	1621	1879	2009	5164	9999.9	2476	32.02	8.414	5.345	3.886	3.328	3.038	2.561	2.185	2.227	2.094	1.726	1.571	1.782	2.119	2.045	2.530	2.466	2.507	2.612	2.674	3.085	2.935	3.328	3.989	4.916	5.539	6.299	6.043	5.005	4.722	4.999	4.759	4.661	4.822	4.862	5.816	6.672	7.394	7.639	7.890	8.595	9.749	10.95	11.65	13.21	13.63	14.43	15.47	15.27	16.48	16.04	13.73	12.89	10.90	9.745	9.716
320.0	1790	2379	2223	1616	1228	1159	1384	1622	1763	2203	2691	3091	3137	3018	2561	1715	1581	1112	1445	6072	9206	462.9	20.93	7.189	4.829	3.925	3.075	2.672	2.483	2.235	2.075	1.974	1.890	1.807	1.943	2.002	2.495	2.461	2.571	2.867	3.026	3.211	3.340	3.780	4.435	5.860	6.371	7.645	7.346	5.952	5.524	5.788	5.422	5.209	5.391	5.344	6.139	7.165	7.822	8.488	8.609	9.015	9.890	11.19	12.10	13.33	14.29	14.64	15.58	15.00	15.98	16.35	15.96	15.34	12.13	9.900	9.825
325.0	2108	2720	2707	2000	1399	1204	1380	1610	1683	2068	2524	2928	2996	2791	2657	1833	1470	896.3	522.7	1682	7364	7273	355.9	12.70	6.510	4.619	3.789	2.964	2.969	2.534	2.010	2.016	1.891	1.811	2.126	2.118	2.681	2.528	2.556	3.140	3.085	3.295	3.435	4.192	5.118	6.204	7.496	8.663	8.986	7.597	6.641	6.926	6.132	5.682	5.198	5.381	6.160	6.984	7.860	8.259	7.919	8.550	9.270	10.66	11.39	12.35	13.56	14.11	14.81	14.95	15.21	15.00	15.05	15.75	13.71	11.00	9.618
330.0	2501	3486	3863	3168	2266	1542	1405	1542	1571	1893	2324	2736	2842	2629	2416	1980	1559	890.8	405.2	536.8	2055	5662	6811	1507	25.18	6.975	4.753	3.965	3.492	2.965	2.428	2.198	1.928	2.002	2.112	2.210	2.496	2.716	2.669	3.101	3.383	3.446	4.139	4.703	5.687	7.766	8.944	11.40	11.80	11.02	10.30	10.93	9.738	8.522	7.052	6.321	6.286	6.856	7.491	7.833	7.541	7.804	8.671	9.871	10.57	11.57	12.43	13.46	13.81	14.52	14.43	14.57	14.04	14.16	13.52	12.42	11.21
335.0	2967	4371	5181	4859	3781	2251	1579	1565	1559	1803	2211	2644	2807	2682	2408	1980	1819	1130	545.9	415.2	683.5	1468	4732	9057	2098	27.88	6.781	5.318	4.274	3.363	2.781	2.586	2.416	2.265	2.303	2.304	2.654	3.094	3.111	3.315	3.517	4.056	4.629	5.487	7.005	9.051	11.03	13.89	16.05	15.08	15.26	16.97	16.35	14.10	10.72	8.178	7.429	7.319	7.539	7.648	7.572	7.914	8.607	9.271	10.09	11.60	12.46	12.99	13.80	14.33	14.62	14.46	14.24	14.20	13.12	12.37	12.31
340.0	3109	4544	5488	5279	4154	2421	1589	1499	1450	1669	2034	2442	2616	2534	2274	1850	1671	1261	625.1	408.3	397.0	517.9	1358	6013	8133	395.4	14.87	6.444	4.886	3.839	3.099	2.772	2.469	2.320	2.241	2.271	2.585	2.935	2.912	3.299	3.451	4.224	4.673	5.743	7.228	9.360	10.89	14.17	16.55	16.36	16.46	18.99	18.13	15.79	11.61	8.441	7.690	6.931	7.328	7.370	7.263	7.163	7.879	8.663	9.447	10.29	11.33	12.14	12.68	13.34	13.91	14.05	13.81	13.49	12.51	11.78	11.23
345.0	2928	4260	5294	5030	3955	2311	1458	1354	1300	1467	1785	2118	2311	2252	2019	1648	1407	1164	708.3	401.5	319.1	303.2	458.8	1744	7085	6713	55.13	9.248	5.572	4.596	3.267	2.933	2.559	2.300	2.309	2.328	2.636	2.604	2.741	3.040	3.326	3.838	4.696	5.400	6.774	9.052	10.96	13.69	15.70	15.67	15.95	18.45	17.35	15.60	11.02	7.839	7.083	6.659	6.760	6.449	6.370	6.313	7.027	7.767	8.208	8.996	9.782	10.74	11.48	12.14	12.34	12.24	12.16	12.16	11.51	10.51	9.759
350.0	2664	3955	4981	4921	3951	2254	1335	1195	1127	1257	1523	1806	1982	1956	1776	1460	1221	959.2	732.3	505.2	325.3	262.5	272.3	505.0	1999	5643	5266	1291	20.47	5.738	4.081	3.340	2.824	2.485	2.439	2.294	2.414	2.595	2.786	2.868	3.042	3.627	4.317	5.080	6.439	8.182	10.00	13.03	14.73	14.79	15.51	18.05	17.13	14.99	10.88	7.429	6.491	6.139	6.096	5.725	5.530	5.555	6.173	6.674	7.027	7.637	8.549	9.288	9.869	10.64	10.49	10.74	10.75	10.68	10.20	9.263	9.004
355.0	2351	3502	4503	4548	3758	2146	1204	1040	975.4	1071	1287	1520	1657	1659	1532	1276	1067	815.2	595.7	558.5	398.4	259.2	231.1	233.4	494.0	1324	3748	8053	1835	21.43	5.583	4.188	3.097	2.738	2.536	2.299	2.390	2.473	2.672	2.544	2.845	3.284	3.906	4.557	5.391	7.239	8.792	11.43	13.31	13.12	13.88	16.82	16.28	14.24	10.00	6.990	6.287	5.543	5.271	5.124	5.113	5.113	5.135	5.762	6.003	6.810	6.897	8.082	8.176	8.838	8.633	9.175	9.348	9.256	8.588	8.244	7.857
360.0	2067	3050	3795	3942	3280	1880	1064	905.2	852.8	929.2	1090	1282	1398	1409	1298	1094	916.8	698.8	497.5	455.6	446.5	276.8	206.4	162.1	165.6	327.2	991.8	5919	8072	361.7	12.07	5.437	3.879	3.104	2.709	2.313	2.394	2.324	2.576	2.536	2.748	3.089	3.660	4.088	5.022	6.363	7.802	9.988	11.30	11.33	12.18	14.42	14.16	12.19	9.158	6.254	5.278	4.918	4.692	4.640	4.467	4.387	4.705	5.108	5.224	5.865	6.174	6.739	7.364	7.788	7.700	7.937	7.960	8.055	7.510	7.243	6.859
365.0	1798	2592	3292	3386	2831	1639	926.0	789.2	741.0	804.1	938.1	1089	1184	1200	1113	942.8	789.0	608.8	439.4	356.9	397.7	339.1	202.4	140.5	95.65	108.2	249.5	1726	7881	6685	50.75	8.115	4.673	3.807	3.063	2.505	2.414	2.456	2.418	2.431	2.546	2.668	3.022	3.400	4.416	5.707	6.314	8.643	9.904	9.836	10.60	12.45	12.28	10.78	8.137	5.546	4.668	4.388	4.129	4.110	3.910	3.822	4.141	4.264	4.900	5.296	5.328	5.870	6.195	6.611	6.981	7.079	6.929	7.082	6.499	6.295	6.130
370.0	1463	2117	2751	2831	2392	1417	810.4	672.1	627.1	673.2	782.3	909.0	981.6	988.6	915.7	784.7	666.4	523.5	388.9	307.2	292.4	325.2	268.0	148.8	84.47	67.13	88.82	414.7	2277	6350	5324	1140	16.95	5.038	3.618	2.763	2.387	2.392	2.280	2.291	2.393	2.461	2.726	3.139	3.760	4.837	5.556	7.113	8.244	8.451	8.903	10.72	10.25	9.220	7.159	4.913	4.160	3.737	3.672	3.611	3.404	3.287	3.718	3.828	4.028	4.496	4.520	4.947	5.114	5.356	5.688	5.857	5.680	5.741	5.735	5.327	5.081
375.0	1215	1724	2172	2282	1982	1186	686.2	572.6	549.9	571.6	653.6	756.6	808.0	810.2	748.0	643.6	552.0	442.8	341.3	272.4	238.9	238.5	283.3	212.5	95.01	66.68	60.66	129.1	538.4	1507	4247	7749	348.2	17.55	4.690	3.282	2.740	2.493	2.233	2.197	2.211	2.211	2.427	2.775	3.283	3.920	4.750	5.739	6.489	7.005	7.373	8.585	8.514	7.575	5.905	4.284	3.775	3.327	3.449	3.074	3.171	2.987	3.193	3.268	3.435	3.558	3.809	4.230	4.415	4.468	4.602	4.913	4.889	4.959	4.818	4.329	4.342
380.0	1011	1445	1763	1901	1652	1008	597.4	507.7	482.0	507.5	578.0	647.4	692.3	696.2	643.4	554.0	473.4	387.5	305.9	249.8	214.9	197.7	223.2	252.7	134.6	74.38	62.03	70.68	157.4	366.2	1158	6136	6417	295.3	8.893	4.004	3.202	2.816	2.482	2.315	2.116	2.172	2.330	2.521	3.016	3.546	3.839	4.776	5.388	5.773	6.049	7.224	7.149	6.666	5.309	3.818	3.222	2.799	2.826	2.770	2.737	2.744	2.935	3.097	2.973	3.148	3.279	3.445	3.807	3.937	4.118	4.190	4.177	4.281	4.048	3.859	3.845
385.0	871.2	1191	1509	1597	1385	880.0	537.6	457.0	435.0	452.0	509.4	571.1	598.3	606.8	554.3	479.9	412.7	344.8	278.1	229.3	199.5	177.7	175.9	218.6	190.6	92.79	66.25	62.24	75.40	114.0	287.1	1851	6811	5374	40.42	5.568	3.699	3.209	2.794	2.165	1.936	1.945	2.091	2.465	2.830	2.950	3.361	4.227	4.577	4.730	4.966	6.045	5.629	5.736	4.264	3.317	3.022	2.649	2.662	2.538	2.607	2.376	2.498	2.715	2.800	2.873	3.035	3.170	3.423	3.363	3.638	3.669	3.718	3.707	3.686	3.389	3.169
390.0	700.7	970.1	1224	1295	1121	729.5	460.8	395.3	377.1	395.5	439.6	486.5	507.3	506.9	468.2	405.5	354.2	298.3	247.1	209.7	183.7	164.5	154.0	154.1	180.7	152.6	85.19	63.86	60.08	59.36	91.42	436.7	2010	5318	4445	879.1	13.57	3.972	3.138	2.575	2.134	2.209	2.133	2.145	2.501	2.608	3.056	3.641	3.931	3.827	4.105	5.004	4.961	4.735	3.662	2.965	2.652	2.491	2.280	2.201	2.272	2.198	2.285	2.317	2.523	2.589	2.642	2.714	3.032	2.898	3.161	3.235	3.121	3.155	3.096	2.846	2.942
395.0	572.4	789.6	964.1	1032	909.3	614.7	403.8	353.7	330.8	348.7	385.1	417.4	431.4	426.9	395.9	340.8	302.3	261.3	219.5	190.2	169.0	153.5	143.9	127.6	127.3	162.8	140.8	74.54	58.93	51.77	51.45	121.3	463.8	1264	3756	5939	289.0	13.88	3.936	3.039	2.502	2.231	2.053	2.106	2.222	2.237	2.615	3.039	3.339	3.418	3.524	4.203	4.274	3.953	3.161	2.575	2.337	2.229	2.140	2.017	1.967	2.017	2.025	2.318	2.185	2.265	2.446	2.390	2.665	2.580	2.509	2.648	2.832	2.892	2.539	2.634	2.498
400.0	523.1	678.2	823.6	879.5	777.7	542.2	376.8	318.7	301.0	323.5	346.1	372.3	389.2	381.6	353.7	305.4	270.0	237.4	203.6	179.7	161.6	146.7	138.6	120.0	110.1	125.9	162.0	105.2	64.71	52.78	44.90	53.53	120.3	295.2	1036	4854	5056	239.3	6.969	3.413	2.726	2.318	2.091	2.086	2.098	2.301	2.483	2.747	3.019	2.996	3.282	3.655	3.736	3.545	2.890	2.171	2.124	1.952	2.008	1.831	2.066	1.828	1.874	2.007	2.036	2.000	2.283	2.105	2.406	2.329	2.385	2.514	2.532	2.455	2.451	2.346	2.215
405.0	450.0	614.4	708.0	760.2	686.1	487.4	340.3	293.1	285.7	297.0	321.9	345.5	353.0	345.7	319.6	276.2	244.9	216.7	190.7	169.1	155.7	140.4	131.8	115.5	103.1	100.4	137.6	144.0	78.91	53.40	45.66	39.35	45.69	78.88	243.2	1479	5450	2310	35.21	4.792	3.233	2.558	2.208	2.118	2.086	2.143	2.195	2.611	2.771	2.764	2.777	3.294	3.320	3.189	2.593	2.015	2.167	1.893	1.860	1.849	1.817	1.781	1.824	1.726	1.984	1.821	2.093	2.111	2.071	2.219	2.191	2.399	2.281	2.291	2.280	2.212	2.131
410.0	409.7	522.0	604.6	635.6	589.0	421.3	311.7	271.5	260.3	267.0	287.7	302.5	310.4	302.1	276.6	244.9	217.7	196.2	171.8	155.6	141.0	130.6	121.8	109.9	98.22	91.10	98.38	130.4	120.9	68.05	47.06	37.21	30.15	31.88	65.30	340.3	1612	3671	3513	794.1	11.76	3.201	2.484	2.155	2.059	2.182	2.109	2.301	2.356	2.264	2.415	2.838	2.816	2.694	2.397	2.038	1.890	1.785	1.694	1.691	1.663	1.631	1.683	1.665	1.793	1.682	1.868	1.897	1.810	2.013	2.047	2.180	1.996	2.054	2.005	2.050	1.897
415.0	367.6	436.6	508.4	542.4	496.9	367.2	278.7	249.4	242.7	239.2	259.3	268.7	267.7	263.8	241.6	216.4	193.7	174.4	157.8	139.5	130.2	122.0	113.2	103.2	94.24	85.78	82.80	90.60	118.7	108.0	55.44	38.02	28.21	22.35	25.79	84.24	366.3	880.4	2838	4765	259.7	12.07	3.117	2.485	2.152	2.169	1.964	2.194	2.314	1.987	2.208	2.441	2.420	2.329	2.044	1.869	1.737	1.580	1.521	1.693	1.681	1.568	1.547	1.625	1.762	1.657	1.618	1.742	1.768	1.714	1.797	1.794	1.899	1.882	1.874	1.813	1.901
