Sample:	'1
File name:	t2025042307ãÆÆßÃí´åÎ÷ÇÅ.FD3
Run date:	'11:01:50, 04/24/2025
Operator:	Administrator
Comment:	'

Instrument
Model:	F-2700 FL Spectrophotometer
Serial number:	23B8-004
ROM Version:	4J14000 07

Instrument parameters
Measurement type:	3-D scan
Data mode:	Fluorescence
EX  Start WL:	220.0 nm
EX  End WL:	600.0 nm
EX Sampling interval:	5.0 nm
EM  Start WL:	230.0 nm
EM  End WL:	650.0 nm
EM Sampling interval:	5.0 nm
Scan speed:	12000 nm/min
EX Slit:	5.0 nm
EM Slit:	5.0 nm
PMT Voltage:	700 V
Response:	Auto 
Corrected spectra:	Off
Contour interval:	50.000

Peak integration
Integration method:	Rectangular
Sensitivity:	1
Threshold:	1.000

Peaks
No.	ApexEX/EM(nm)	Height(Data)
1	225.0/600.0	41.88
2	230.0/340.0	998.1
3	230.0/500.0	271.5
4	230.0/575.0	53.93
5	230.0/605.0	45.38
6	235.0/510.0	261.2
7	240.0/265.0	341.8
8	240.0/395.0	814.8
9	240.0/520.0	231.3
10	245.0/270.0	349.3
11	245.0/535.0	188.8
12	250.0/275.0	444.1
13	250.0/545.0	154.0
14	255.0/280.0	538.8
15	255.0/560.0	136.6
16	260.0/290.0	515.1
17	260.0/570.0	109.9
18	265.0/585.0	108.5
19	270.0/300.0	956.5
20	270.0/595.0	95.75
21	275.0/305.0	1095
22	275.0/610.0	83.46
23	280.0/310.0	981.4
24	280.0/340.0	834.0
25	280.0/625.0	69.52
26	285.0/315.0	909.0
27	285.0/635.0	53.36
28	290.0/325.0	857.0
29	290.0/415.0	1029
30	315.0/355.0	444.2
31	320.0/360.0	423.1
32	325.0/370.0	398.4
33	330.0/375.0	381.8
34	335.0/380.0	380.7
35	385.0/445.0	325.7
36	430.0/505.0	30.72
37	445.0/525.0	18.10
38	460.0/345.0	3.216
39	460.0/545.0	9.673
40	465.0/340.0	3.047
41	505.0/275.0	3.278
42	510.0/280.0	3.449
43	520.0/285.0	3.601
44	530.0/290.0	3.671
45	540.0/295.0	5.017
46	545.0/300.0	5.608
47	555.0/305.0	5.894
48	560.0/310.0	5.469
49	575.0/315.0	5.132
50	580.0/320.0	5.409
51	585.0/325.0	5.281

Data points
	220.0	225.0	230.0	235.0	240.0	245.0	250.0	255.0	260.0	265.0	270.0	275.0	280.0	285.0	290.0	295.0	300.0	305.0	310.0	315.0	320.0	325.0	330.0	335.0	340.0	345.0	350.0	355.0	360.0	365.0	370.0	375.0	380.0	385.0	390.0	395.0	400.0	405.0	410.0	415.0	420.0	425.0	430.0	435.0	440.0	445.0	450.0	455.0	460.0	465.0	470.0	475.0	480.0	485.0	490.0	495.0	500.0	505.0	510.0	515.0	520.0	525.0	530.0	535.0	540.0	545.0	550.0	555.0	560.0	565.0	570.0	575.0	580.0	585.0	590.0	595.0	600.0
230.0	30.34	482.1	1391	554.9	23.22	5.798	4.585	3.913	3.703	3.071	2.895	2.887	2.490	2.001	2.589	1.432	1.184	1.162	1.020	0.997	0.901	0.842	0.730	0.711	0.663	0.604	0.596	0.541	0.518	0.553	0.454	0.442	0.462	0.430	0.482	0.375	0.399	0.351	0.352	0.368	0.320	0.370	0.396	0.334	0.305	0.269	0.800	3.052	5.425	3.843	1.391	0.403	0.212	0.239	0.228	0.223	0.231	0.256	0.229	0.230	0.243	0.211	0.224	0.243	0.239	0.249	0.258	0.266	0.219	0.247	0.242	0.242	0.220	0.240	0.239	0.254	0.241
235.0	68.58	149.2	962.4	2122	484.8	40.42	6.084	4.900	4.087	3.016	2.754	3.049	2.511	2.177	2.807	1.802	1.339	1.123	0.979	0.974	0.934	0.826	0.785	0.625	0.695	0.528	0.569	0.586	0.503	0.618	0.499	0.526	0.437	0.447	0.474	0.362	0.349	0.354	0.316	0.351	0.282	0.353	0.420	0.453	0.476	0.345	0.397	0.985	2.283	4.543	7.113	6.858	3.118	0.673	0.274	0.233	0.259	0.267	0.274	0.205	0.235	0.231	0.309	0.244	0.266	0.229	0.269	0.291	0.217	0.252	0.231	0.266	0.260	0.257	0.245	0.241	0.262
240.0	93.33	95.07	306.5	1816	2280	388.0	19.66	6.446	3.934	3.993	3.153	3.370	2.624	2.397	3.154	1.658	1.347	1.352	1.047	0.805	0.918	0.840	0.809	0.695	0.678	0.689	0.596	0.545	0.558	0.572	0.597	0.503	0.430	0.567	0.438	0.412	0.352	0.352	0.348	0.348	0.337	0.327	0.325	0.400	0.536	0.490	0.383	0.470	0.698	1.529	4.051	9.643	12.38	7.667	2.436	0.437	0.269	0.316	0.280	0.230	0.207	0.286	0.255	0.232	0.267	0.257	0.272	0.268	0.228	0.244	0.267	0.234	0.231	0.267	0.232	0.255	0.303
245.0	81.40	139.3	120.6	632.1	2537	2445	282.2	10.72	4.221	4.654	4.079	3.255	2.967	2.371	3.362	1.552	1.478	1.350	1.088	1.028	0.917	0.859	1.021	0.773	0.706	0.783	0.575	0.594	0.616	0.518	0.601	0.515	0.433	0.414	0.516	0.420	0.348	0.364	0.321	0.380	0.343	0.392	0.305	0.355	0.419	0.455	0.640	0.611	0.460	0.557	1.129	3.468	9.866	15.48	13.61	6.528	1.606	0.366	0.247	0.258	0.267	0.276	0.275	0.214	0.278	0.273	0.255	0.250	0.230	0.201	0.255	0.254	0.324	0.247	0.234	0.277	0.313
250.0	40.65	109.7	190.5	223.0	812.3	2435	3155	1039	59.27	6.105	4.704	4.059	3.443	2.827	3.522	1.779	1.640	1.295	1.227	1.011	1.061	0.989	0.937	0.753	0.743	0.743	0.630	0.642	0.635	0.640	0.588	0.461	0.451	0.452	0.533	0.374	0.361	0.339	0.377	0.421	0.371	0.364	0.369	0.316	0.358	0.317	0.479	0.751	0.820	0.757	0.576	1.024	2.571	5.379	9.579	14.60	17.59	14.31	7.259	1.819	0.345	0.265	0.252	0.281	0.292	0.283	0.254	0.225	0.265	0.243	0.277	0.308	0.269	0.265	0.248	0.291	0.263
255.0	24.34	40.98	139.4	294.5	268.0	620.1	2454	4850	1443	60.78	7.968	5.383	3.946	3.303	4.380	2.056	1.667	1.513	1.356	1.216	1.145	0.935	0.949	1.039	0.726	0.824	0.699	0.677	0.588	0.583	0.545	0.593	0.519	0.440	0.546	0.390	0.394	0.424	0.362	0.376	0.386	0.382	0.329	0.367	0.327	0.323	0.340	0.417	0.497	0.815	1.188	1.202	1.043	1.556	2.390	3.670	7.417	17.37	28.66	24.30	10.39	1.697	0.334	0.297	0.273	0.316	0.259	0.253	0.265	0.263	0.282	0.282	0.306	0.268	0.312	0.276	0.282
260.0	23.92	23.39	54.98	246.9	294.5	191.7	748.2	3963	5516	248.7	27.64	6.946	5.048	4.208	5.094	2.401	1.860	1.769	1.389	1.237	1.083	1.046	0.874	0.828	0.817	0.705	0.800	0.682	0.590	0.552	0.534	0.539	0.520	0.528	0.506	0.428	0.382	0.398	0.390	0.331	0.411	0.406	0.350	0.368	0.364	0.352	0.338	0.320	0.310	0.445	0.832	1.659	1.621	1.028	0.857	1.074	2.005	4.990	14.08	28.97	31.67	22.35	7.550	0.879	0.318	0.356	0.303	0.322	0.285	0.280	0.260	0.297	0.267	0.255	0.261	0.277	0.299
265.0	27.77	21.52	25.12	116.9	341.8	228.0	204.0	1318	5707	5322	201.5	14.16	7.035	4.788	5.865	2.655	2.289	1.668	1.364	1.333	1.309	1.007	0.990	0.888	1.002	0.866	0.792	0.630	0.622	0.552	0.543	0.551	0.518	0.571	0.612	0.437	0.424	0.476	0.377	0.372	0.364	0.438	0.350	0.375	0.329	0.352	0.331	0.335	0.328	0.300	0.454	0.834	1.793	1.886	1.411	0.668	0.788	1.385	3.624	9.171	21.73	39.37	31.20	18.68	3.755	0.505	0.402	0.329	0.307	0.282	0.291	0.360	0.307	0.256	0.280	0.338	0.288
270.0	44.65	33.61	33.21	47.95	158.4	349.3	267.2	343.7	1759	5151	6519	783.0	46.46	7.230	9.130	3.616	2.677	2.083	1.822	1.599	1.423	1.179	1.108	0.972	0.923	0.793	0.764	0.694	0.705	0.619	0.565	0.571	0.530	0.562	0.642	0.449	0.470	0.425	0.434	0.428	0.392	0.423	0.358	0.431	0.383	0.417	0.360	0.380	0.358	0.311	0.365	0.468	0.735	1.196	1.885	2.017	1.792	1.031	1.193	2.411	5.442	12.10	20.41	33.98	34.13	33.75	13.67	4.362	0.553	0.301	0.373	0.341	0.309	0.297	0.285	0.346	0.329
275.0	77.61	75.18	85.85	60.83	62.78	162.0	444.1	320.4	442.4	1274	4366	9446	1119	44.42	13.78	5.244	3.601	2.716	2.187	1.767	1.507	1.356	1.144	1.193	1.087	0.886	0.825	0.823	0.727	0.696	0.727	0.692	0.541	0.638	0.719	0.526	0.444	0.486	0.491	0.485	0.432	0.506	0.413	0.457	0.457	0.421	0.415	0.519	0.534	0.408	0.374	0.379	0.453	0.574	0.731	1.156	2.375	3.278	2.266	1.205	1.602	3.071	4.961	8.279	11.58	27.61	53.27	32.36	21.34	4.401	0.525	0.422	0.356	0.336	0.345	0.351	0.329
280.0	118.1	148.1	146.1	91.88	53.98	73.84	272.5	538.8	263.0	351.5	1229	6850	8946	792.6	40.52	6.566	4.537	3.228	2.449	2.248	1.623	1.379	1.256	1.225	1.019	1.070	0.863	0.824	0.780	0.743	0.702	0.794	0.588	0.661	0.760	0.694	0.594	0.476	0.532	0.530	0.528	0.557	0.487	0.503	0.451	0.593	0.668	0.768	0.658	0.520	0.468	0.380	0.426	0.527	0.446	0.634	1.093	2.346	3.449	2.951	1.547	1.198	1.585	2.394	3.185	7.376	19.66	38.75	62.60	31.41	16.50	1.983	0.384	0.377	0.327	0.334	0.316
285.0	157.7	224.0	211.8	135.5	69.80	58.78	127.6	458.6	515.0	208.5	378.1	2050	8530	7188	671.0	11.29	5.578	3.670	3.181	2.566	1.839	1.610	1.396	1.249	1.153	1.035	0.974	1.001	0.802	0.725	0.743	0.850	0.664	0.662	0.763	0.800	0.613	0.612	0.674	0.563	0.536	0.532	0.554	0.585	0.631	0.800	0.778	0.883	0.829	0.670	0.575	0.555	0.463	0.487	0.471	0.440	0.672	1.010	2.105	3.524	3.601	2.047	1.179	1.244	1.436	2.269	5.174	10.94	27.37	49.43	64.39	27.50	10.62	0.937	0.400	0.384	0.413
290.0	223.0	304.1	293.9	202.3	107.9	81.17	100.8	221.0	515.1	498.0	327.8	634.8	2487	6394	9999.9	1631	28.38	5.651	3.819	3.140	2.378	1.912	1.561	1.522	1.214	0.998	0.946	0.935	0.905	0.832	0.791	0.794	0.763	0.739	0.911	0.768	0.773	0.717	0.666	0.586	0.593	0.554	0.641	0.659	0.750	0.904	0.943	1.085	1.078	0.894	0.740	0.730	0.605	0.609	0.553	0.560	0.668	0.786	1.017	1.644	2.576	3.345	3.671	2.808	1.804	1.681	2.255	3.547	7.137	13.55	25.71	36.40	48.27	41.74	19.02	8.925	1.370
295.0	259.8	365.7	371.9	261.1	147.9	114.1	129.8	174.6	291.9	624.4	774.4	451.9	786.4	1620	8495	8601	657.6	26.95	5.526	3.678	2.857	2.298	1.904	1.714	1.177	1.238	1.143	1.005	1.056	0.925	0.799	0.795	0.783	0.750	1.007	0.892	0.853	0.823	0.729	0.650	0.652	0.648	0.655	0.736	0.811	0.950	1.028	1.304	1.297	1.078	0.952	0.982	0.736	0.767	0.788	0.720	0.804	0.912	0.980	1.235	1.432	1.862	2.809	4.121	5.017	3.341	2.291	2.315	2.958	4.286	6.858	9.117	12.82	20.75	44.96	64.37	30.74
300.0	264.0	405.2	430.3	304.9	186.9	154.6	169.1	205.9	274.7	467.3	956.5	712.3	484.1	564.9	2287	5793	5705	495.1	12.03	5.217	3.800	2.723	2.155	1.874	1.552	1.505	1.045	1.008	0.896	1.000	0.842	0.773	0.895	0.801	1.053	0.799	0.851	0.864	0.710	0.693	0.550	0.783	0.703	0.761	0.891	1.035	1.273	1.465	1.457	1.269	1.165	1.067	0.995	0.846	0.817	0.789	0.931	1.092	1.112	1.264	1.407	1.656	1.988	2.745	4.575	5.608	4.788	3.000	2.470	2.658	3.155	3.291	3.875	5.566	13.48	32.90	55.82
305.0	287.5	427.0	462.3	345.8	216.8	189.5	214.8	257.2	321.9	441.9	757.1	1095	598.8	399.8	694.3	1675	6443	4748	72.28	7.489	4.579	3.325	2.573	2.116	1.764	1.395	1.425	1.081	1.189	1.125	0.861	0.945	0.909	1.004	1.086	0.909	0.873	0.812	0.726	0.765	0.608	0.790	0.760	0.781	0.961	1.192	1.108	1.522	1.492	1.288	1.124	1.352	1.078	1.025	1.127	0.924	1.070	1.257	1.475	1.580	1.695	1.870	2.138	2.465	3.115	4.466	5.795	5.894	4.063	2.849	2.451	2.246	2.203	2.430	3.897	8.475	18.48
310.0	290.6	427.5	469.1	366.3	248.7	226.9	264.4	316.4	374.0	477.9	629.6	911.5	981.4	551.4	399.4	498.3	1846	4685	4997	1279	20.73	4.776	3.186	2.620	2.029	1.632	1.439	1.130	1.231	1.035	0.971	1.012	1.011	0.925	1.065	0.910	0.973	0.840	0.796	0.805	0.685	0.716	0.857	0.844	1.029	1.182	1.156	1.609	1.572	1.417	1.184	1.315	1.231	1.038	1.245	1.142	1.281	1.441	1.570	1.828	1.827	2.078	2.415	2.640	2.908	3.360	4.072	4.873	5.469	5.306	3.993	2.901	2.289	2.022	1.998	2.862	4.942
315.0	304.1	435.3	473.8	381.6	282.2	254.8	296.8	348.6	419.1	523.0	631.2	740.5	866.7	909.0	471.4	287.6	524.5	1146	3032	6448	489.3	21.41	4.707	3.403	2.631	2.023	1.509	1.434	1.353	1.142	1.132	1.020	1.014	0.901	1.022	0.920	1.058	0.832	0.710	0.826	0.703	0.725	0.776	0.764	0.921	1.157	1.216	1.548	1.680	1.482	1.227	1.267	1.326	1.256	1.386	1.334	1.402	1.617	1.763	1.962	2.062	2.192	2.631	2.830	3.095	3.091	3.361	3.548	4.020	4.714	5.000	5.132	3.912	2.613	1.887	1.908	2.063
320.0	320.1	488.5	520.8	419.7	319.0	292.1	327.4	383.5	457.8	560.1	664.6	731.6	757.1	891.1	739.0	313.9	276.2	361.2	819.2	4185	4150	394.6	10.41	4.254	3.146	2.301	1.805	1.505	1.447	1.333	1.167	0.965	1.088	1.025	0.936	0.945	0.876	0.754	0.806	0.779	0.778	0.711	0.763	0.776	1.039	1.277	1.390	1.592	1.783	1.795	1.364	1.384	1.413	1.504	1.469	1.396	1.635	1.775	1.885	2.064	2.249	2.455	2.825	3.115	3.225	3.105	3.595	3.552	3.963	3.970	4.120	5.018	5.409	4.472	2.519	1.975	1.861
325.0	362.9	565.2	666.1	532.4	365.5	327.3	351.3	414.8	489.4	585.1	695.2	754.0	757.8	753.2	857.0	494.6	264.0	218.9	268.4	1182	4496	3719	57.52	6.789	3.872	3.024	1.979	1.769	1.445	1.324	1.106	0.990	0.996	1.061	1.048	1.018	0.966	0.845	0.877	0.793	0.679	0.816	0.795	0.873	1.041	1.316	1.628	1.916	2.093	2.056	1.786	1.592	1.547	1.529	1.527	1.604	1.738	2.027	2.041	2.136	2.356	2.483	2.869	3.118	3.222	3.412	3.767	3.776	3.918	3.876	3.831	3.950	4.501	5.281	4.658	3.116	2.291
330.0	385.4	651.4	832.2	708.4	471.8	377.0	386.3	429.2	512.1	620.5	723.0	786.2	783.8	725.5	715.0	667.3	433.1	233.9	179.9	347.3	1277	3446	3943	1139	18.44	3.918	2.623	2.283	1.751	1.553	1.295	1.174	1.159	1.139	1.071	0.941	0.851	0.920	0.780	0.785	0.793	0.837	0.731	1.008	1.144	1.528	1.782	2.292	2.494	2.474	2.191	2.175	2.029	1.785	1.618	1.731	1.947	2.064	2.161	2.156	2.476	2.753	2.868	3.249	3.333	3.672	3.717	3.780	3.948	3.958	3.890	3.754	3.741	4.125	4.273	4.454	3.954
335.0	397.8	723.1	936.5	831.4	569.8	449.2	432.7	455.3	537.4	634.8	739.9	815.3	819.7	757.9	675.3	586.2	629.6	385.7	203.7	194.3	359.7	832.3	2374	5226	413.3	20.68	3.993	2.901	2.246	1.812	1.516	1.242	1.175	1.318	1.070	0.997	0.971	0.836	0.852	0.816	0.731	0.885	0.926	0.930	1.168	1.614	1.984	2.647	2.990	2.838	2.575	2.631	2.402	2.111	2.015	1.787	2.116	2.303	2.324	2.316	2.612	2.731	2.839	3.517	3.366	3.903	3.764	3.872	4.133	4.223	4.081	4.052	3.616	3.959	3.685	3.564	3.775
340.0	427.2	749.9	998.1	905.3	626.7	497.4	463.7	479.4	554.3	641.0	748.0	828.7	834.0	770.1	682.5	552.8	570.5	545.2	274.7	181.9	173.3	244.0	628.0	3324	4604	357.7	10.83	3.567	2.674	2.094	1.629	1.375	1.104	1.338	1.175	0.870	0.950	0.856	0.800	0.809	0.785	0.768	0.962	0.940	1.087	1.697	1.938	2.669	2.992	3.047	2.732	2.915	2.978	2.349	1.998	1.944	2.244	2.146	2.307	2.443	2.636	2.848	3.098	3.389	3.437	3.982	3.770	4.195	4.128	4.262	4.227	4.163	3.940	3.887	3.747	3.434	3.559
345.0	431.7	728.9	993.0	938.3	686.5	539.9	481.6	507.5	554.8	655.4	751.8	807.8	817.7	768.8	690.4	552.3	494.3	543.5	416.0	213.6	150.1	132.4	193.2	919.8	3884	3168	52.16	5.637	3.391	2.283	1.755	1.524	1.388	1.405	1.230	0.902	1.063	0.877	0.803	0.891	0.735	0.776	0.961	0.958	1.041	1.529	1.797	2.700	3.216	2.951	2.865	3.029	2.915	2.435	2.323	2.062	2.339	2.424	2.250	2.557	2.705	2.803	3.144	3.418	3.546	3.807	3.843	4.147	4.119	4.143	4.255	4.016	3.945	3.961	3.837	3.580	3.323
350.0	407.6	687.2	947.1	930.4	734.6	587.1	522.6	527.6	574.0	646.8	728.1	785.1	796.5	755.5	687.3	572.4	486.8	459.8	466.9	354.1	195.8	138.0	122.0	261.7	1075	2745	3210	998.2	17.90	3.347	2.280	1.845	1.514	1.547	1.132	1.013	0.974	0.844	0.861	0.800	0.794	0.816	0.922	0.988	1.107	1.499	1.916	2.527	2.927	2.858	2.847	3.045	2.983	2.486	2.593	2.350	2.394	2.441	2.479	2.607	2.802	2.977	3.115	3.265	3.526	3.407	3.434	3.903	3.862	4.152	4.092	4.104	3.979	4.177	3.619	3.687	3.329
355.0	380.6	639.8	901.7	904.9	763.8	635.4	582.4	576.0	597.5	659.2	720.5	759.4	771.3	732.7	683.8	589.5	515.7	447.9	412.9	444.2	325.8	182.8	137.7	140.8	296.6	660.1	1818	4094	385.3	21.70	3.414	2.426	1.612	1.685	1.356	1.072	0.935	0.862	0.875	0.863	0.811	0.855	0.831	0.923	1.147	1.398	1.730	2.235	2.825	2.706	2.879	3.178	3.197	2.757	2.784	2.594	2.723	2.668	2.718	2.690	2.681	2.968	2.997	3.404	3.360	3.391	3.444	3.709	3.585	3.946	4.107	4.039	4.047	4.119	3.606	3.680	3.500
360.0	363.1	601.0	850.1	905.4	779.3	668.2	616.8	606.0	620.1	668.1	728.4	752.0	757.3	724.2	683.7	603.3	534.4	464.3	407.6	406.3	423.1	261.8	167.4	134.3	138.5	194.6	476.9	2551	3160	346.7	10.84	3.003	2.323	1.927	1.534	1.141	1.058	0.985	0.875	0.799	0.809	0.829	0.923	0.901	1.112	1.373	1.651	2.096	2.693	2.569	2.674	3.028	2.963	2.957	2.672	2.855	2.842	2.772	2.826	2.787	3.048	3.217	3.007	3.465	3.477	3.434	3.681	3.641	3.554	3.892	3.985	3.817	3.902	3.943	3.782	3.860	3.572
365.0	339.5	576.9	812.0	875.7	795.4	720.3	657.7	619.7	650.5	681.9	723.3	751.4	752.2	720.5	683.4	609.0	540.1	485.0	423.1	388.4	417.8	366.5	214.1	156.4	123.5	107.8	150.8	708.0	3044	2956	264.2	5.442	2.561	2.205	1.658	1.136	1.091	1.047	0.886	0.833	0.816	0.797	0.891	0.931	1.104	1.332	1.643	2.167	2.780	2.524	2.567	3.184	3.040	3.030	2.923	2.879	3.081	3.145	2.854	2.909	2.906	3.103	3.100	3.413	3.517	3.619	3.519	3.752	3.467	3.731	4.053	4.067	4.049	4.023	3.817	4.098	3.718
370.0	326.9	557.6	787.7	857.1	806.4	744.2	685.1	658.1	665.3	704.5	731.4	744.5	730.5	715.1	674.4	610.3	556.1	510.3	450.3	407.1	382.6	398.4	332.4	212.6	151.5	113.9	96.52	200.4	846.5	2416	2946	934.3	16.51	3.534	1.993	1.482	1.029	1.047	0.962	0.860	0.864	0.810	0.820	1.020	1.154	1.372	1.591	2.031	2.413	2.475	2.528	3.041	3.199	3.118	3.116	2.934	3.039	3.128	3.057	3.231	3.212	3.190	3.325	3.413	3.507	3.721	3.470	3.810	3.475	3.790	3.673	3.981	3.884	4.067	3.938	3.957	3.862
375.0	310.3	565.0	778.0	846.1	818.8	767.6	707.1	675.8	679.9	710.0	730.6	736.5	720.6	703.3	669.0	604.3	568.8	527.7	475.9	435.9	394.2	366.0	381.8	320.1	197.9	145.2	109.2	108.1	232.5	579.8	1611	3590	336.6	27.44	2.698	1.809	1.290	1.275	1.034	0.837	0.987	0.947	0.832	1.009	1.051	1.269	1.571	1.983	2.141	2.414	2.434	3.036	3.318	3.059	3.285	2.957	3.235	3.324	3.224	3.460	3.292	3.565	3.272	3.568	3.640	3.543	3.444	3.657	3.558	3.561	3.691	4.000	3.990	3.787	3.814	3.707	3.901
380.0	306.1	531.8	739.4	824.6	811.9	759.1	724.1	697.1	691.0	715.9	729.5	732.3	704.4	689.3	659.2	601.1	570.5	540.9	491.6	453.5	411.2	371.0	361.8	380.7	264.1	172.1	129.8	102.9	107.9	168.7	422.2	2215	2720	1439	10.89	2.276	1.629	1.469	1.123	0.946	0.895	0.902	0.844	0.934	1.021	1.338	1.551	1.839	2.174	2.164	2.490	3.013	3.105	3.301	3.319	3.250	3.143	3.262	3.191	3.407	3.436	3.413	3.075	3.468	3.576	3.485	3.452	3.560	3.426	3.656	3.617	3.817	3.807	3.904	3.570	3.761	4.054
385.0	307.3	521.8	719.1	821.3	805.8	777.7	734.6	702.1	688.6	716.3	718.5	713.1	698.3	679.7	650.4	602.1	571.3	536.6	499.8	464.2	424.0	386.7	354.4	367.9	337.5	218.0	153.3	117.5	95.48	89.27	130.7	607.7	2440	4403	224.3	4.485	2.192	1.616	1.227	0.992	0.931	0.975	0.950	0.898	0.960	1.191	1.515	1.825	2.118	2.170	2.311	3.018	3.057	3.322	3.323	3.064	3.244	3.208	3.268	3.477	3.271	3.376	3.048	3.538	3.581	3.351	3.255	3.417	3.702	4.001	3.524	3.645	3.789	3.864	3.751	3.893	3.796
390.0	313.4	508.1	682.5	791.1	805.8	780.7	745.0	709.3	699.9	704.1	708.3	700.0	682.1	661.0	646.3	590.4	562.6	535.1	505.0	472.4	439.1	403.2	367.4	346.6	348.0	302.6	206.8	148.8	116.1	91.53	80.15	170.2	671.8	2602	2322	716.0	13.93	2.354	1.401	1.215	1.072	0.934	0.971	0.969	1.057	1.216	1.503	1.838	2.081	2.222	2.254	3.030	3.085	3.239	3.178	3.062	3.253	3.386	3.572	3.495	3.330	3.507	3.281	3.500	3.336	3.527	3.331	3.301	3.463	3.562	3.417	3.662	3.753	3.871	3.733	3.678	3.689
395.0	311.3	494.8	669.5	782.5	814.8	763.4	743.6	721.0	697.9	691.2	701.3	687.1	662.4	644.1	667.2	577.4	548.4	526.2	505.9	474.5	449.8	416.5	383.7	353.7	328.3	330.5	289.3	194.7	146.3	113.8	89.29	87.69	181.2	620.9	1275	2623	278.6	16.12	2.229	1.434	1.410	0.975	1.034	0.950	1.096	1.209	1.537	1.695	2.076	2.171	2.181	2.852	3.093	3.022	3.176	3.307	3.321	3.344	3.486	3.282	3.220	3.266	3.535	3.211	3.391	3.481	3.326	3.182	3.257	3.395	3.428	3.635	3.678	3.543	3.760	3.704	3.590
400.0	291.6	490.9	649.5	768.2	785.0	782.4	744.1	718.5	706.1	688.7	701.4	675.8	655.8	630.8	716.8	560.2	536.9	518.7	498.3	477.1	447.5	422.9	395.6	364.3	334.1	316.1	324.5	249.1	174.2	136.6	104.6	81.94	80.76	193.6	334.6	1608	2210	244.5	8.592	1.882	1.439	1.247	1.017	1.007	1.187	1.436	1.374	1.845	2.106	2.108	2.194	3.091	2.901	3.104	3.306	3.229	3.480	3.401	3.360	3.346	3.390	3.508	3.292	3.399	3.331	3.277	3.278	3.306	3.460	3.401	3.572	3.362	3.536	3.656	3.477	3.644	3.665
405.0	295.0	472.7	630.5	753.3	775.9	777.3	747.7	727.1	700.0	679.9	690.6	667.2	646.0	621.5	810.3	551.8	523.7	509.4	488.7	469.4	446.0	425.6	403.1	372.9	343.4	313.9	316.1	301.9	212.1	158.8	124.1	93.99	69.86	131.1	101.6	436.6	1805	1963	187.5	3.935	1.720	1.405	1.114	1.084	1.145	1.332	1.446	1.797	2.069	2.044	2.261	2.808	3.003	3.153	3.333	3.095	3.338	3.375	3.306	3.252	3.370	3.328	3.375	3.474	3.080	3.119	3.204	3.209	3.371	3.391	3.357	3.166	3.268	3.299	3.469	3.683	3.386
410.0	278.5	441.5	616.1	731.6	766.5	763.2	742.8	715.2	692.6	678.4	667.3	650.3	629.3	602.2	958.6	531.0	503.9	491.8	475.0	454.2	438.4	418.8	403.7	380.0	353.4	323.5	301.0	301.1	274.9	199.6	146.6	111.0	81.19	174.2	57.77	120.1	489.6	1375	1694	560.1	12.73	1.787	1.311	1.249	1.181	1.367	1.453	1.810	2.058	2.020	2.226	2.796	2.962	3.131	3.322	3.166	3.422	3.287	3.305	3.368	3.309	3.287	3.316	3.289	3.133	3.190	3.267	3.134	3.276	3.403	3.223	3.149	3.550	3.274	3.277	3.231	3.348
