Sample:	'1
File name:	Default_20230920_160718.FD3
Run date:	'16:00:57, 09/20/2023
Operator:	user
Comment:	'

Instrument
Model:	F-2700 FL Spectrophotometer
Serial number:	2190-003
ROM Version:	4J14000 07

Instrument parameters
Measurement type:	3-D scan
Data mode:	Fluorescence
EX  Start WL:	220.0 nm
EX  End WL:	600.0 nm
EX Sampling interval:	5.0 nm
EM  Start WL:	230.0 nm
EM  End WL:	650.0 nm
EM Sampling interval:	5.0 nm
Scan speed:	12000 nm/min
EX Slit:	5.0 nm
EM Slit:	5.0 nm
PMT Voltage:	700 V
Response:	Auto 
Corrected spectra:	Off
Contour interval:	50.000

Peak integration
Integration method:	Rectangular
Sensitivity:	1
Threshold:	1.000

Peaks
No.	ApexEX/EM(nm)	Height(Data)
1	230.0/280.0	-27.21
2	235.0/625.0	-13.84
3	240.0/555.0	9.276
4	240.0/585.0	-7.789
5	240.0/615.0	-10.08
6	245.0/265.0	101.0
7	245.0/530.0	95.60
8	245.0/565.0	15.50
9	245.0/600.0	-11.37
10	245.0/635.0	-5.024
11	250.0/365.0	 8862
12	250.0/545.0	81.02
13	250.0/615.0	-6.711
14	255.0/555.0	69.93
15	260.0/285.0	290.3
16	260.0/560.0	56.55
17	260.0/615.0	7.707
18	260.0/625.0	13.23
19	265.0/290.0	354.6
20	265.0/575.0	72.04
21	265.0/635.0	15.44
22	270.0/295.0	557.7
23	270.0/590.0	54.33
24	275.0/235.0	-2.560
25	275.0/305.0	849.5
26	275.0/600.0	53.46
27	280.0/310.0	871.6
28	280.0/610.0	50.29
29	285.0/235.0	-6.289
30	285.0/315.0	827.3
31	285.0/625.0	41.32
32	290.0/250.0	-6.354
33	290.0/320.0	731.8
34	290.0/635.0	36.16
35	295.0/255.0	-3.313
36	305.0/240.0	-3.644
37	305.0/340.0	595.1
38	310.0/250.0	-3.875
39	315.0/265.0	-1.545
40	325.0/245.0	-2.229
41	325.0/260.0	-2.129
42	330.0/375.0	426.9
43	330.0/605.0	1.878
44	335.0/270.0	-1.746
45	335.0/295.0	-1.500
46	335.0/380.0	433.1
47	340.0/240.0	-1.751
48	340.0/385.0	417.3
49	345.0/275.0	-1.281
50	345.0/600.0	4.113
51	345.0/640.0	-0.077
52	350.0/265.0	-1.392
53	350.0/285.0	0.398
54	350.0/400.0	390.4
55	355.0/255.0	-1.788
56	355.0/405.0	381.3
57	355.0/625.0	0.676
58	360.0/260.0	-1.708
59	365.0/240.0	-0.977
60	365.0/265.0	-1.295
61	365.0/315.0	-0.106
62	370.0/255.0	-1.431
63	370.0/425.0	289.9
64	375.0/600.0	4.294
65	380.0/280.0	-0.562
66	385.0/315.0	-1.103
67	385.0/335.0	-0.303
68	390.0/245.0	-0.641
69	390.0/265.0	-1.101
70	395.0/260.0	-0.014
71	395.0/295.0	-0.739
72	410.0/280.0	-0.780
73	415.0/305.0	-0.256
74	420.0/325.0	-0.054
75	425.0/245.0	-0.837
76	425.0/340.0	-0.278
77	430.0/505.0	45.54
78	445.0/525.0	25.07
79	445.0/630.0	-0.074
80	450.0/255.0	-0.300
81	455.0/535.0	19.09
82	460.0/295.0	-0.353
83	475.0/265.0	-0.268
84	500.0/365.0	21.86
85	500.0/605.0	1.018
86	500.0/640.0	0.057
87	510.0/280.0	-0.216
88	520.0/575.0	0.823
89	535.0/295.0	0.437
90	545.0/480.0	0.488
91	550.0/305.0	1.385
92	550.0/485.0	0.091
93	565.0/315.0	1.176
94	570.0/365.0	1.441
95	575.0/465.0	0.112
96	580.0/385.0	1.302

Data points
	220.0	225.0	230.0	235.0	240.0	245.0	250.0	255.0	260.0	265.0	270.0	275.0	280.0	285.0	290.0	295.0	300.0	305.0	310.0	315.0	320.0	325.0	330.0	335.0	340.0	345.0	350.0	355.0	360.0	365.0	370.0	375.0	380.0	385.0	390.0	395.0	400.0	405.0	410.0	415.0	420.0	425.0	430.0	435.0	440.0	445.0	450.0	455.0	460.0	465.0	470.0	475.0	480.0	485.0	490.0	495.0	500.0	505.0	510.0	515.0	520.0	525.0	530.0	535.0	540.0	545.0	550.0	555.0	560.0	565.0	570.0	575.0	580.0	585.0	590.0	595.0	600.0
230.0	-98.02	-28.05	380.9	507.0	20.42	-39.42	-18.88	-25.35	-19.08	-18.51	-19.69	-11.36	-10.02	-11.59	-8.733	-7.120	-7.625	-4.604	-5.376	-4.628	-3.550	-2.978	-4.162	-3.009	-3.137	-2.743	-2.040	-2.090	-2.472	-3.479	-2.796	-2.556	-2.377	-2.013	-1.496	-1.458	-1.429	-1.969	-1.493	-1.650	-1.280	-1.492	-1.337	-1.426	-1.149	-1.494	-1.498	-1.340	0.014	0.145	-0.418	-1.097	-1.053	-1.067	-1.400	-1.214	-1.137	-1.306	-1.349	-1.475	-1.287	-1.328	-1.464	-1.364	-1.684	-1.321	-1.406	-1.404	-1.464	-1.614	-1.186	-1.248	-1.526	-1.625	-1.386	-1.471	-1.621
235.0	-113.1	-85.21	72.44	718.3	765.1	79.58	-25.96	-28.31	-22.40	-23.59	-16.76	-2.560	-12.60	-6.289	-10.35	-6.039	-6.323	-5.061	-6.204	-3.522	-4.316	-4.459	-3.076	-2.572	-3.622	-2.840	-3.991	-0.457	-3.431	-2.259	-3.231	-3.601	-2.731	-0.965	-1.280	-2.657	-1.210	-2.065	-0.880	-1.692	-0.801	-1.446	-0.786	-1.289	-1.627	-1.191	-0.919	-1.123	-0.436	-0.119	0.522	0.512	0.085	-1.365	-1.417	-1.412	-1.175	-1.458	-1.366	-1.796	-1.462	-1.479	-1.614	-1.314	-1.526	-1.653	-1.698	-1.215	-1.232	-1.202	-1.286	-1.217	-1.650	-1.645	-1.287	-1.772	-1.701
240.0	-90.37	-38.85	-56.19	262.8	 1219	807.5	26.43	-31.62	-18.10	-24.22	-23.12	-15.01	-17.24	-7.160	-7.682	-10.16	-4.523	-3.644	-7.950	-3.637	-3.320	-2.927	-3.340	-2.337	-1.751	-2.240	-2.465	-2.811	-2.302	-0.977	-3.499	-1.813	-1.962	-1.745	-1.186	-2.064	-2.254	-1.459	-1.156	-2.409	-1.089	-1.268	-1.505	-1.458	-1.509	-1.242	-1.287	-1.602	-0.095	-0.783	-0.342	0.623	1.517	1.546	-0.227	-1.311	-1.177	-0.909	-0.886	-1.640	-0.710	-1.610	-1.405	-1.286	-1.280	-1.898	-2.085	-1.316	-2.026	-1.615	-1.189	-1.487	-2.149	-2.351	-1.531	-2.498	-1.320
245.0	-67.34	-45.97	-70.75	26.81	560.2	 1710	791.1	7.328	-22.06	-14.45	-18.58	-16.73	-15.15	-10.35	-9.880	-9.345	-5.442	-5.684	-6.089	-5.503	-3.667	-2.229	-3.616	-3.942	-2.687	-2.561	-2.609	-2.553	-2.316	-1.841	-2.419	-2.858	-1.736	-1.326	-0.641	-0.995	-2.162	-1.354	-2.026	-1.583	-1.423	-0.837	-2.100	-1.241	-1.908	-0.489	-1.169	-1.385	-0.972	-0.699	-1.262	-0.583	0.015	2.029	2.459	1.082	-0.940	-1.778	-1.033	-1.169	-1.763	-1.644	-1.372	-1.538	-1.503	-1.490	-1.078	-1.386	-1.511	-1.972	-1.677	-1.079	-1.815	-2.129	-1.757	-1.736	-1.552
250.0	-48.25	-84.19	-31.33	6.540	113.5	698.8	 1618	 1426	268.9	-21.01	-18.32	-13.41	-15.60	-10.56	-6.354	-9.289	-5.653	-5.737	-3.875	-5.666	-3.966	-3.502	-4.992	-4.473	-2.759	-2.572	-3.361	-2.428	-2.531	-2.477	-2.644	-2.204	-1.910	-1.866	-1.898	-1.368	-2.660	-1.261	-1.121	-1.453	-1.909	-1.885	-1.561	-1.161	-1.739	-1.002	-1.054	-1.148	-1.061	-0.768	-1.130	-1.234	-0.637	-0.233	0.904	2.417	2.944	2.852	1.609	-0.587	-1.663	-1.212	-1.227	-1.648	-1.649	-1.697	-0.983	-1.257	-1.490	-1.763	-1.366	-1.857	-1.628	-1.700	-1.583	-1.707	-2.164
255.0	-106.0	-77.87	-55.90	13.99	59.33	140.1	487.0	 2261	 2028	339.8	-10.49	-13.93	-13.49	-12.53	-6.572	-3.313	-5.902	-5.447	-4.505	-3.400	-4.329	-5.788	-4.318	-3.843	-1.799	-4.139	-2.228	-1.788	-2.857	-3.339	-1.431	-2.352	-2.208	-1.835	-2.579	-0.448	-1.487	-0.815	-1.212	-2.008	-1.878	-1.723	-1.284	-1.826	-2.142	-1.538	-0.300	-1.863	-0.753	-0.885	-0.664	-1.302	-1.429	-0.793	-0.685	-0.170	-0.056	2.430	6.074	6.835	2.157	-0.427	-0.872	-2.240	-1.683	-1.388	-1.244	-0.820	-1.710	-1.952	-1.709	-1.748	-1.671	-1.414	-1.467	-1.667	-2.026
260.0	-105.8	-89.41	-66.32	-15.33	49.31	52.76	90.76	858.8	 3289	 1751	187.0	-7.989	-15.68	-10.39	-10.09	-7.454	-7.655	-4.610	-5.231	-4.064	-4.307	-2.129	-4.235	-2.696	-3.540	-4.284	-2.280	-2.536	-1.708	-3.646	-2.283	-2.532	-2.937	-2.217	-1.427	-0.014	-1.744	-1.309	-1.028	-1.584	-1.510	-1.676	-1.170	-1.583	-0.943	-1.181	-0.688	-1.479	-1.010	-1.007	-0.992	-0.728	-0.857	-0.842	-0.824	-0.480	-1.148	-0.613	1.317	6.106	10.13	7.553	1.374	-1.614	-1.865	-1.036	-1.207	-1.319	-1.849	-1.595	-1.700	-1.540	-0.956	-1.754	-1.426	-1.394	-2.305
265.0	-119.3	-87.93	-53.07	-23.82	20.59	101.0	22.18	187.8	 1498	 4304	 1444	55.29	-7.640	-5.122	-11.91	-7.903	-6.291	-3.707	-4.591	-1.545	-4.295	-4.090	-3.120	-2.360	-3.739	-2.747	-1.392	-3.459	-2.429	-1.295	-2.395	-2.116	-2.452	-2.591	-1.101	-1.426	-1.565	-1.603	-1.680	-2.335	-1.181	-1.220	-1.810	-1.020	-0.999	-0.848	-0.926	-1.211	-1.466	-0.699	-0.923	-0.268	-0.870	-1.166	-0.877	-0.803	-0.957	-1.633	-0.763	0.794	4.697	10.76	12.26	5.549	-0.759	-1.396	-1.789	-1.692	-1.430	-1.217	-1.858	-1.523	-1.749	-1.399	-1.391	-1.819	-2.277
270.0	-110.9	-93.78	-44.01	-46.21	-11.73	45.91	129.7	79.57	349.5	 1677	 3949	 3316	369.4	-4.299	-2.079	-3.540	-3.498	-5.699	-4.857	-1.959	-5.311	-2.919	-2.828	-1.746	-1.754	-2.721	-2.133	-3.028	-2.403	-2.313	-2.716	-1.568	-2.165	-1.983	-1.793	-1.840	-1.425	-1.634	-2.035	-1.846	-1.497	-1.340	-1.533	-1.421	-1.464	-0.703	-1.247	-1.437	-1.239	-1.129	-1.168	-1.337	-0.793	-1.197	-0.353	-0.944	-1.154	-1.646	-1.358	-0.998	0.294	2.001	5.346	9.046	12.10	9.608	3.244	-0.817	-1.222	-1.210	-1.360	-2.029	-1.565	-1.727	-1.176	-1.356	-1.535
275.0	-66.00	-81.81	-65.85	-68.47	-29.75	-30.10	59.09	184.8	101.4	386.9	 1106	 4610	 5598	434.6	-0.670	-0.590	-4.531	-5.924	-4.369	-3.686	-3.461	-3.622	-4.042	-4.285	-2.347	-1.281	-2.832	-2.426	-2.164	-3.901	-2.744	-1.408	-1.980	-2.121	-2.335	-1.674	-1.301	-1.514	-2.024	-1.892	-2.305	-1.607	-2.132	-1.639	-1.122	-1.210	-1.135	-0.827	-1.059	-0.647	-1.022	-1.298	-0.749	-0.942	-0.520	-1.517	-0.970	-0.543	-1.231	-1.306	-0.377	-0.159	0.400	0.953	2.956	8.614	18.67	15.71	5.269	-0.525	-1.759	-1.252	-1.044	-1.287	-1.231	-1.388	-1.092
280.0	-59.61	-75.63	-27.21	-43.08	-29.84	-35.56	16.21	200.6	209.9	119.2	281.4	 1572	 6774	 4566	195.2	-2.580	-2.884	-3.343	-3.412	-5.709	-2.594	-3.585	-2.838	-3.338	-3.303	-1.393	0.054	-3.297	-3.256	-2.494	-2.507	-2.906	-0.562	-1.837	-2.378	-1.329	-1.497	-1.482	-0.780	-0.912	-2.368	-1.450	-2.017	-1.320	-1.334	-1.390	-0.949	-0.794	-0.952	-0.713	-1.336	-1.250	-0.404	-1.549	-0.805	-1.430	-1.341	-0.487	-0.216	-0.827	-0.666	-1.232	-0.618	-0.665	-0.706	1.154	6.602	16.40	23.20	12.77	1.311	-1.299	-1.370	-1.564	-1.800	-1.553	-0.898
285.0	-76.68	-80.10	-49.90	-44.09	-15.51	-15.06	5.367	92.73	290.3	167.5	118.7	428.5	 2679	 8016	858.2	56.30	-0.925	-2.746	-0.611	-2.864	-2.129	-4.859	-4.869	-3.755	-2.644	-1.543	0.398	-0.580	0.211	-0.708	-2.170	-2.853	-0.849	-1.770	-2.059	-0.840	-1.757	-1.729	-1.532	-1.427	-1.278	-1.612	-1.141	-2.350	-2.244	-1.195	-1.410	-0.644	-1.066	-0.729	-0.849	-1.561	-1.245	-1.020	-1.010	-1.448	-1.100	-1.203	-0.335	0.218	-0.495	-0.723	-0.695	-1.089	-0.759	-0.588	0.497	4.131	12.54	23.01	22.03	6.981	-0.626	-1.535	-2.328	-0.969	-1.693
290.0	-84.00	-76.50	-52.94	-5.471	-1.272	15.50	19.74	47.34	167.1	354.6	287.1	229.7	740.6	 2986	 5363	 3085	224.0	0.243	-1.222	-1.781	-2.030	-3.185	-3.963	-3.062	-2.822	-3.786	-1.170	-1.742	-1.032	-1.718	-2.334	-2.273	-1.197	-2.034	-2.132	-1.642	-1.547	-2.396	-1.489	-1.352	-2.175	-1.692	-0.952	-1.848	-1.677	-1.318	-1.410	-0.833	-0.734	-0.699	-0.673	-0.807	-1.160	-0.804	-0.880	-0.606	-0.929	-1.663	-1.251	-0.694	0.005	-0.449	-0.270	-0.675	-0.942	-1.113	-0.154	-0.121	1.944	6.092	12.37	17.23	18.48	12.90	4.136	-0.419	-1.493
295.0	-63.77	-32.97	-37.73	13.83	35.65	46.61	88.31	84.69	151.0	280.4	557.7	414.8	395.5	826.2	 1570	 5936	 4488	259.7	1.618	-1.732	0.066	-4.064	-2.251	-1.500	-1.739	-1.879	-2.164	-3.531	-2.120	-2.049	-0.872	-2.295	-1.696	-2.449	-1.876	-0.739	-1.990	-1.673	-1.220	-1.191	-2.531	-1.581	-1.238	-1.288	-1.056	-1.537	-1.427	-1.055	-0.353	-1.178	-0.605	-0.665	-1.099	-1.295	-0.835	-0.617	-0.795	-0.961	-1.728	-0.655	-0.462	-0.824	-0.252	0.437	0.313	-0.038	-0.423	-0.571	-0.248	0.612	2.314	2.947	5.833	15.51	26.29	20.49	5.204
300.0	-53.93	-25.70	22.96	43.25	34.45	64.70	101.3	128.8	206.2	287.1	524.1	753.9	452.5	421.0	484.3	 2075	 7722	 3432	135.6	1.602	-0.921	-2.703	-2.118	-2.840	-1.597	-2.315	-2.494	-3.211	-3.562	-1.660	-1.655	-1.823	-1.748	-2.035	-1.213	-2.144	-2.120	-1.916	-1.316	-0.996	-1.427	-0.935	-1.156	-1.106	-1.373	-0.896	-1.830	-1.027	-1.156	-0.822	-0.438	-0.928	-1.334	-0.875	-0.628	-0.956	-1.163	-0.618	-1.773	-0.437	-0.069	-0.721	-0.823	-0.122	0.809	0.694	0.736	-0.379	-0.535	-0.220	0.137	0.122	-0.064	3.538	10.55	24.66	29.62
305.0	-91.19	-14.47	-21.81	76.28	66.04	84.74	129.1	166.0	252.8	345.6	458.5	849.5	730.2	398.8	290.8	551.3	 3296	 8257	 2401	40.45	0.756	0.172	-0.705	-1.816	-1.008	-1.722	-2.627	-2.816	-2.497	-2.726	-1.205	-2.093	-1.410	-2.840	-1.817	-1.990	-2.223	-1.709	-2.883	-0.256	-1.298	-0.882	-1.394	-1.451	-1.895	-1.050	-0.998	-1.088	-1.513	-0.970	-0.474	-0.814	-0.624	-1.088	-0.639	-0.684	-0.303	-0.611	-0.876	-0.441	-0.838	-1.041	0.272	-0.706	0.946	0.527	1.385	-0.125	-0.057	0.060	-0.931	-0.520	-0.309	-0.594	1.461	6.280	17.67
310.0	-66.07	-26.19	12.38	74.59	81.00	103.4	166.3	214.9	328.2	396.3	499.9	677.8	871.6	652.9	317.1	246.2	823.1	 3399	 6386	 3350	150.2	2.813	-0.642	-1.847	-0.869	-1.205	-1.597	-2.331	-2.468	-2.220	-1.782	-2.246	-1.786	-2.020	-2.174	-0.993	-1.020	-0.947	-1.733	-1.162	-1.411	-1.234	-1.874	-1.505	-1.204	-1.387	-1.221	-0.859	-0.611	-0.744	-0.511	-0.487	-0.628	-0.731	-0.624	-0.686	-0.732	-0.466	-0.693	-0.189	-0.849	-0.558	-0.387	-0.524	-0.289	0.151	0.798	0.668	0.346	0.437	-0.058	-0.767	-0.768	-1.019	-0.675	0.089	2.770
315.0	-74.72	-16.49	39.23	149.4	119.8	155.4	235.4	294.9	382.6	465.9	534.9	632.3	703.0	827.3	542.3	220.3	268.1	802.3	 1892	 6561	 2993	184.1	0.120	-1.215	0.054	-0.965	-2.140	-1.692	-1.959	-0.106	-0.756	-2.554	-2.741	-1.103	-3.033	-0.875	-0.733	-1.431	-1.393	-0.657	-1.267	-1.222	-1.025	-0.951	-1.595	-0.979	-0.412	-0.703	-1.368	-1.102	-0.364	-1.019	-0.429	-0.475	-0.745	-0.734	-0.021	-0.525	-0.046	-0.150	-0.593	0.356	-0.775	-0.072	0.983	-0.184	0.240	-0.173	0.322	1.176	1.071	0.098	-0.948	-1.418	-1.377	-0.869	-0.336
320.0	-46.12	28.94	110.1	234.8	251.9	318.1	379.1	444.7	497.4	564.3	585.6	661.7	659.1	692.1	731.8	329.0	163.2	246.6	473.9	 2504	 7495	 2432	95.35	2.087	0.166	-0.827	-1.263	-1.270	-1.978	-0.628	-1.124	-1.157	-2.150	-2.420	-3.031	-2.133	-0.728	-1.431	-1.103	-0.934	-1.274	-1.258	-0.593	-1.044	-1.170	-0.771	-1.114	-0.764	-1.303	-0.378	-0.782	-0.746	-0.252	-0.513	-0.162	0.225	0.155	-0.558	-0.276	0.381	-0.229	-0.404	-0.021	0.389	0.403	0.367	0.720	0.008	0.168	0.394	0.552	0.237	-0.360	-0.930	-0.936	-0.646	-0.936
325.0	-11.59	50.43	271.3	427.5	494.1	695.9	695.8	734.8	716.6	709.4	693.5	684.2	648.7	613.2	668.8	552.8	205.5	152.0	172.0	620.9	 3676	 7492	 1745	26.48	1.879	0.475	0.028	-1.096	-1.063	-1.381	-1.656	-1.340	-2.201	-2.805	-1.204	-1.857	-1.273	-1.889	-1.700	-1.365	-0.054	-0.957	-0.968	-1.165	-0.615	-1.510	-1.325	-0.519	-0.486	-0.086	-0.085	0.615	0.564	0.397	0.795	0.543	0.970	0.452	1.101	0.296	0.380	0.811	0.544	0.763	0.247	0.477	-0.031	-0.294	0.613	0.122	0.048	0.455	0.700	0.463	-0.017	-1.563	-0.782
330.0	35.03	124.4	553.0	945.3	 1242	 1538	 1696	 1582	 1371	 1202	931.2	765.4	688.8	630.0	577.4	590.6	448.8	221.8	147.2	213.6	908.5	 3483	 5919	 2800	107.0	1.690	0.346	-1.165	-0.117	-2.542	-1.168	-0.724	-2.399	-1.191	-1.647	-1.608	-1.581	-1.438	-1.553	-1.643	-0.993	-1.642	-1.286	-1.160	-1.213	-1.036	-0.758	-0.146	0.484	0.743	1.103	2.204	2.084	2.122	2.822	3.130	2.769	2.905	3.065	2.112	1.885	1.641	1.621	1.023	0.463	0.710	0.471	0.083	0.693	0.184	-0.169	-0.268	-0.187	0.126	0.618	-0.177	-0.868
335.0	99.19	346.9	 1018	 1639	 2566	 3102	 3064	 2892	 2269	 1938	 1321	895.8	728.7	686.3	583.3	519.0	544.9	452.2	227.7	170.9	279.9	827.7	 1993	 6582	 2231	138.2	1.857	1.542	-0.374	-1.329	-1.344	-0.687	-0.677	-0.303	-0.798	-1.200	-0.689	-2.037	-1.485	-1.472	-0.989	-1.251	-0.995	-1.132	-1.115	-0.867	0.167	0.792	0.719	1.781	2.050	3.244	4.586	5.778	6.375	6.563	7.179	6.257	6.126	3.855	3.635	3.279	3.196	2.061	2.262	0.858	0.680	-0.238	-0.456	0.829	-1.072	0.080	-0.164	0.206	0.252	0.173	-0.662
340.0	64.31	543.4	 1411	 2346	 3433	 4418	 4597	 4166	 3284	 2519	 1707	985.4	785.7	713.0	648.3	543.5	502.8	595.1	381.7	198.9	166.6	252.6	493.9	 2920	 7150	 1877	73.50	1.433	0.488	-1.348	0.114	-0.623	-1.797	-0.660	-0.669	-0.704	-0.884	-1.266	-1.529	-1.191	-0.750	-0.278	-0.721	-0.545	-1.491	-1.025	0.458	0.799	1.400	2.973	3.874	5.398	7.475	10.10	9.402	10.30	10.65	9.559	8.311	6.651	5.704	4.806	4.744	2.508	1.984	1.512	0.929	0.544	-0.016	0.361	-0.718	0.447	0.009	-0.239	0.407	-0.678	-0.019
345.0	157.5	741.9	 1799	 3033	 4389	 5530	 5899	 5205	 4123	 3234	 2000	 1090	827.5	757.6	706.0	597.3	514.6	576.5	546.1	289.6	171.2	142.1	166.0	731.3	 4083	 7010	 1413	22.16	2.937	-0.021	0.714	-1.830	-1.352	-1.432	-1.929	-0.841	-1.158	-1.114	-1.113	-1.464	-1.294	-1.761	-0.645	-1.067	-0.662	-0.470	0.236	1.546	2.416	3.231	5.268	8.616	10.21	12.01	12.87	12.97	13.06	11.88	11.23	8.509	8.448	6.328	5.658	3.762	2.592	1.757	0.243	0.381	0.664	0.774	0.311	0.769	0.235	-0.208	0.606	0.475	-0.247
350.0	270.1	871.9	 2168	 3837	 5442	 6949	 7299	 6444	 4976	 3869	 2283	 1173	859.6	800.0	755.3	662.5	576.4	562.3	568.6	474.0	260.9	157.3	121.9	222.8	 1031	 3680	 5800	 2524	96.31	2.837	0.413	-0.591	-0.670	-0.792	-1.005	-1.141	-1.059	-1.557	-0.864	-1.233	-1.421	-1.389	-0.783	-1.083	-0.934	-0.445	0.478	2.317	4.060	4.463	6.486	10.58	11.96	14.59	15.71	17.09	16.02	15.53	13.36	11.02	9.844	8.143	7.106	4.382	2.463	0.919	1.099	0.331	0.791	0.375	0.186	0.547	0.980	0.882	1.059	0.549	-0.013
355.0	311.5	 1005	 2540	 4323	 6321	 7828	 8299	 7357	 5741	 4437	 2578	 1230	884.4	852.6	801.2	715.9	644.6	601.5	531.5	517.2	433.9	221.7	153.1	140.6	293.9	868.8	 2250	 6415	 1905	113.9	2.206	1.082	-0.901	-0.092	-0.909	-0.922	-1.049	-1.661	-1.609	-1.875	-1.957	-1.432	-1.356	-0.724	0.472	-0.234	1.023	2.811	4.637	5.513	6.989	11.72	13.95	17.03	18.48	17.84	17.79	17.26	15.58	12.59	12.00	8.961	7.689	5.179	3.654	1.461	1.201	0.191	0.821	1.025	0.832	0.487	0.668	0.511	0.081	0.232	0.793
360.0	296.5	 1041	 2657	 4619	 6784	 8325	 8773	 7623	 6002	 4620	 2685	 1307	899.5	848.5	815.3	767.6	688.0	624.0	571.3	493.1	508.2	338.0	194.3	149.2	153.4	256.0	564.6	 3114	 6801	 1616	57.81	1.744	0.713	0.062	-0.721	-0.393	-0.859	-0.744	-1.141	-0.589	-1.889	-1.386	-0.755	-0.826	-0.550	0.202	0.376	2.771	4.458	5.801	7.884	13.27	15.14	17.94	18.54	19.02	20.10	18.95	15.58	13.40	12.02	10.33	8.428	5.502	3.328	2.035	1.502	0.751	1.558	0.548	1.087	0.197	0.397	0.653	0.310	0.404	0.579
365.0	278.1	996.8	 2670	 4551	 6623	 8743	 8862	 7664	 5990	 4681	 2747	 1282	894.6	844.9	817.3	787.9	724.4	664.8	588.9	492.5	471.4	443.7	269.6	177.8	145.1	138.5	185.3	798.9	 4166	 6636	 1218	16.43	2.497	1.016	-0.168	0.443	-1.097	-0.736	-1.231	-0.438	-1.545	-0.578	-0.661	-0.484	-0.382	-0.226	1.243	2.849	4.313	5.872	7.688	11.57	15.00	18.79	18.96	20.43	21.86	19.85	16.78	12.62	12.14	9.697	8.950	5.424	3.334	1.824	1.226	-0.051	0.763	0.630	1.441	0.851	1.208	0.640	1.356	0.706	0.276
370.0	336.8	 1029	 2632	 4561	 6619	 8270	 8559	 7516	 5959	 4521	 2654	 1247	883.9	842.4	813.5	796.2	735.7	690.1	616.4	520.6	447.2	436.8	399.2	258.8	179.8	144.9	125.9	239.4	 1073	 3724	 5555	 2403	77.61	1.981	0.364	-0.384	-0.619	-0.276	-0.915	-0.437	-1.860	-0.767	-0.418	-0.743	0.136	0.176	1.294	2.611	4.371	5.757	7.684	12.21	14.06	17.11	18.87	19.78	19.67	18.54	16.41	12.98	11.40	9.838	7.860	5.323	3.044	1.965	1.044	0.545	0.508	1.033	0.839	0.667	1.085	0.557	0.826	0.467	0.753
375.0	278.4	 1023	 2435	 4370	 6224	 7661	 7927	 6996	 5490	 4266	 2472	 1226	902.1	842.0	798.7	784.8	736.3	708.2	639.4	553.9	478.8	409.8	426.9	404.6	251.7	182.7	148.2	142.9	304.7	878.7	 2310	 6619	 1569	93.17	0.699	0.827	0.495	0.301	-1.163	-0.431	-1.251	-1.060	-1.153	-1.139	-0.517	0.853	0.764	2.353	4.421	4.949	7.193	12.02	14.04	16.56	16.32	19.50	18.33	16.99	14.02	12.54	11.30	9.472	7.595	4.672	3.306	2.462	0.935	0.594	0.371	1.202	0.683	0.242	0.723	0.473	0.995	0.665	0.509
380.0	289.5	857.0	 2111	 4048	 5724	 7105	 7458	 6588	 5090	 3887	 2337	 1199	865.9	819.7	800.4	769.4	728.5	712.6	663.0	579.6	498.0	433.9	398.7	433.1	327.1	226.2	176.6	143.0	147.5	251.7	583.4	 3406	 6309	 1328	46.32	1.639	1.690	0.408	-0.726	0.477	-1.439	-0.734	-0.947	-1.379	-0.641	1.117	1.282	2.427	3.859	4.792	7.145	11.09	12.52	14.70	14.78	17.59	16.85	15.38	13.67	10.45	11.44	7.942	7.215	4.898	3.464	1.637	1.001	0.138	1.036	0.445	1.230	0.692	0.688	0.056	0.747	0.317	1.131
385.0	255.4	833.0	 2050	 3611	 5309	 6448	 6821	 6003	 4658	 3629	 2169	 1137	833.5	804.5	780.0	743.7	729.7	701.8	666.5	587.4	514.9	449.3	406.1	402.3	417.3	293.7	213.2	159.9	128.8	130.8	189.1	894.8	 4113	 5817	954.2	14.33	1.553	0.164	-0.303	0.151	-1.242	-1.553	-1.054	-1.514	-0.283	0.627	0.816	2.197	2.925	4.569	6.474	9.300	11.33	12.92	14.30	16.20	15.85	15.37	12.14	10.50	9.362	7.539	5.591	4.637	2.532	0.732	0.775	0.709	0.951	0.018	1.116	0.361	1.302	-0.127	1.410	0.110	0.540
