Sample:	'1
File name:	Default_20230221_153718.FD3
Run date:	'15:30:57, 02/21/2023
Operator:	dsjg
Comment:	'

Instrument
Model:	F-2700 FL Spectrophotometer
Serial number:	2198-001
ROM Version:	4J14000 07

Instrument parameters
Measurement type:	3-D scan
Data mode:	Fluorescence
EX  Start WL:	220.0 nm
EX  End WL:	600.0 nm
EX Sampling interval:	5.0 nm
EM  Start WL:	230.0 nm
EM  End WL:	650.0 nm
EM Sampling interval:	5.0 nm
Scan speed:	12000 nm/min
EX Slit:	5.0 nm
EM Slit:	5.0 nm
PMT Voltage:	700 V
Response:	Auto 
Corrected spectra:	Off
Contour interval:	50.000

Peak integration
Integration method:	Rectangular
Sensitivity:	1
Threshold:	1.000

Peaks
No.	ApexEX/EM(nm)	Height(Data)
1	230.0/355.0	674.4
2	240.0/390.0	811.3
3	245.0/405.0	850.4
4	255.0/285.0	138.9
5	255.0/425.0	827.0
6	270.0/300.0	292.0
7	270.0/405.0	814.9
8	275.0/305.0	350.5
9	275.0/610.0	29.67
10	280.0/385.0	831.1
11	280.0/405.0	837.1
12	280.0/620.0	26.22

Data points
	220.0	225.0	230.0	235.0	240.0	245.0	250.0	255.0	260.0	265.0	270.0	275.0	280.0	285.0	290.0	295.0	300.0	305.0	310.0	315.0	320.0	325.0	330.0	335.0	340.0	345.0	350.0	355.0	360.0	365.0	370.0	375.0	380.0	385.0	390.0	395.0	400.0	405.0	410.0	415.0	420.0	425.0	430.0	435.0	440.0	445.0	450.0	455.0	460.0	465.0	470.0	475.0	480.0	485.0	490.0	495.0	500.0	505.0	510.0	515.0	520.0	525.0	530.0	535.0	540.0	545.0	550.0	555.0	560.0	565.0	570.0	575.0	580.0	585.0	590.0	595.0	600.0
230.0	53.42	721.3	 1391	249.9	3.678	1.896	1.751	1.630	1.276	1.564	1.244	1.152	1.044	0.954	0.820	0.827	0.646	0.675	0.608	0.602	0.527	0.539	0.455	0.570	0.540	0.393	0.434	0.423	0.356	0.341	0.342	0.324	0.276	0.253	0.288	0.356	0.334	0.337	0.308	0.266	0.221	0.213	0.216	0.197	0.193	0.183	0.392	1.787	3.604	3.032	1.233	0.254	0.129	0.117	0.100	0.103	0.096	0.089	0.076	0.068	0.063	0.075	0.061	0.060	0.065	0.067	0.045	0.048	0.051	0.041	0.036	0.051	0.037	0.041	0.050	0.028	0.031
235.0	24.48	234.9	 1408	 2020	189.8	4.947	2.212	1.763	1.372	1.863	1.149	1.372	1.234	1.018	0.862	0.811	0.803	0.541	0.543	0.644	0.558	0.516	0.548	0.569	0.461	0.495	0.450	0.469	0.354	0.359	0.370	0.380	0.307	0.287	0.298	0.323	0.344	0.325	0.282	0.221	0.232	0.204	0.211	0.231	0.214	0.222	0.210	0.560	1.279	2.394	3.960	4.507	2.122	0.440	0.137	0.115	0.119	0.095	0.065	0.062	0.078	0.076	0.074	0.067	0.048	0.089	0.052	0.059	0.050	0.057	0.040	0.062	0.052	0.031	0.038	0.042	0.034
240.0	31.62	62.87	574.3	 2369	 1040	135.8	3.380	2.658	1.824	1.658	1.196	1.610	1.355	1.002	0.912	0.916	0.887	0.656	0.568	0.656	0.560	0.491	0.557	0.674	0.434	0.536	0.454	0.464	0.409	0.301	0.358	0.338	0.301	0.248	0.326	0.247	0.314	0.303	0.320	0.260	0.310	0.228	0.190	0.224	0.241	0.248	0.224	0.247	0.397	0.773	2.097	5.119	6.573	4.629	1.758	0.249	0.128	0.110	0.090	0.089	0.069	0.080	0.058	0.079	0.049	0.074	0.051	0.067	0.052	0.040	0.036	0.036	0.038	0.031	0.038	0.031	0.040
245.0	35.54	43.16	149.2	 1108	 1651	915.4	78.31	4.012	2.547	1.712	1.856	1.635	1.528	1.095	0.863	0.831	0.954	0.711	0.692	0.713	0.660	0.635	0.509	0.573	0.504	0.529	0.441	0.441	0.395	0.361	0.323	0.302	0.352	0.308	0.262	0.198	0.271	0.286	0.273	0.230	0.283	0.229	0.218	0.230	0.216	0.235	0.259	0.291	0.268	0.288	0.617	1.911	4.485	7.650	8.156	4.293	0.963	0.112	0.123	0.076	0.093	0.076	0.087	0.071	0.054	0.072	0.058	0.054	0.044	0.040	0.064	0.048	0.029	0.042	0.023	0.035	0.056
250.0	15.95	45.75	78.34	283.5	723.8	 1511	 1151	154.7	11.24	2.349	2.187	2.054	1.608	1.313	1.070	1.011	0.803	0.626	0.746	0.713	0.725	0.670	0.564	0.608	0.530	0.522	0.480	0.502	0.451	0.443	0.411	0.342	0.343	0.306	0.234	0.220	0.205	0.232	0.253	0.268	0.325	0.281	0.269	0.244	0.202	0.237	0.206	0.293	0.365	0.333	0.346	0.571	1.195	2.636	4.994	7.453	9.368	7.929	4.044	1.066	0.152	0.110	0.108	0.064	0.082	0.057	0.071	0.063	0.053	0.044	0.046	0.028	0.040	0.036	0.033	0.045	0.054
255.0	8.457	21.11	67.77	119.3	175.8	487.6	 1648	 2051	210.4	10.03	2.733	2.485	1.980	1.612	1.205	1.088	0.936	0.867	0.884	0.713	0.674	0.596	0.585	0.598	0.574	0.583	0.518	0.481	0.488	0.443	0.385	0.287	0.414	0.319	0.245	0.190	0.155	0.229	0.198	0.203	0.286	0.323	0.236	0.298	0.276	0.195	0.184	0.208	0.233	0.332	0.479	0.498	0.496	0.727	1.229	1.892	3.921	8.796	14.46	13.84	5.921	1.177	0.125	0.075	0.075	0.081	0.102	0.056	0.047	0.052	0.046	0.042	0.064	0.036	0.037	0.042	0.046
260.0	6.885	9.903	36.21	94.45	86.58	122.2	651.9	 2383	 1764	167.8	5.382	3.047	2.319	2.099	1.416	1.179	1.258	0.919	0.942	0.811	0.817	0.651	0.635	0.620	0.572	0.673	0.665	0.495	0.447	0.451	0.418	0.357	0.374	0.366	0.243	0.236	0.194	0.233	0.169	0.151	0.216	0.260	0.231	0.305	0.292	0.232	0.216	0.261	0.172	0.177	0.357	0.560	0.582	0.387	0.400	0.520	1.013	2.587	7.493	14.14	17.13	12.98	4.109	0.444	0.134	0.098	0.072	0.088	0.062	0.062	0.036	0.061	0.046	0.040	0.028	0.048	0.042
265.0	8.073	7.134	15.95	58.24	99.31	59.60	164.8	 1050	 2870	 1583	124.5	4.270	2.866	2.270	1.755	1.391	1.214	1.008	0.833	0.879	0.949	0.706	0.634	0.704	0.626	0.636	0.651	0.492	0.516	0.491	0.439	0.420	0.353	0.300	0.251	0.267	0.191	0.231	0.189	0.157	0.203	0.279	0.257	0.294	0.296	0.264	0.201	0.281	0.174	0.172	0.188	0.291	0.643	0.600	0.498	0.300	0.353	0.708	1.915	4.609	10.55	19.09	18.48	10.95	2.083	0.193	0.083	0.117	0.063	0.085	0.044	0.073	0.053	0.045	0.051	0.036	0.061
270.0	10.47	9.183	12.34	24.23	66.05	96.30	81.82	262.0	 1127	 2492	 2368	605.9	28.98	3.342	2.270	1.893	1.487	1.237	1.240	1.027	0.964	0.774	0.724	0.691	0.667	0.633	0.614	0.518	0.509	0.534	0.456	0.417	0.391	0.291	0.290	0.272	0.244	0.237	0.220	0.212	0.187	0.223	0.255	0.270	0.275	0.284	0.216	0.242	0.223	0.202	0.170	0.190	0.268	0.392	0.530	0.580	0.561	0.427	0.576	1.156	2.621	5.940	10.16	15.92	18.09	15.25	8.555	2.265	0.157	0.107	0.073	0.066	0.061	0.060	0.052	0.070	0.053
275.0	18.41	17.18	17.62	13.38	23.83	65.18	123.8	112.1	271.3	719.1	 2262	 3641	865.9	25.19	3.094	2.407	2.002	1.790	1.392	1.195	0.951	0.927	0.783	0.708	0.684	0.581	0.691	0.558	0.562	0.463	0.493	0.388	0.471	0.308	0.257	0.311	0.264	0.236	0.202	0.214	0.196	0.231	0.236	0.265	0.314	0.356	0.268	0.281	0.239	0.269	0.189	0.179	0.223	0.245	0.255	0.307	0.601	0.903	0.795	0.560	0.704	1.497	2.413	3.973	6.446	12.95	22.07	23.72	11.27	1.834	0.102	0.082	0.061	0.082	0.069	0.083	0.062
280.0	31.00	29.09	28.71	16.63	15.50	30.74	104.6	138.3	107.4	191.3	786.9	 3013	 3656	645.1	10.19	3.297	2.409	1.725	1.533	1.303	1.004	1.063	0.924	0.832	0.692	0.612	0.663	0.610	0.614	0.554	0.453	0.463	0.476	0.294	0.300	0.298	0.278	0.255	0.276	0.208	0.175	0.196	0.234	0.228	0.307	0.387	0.366	0.391	0.311	0.261	0.190	0.234	0.212	0.186	0.202	0.255	0.337	0.565	0.988	0.799	0.568	0.559	0.685	1.120	1.659	3.599	9.264	19.15	26.02	20.75	7.414	0.575	0.090	0.067	0.088	0.082	0.061
285.0	38.77	40.03	38.01	23.92	17.85	19.80	55.89	138.9	134.8	89.56	220.6	 1135	 3526	 3398	95.95	5.462	3.059	2.021	1.900	1.419	1.205	1.150	0.890	0.807	0.836	0.705	0.723	0.612	0.585	0.484	0.428	0.474	0.503	0.288	0.365	0.338	0.285	0.286	0.288	0.187	0.219	0.205	0.193	0.243	0.250	0.354	0.408	0.352	0.400	0.278	0.240	0.267	0.244	0.224	0.210	0.254	0.249	0.326	0.617	0.875	1.130	0.797	0.457	0.503	0.639	1.119	2.355	5.874	13.64	24.44	27.22	15.69	2.867	0.135	0.102	0.052	0.064
290.0	52.35	68.75	58.11	37.73	27.51	27.42	41.41	85.86	161.0	162.1	130.3	324.5	 1231	 2714	 3108	 1194	24.11	3.346	2.406	1.883	1.617	1.365	1.100	0.923	0.999	0.914	0.731	0.660	0.693	0.588	0.497	0.501	0.477	0.371	0.391	0.305	0.303	0.326	0.292	0.220	0.221	0.226	0.229	0.277	0.295	0.337	0.417	0.507	0.410	0.366	0.375	0.344	0.260	0.262	0.251	0.263	0.262	0.297	0.382	0.512	0.784	1.008	0.956	0.934	0.608	0.650	0.919	1.671	3.543	7.240	12.76	18.76	20.99	18.10	9.005	2.221	0.132
295.0	67.17	92.51	84.57	62.41	44.97	43.68	49.32	69.10	115.4	209.1	227.2	184.1	359.5	743.7	 1888	 4010	599.8	25.55	3.807	2.397	2.041	1.766	1.381	1.244	1.100	0.908	0.855	0.790	0.719	0.658	0.586	0.521	0.482	0.425	0.354	0.294	0.354	0.312	0.278	0.285	0.240	0.253	0.225	0.264	0.364	0.322	0.325	0.514	0.498	0.506	0.454	0.401	0.357	0.326	0.291	0.295	0.320	0.402	0.418	0.433	0.488	0.724	0.915	1.170	1.396	1.127	0.814	0.914	1.261	2.088	3.249	4.698	6.919	13.71	26.06	26.74	11.50
300.0	81.67	105.3	105.1	77.48	58.79	57.01	66.66	80.76	108.8	186.0	292.0	247.7	191.9	255.5	614.2	 2526	 4168	464.8	11.73	3.185	2.627	2.013	1.603	1.436	1.132	1.029	0.986	0.834	0.836	0.747	0.617	0.583	0.554	0.403	0.469	0.415	0.324	0.350	0.245	0.306	0.288	0.245	0.261	0.339	0.311	0.404	0.395	0.581	0.573	0.474	0.522	0.461	0.479	0.412	0.373	0.399	0.454	0.414	0.465	0.533	0.530	0.615	0.788	0.978	1.367	1.638	1.497	1.080	0.999	1.055	1.264	1.520	1.967	3.939	10.36	22.45	31.10
305.0	95.75	116.1	123.6	90.77	74.76	75.82	84.76	99.17	124.6	173.2	280.9	350.5	222.1	171.0	217.1	847.3	 3133	 3986	65.38	5.362	3.318	2.473	1.944	1.633	1.391	1.294	1.076	0.948	0.860	0.830	0.614	0.605	0.564	0.414	0.470	0.384	0.329	0.373	0.273	0.376	0.263	0.230	0.301	0.358	0.324	0.434	0.406	0.541	0.542	0.527	0.577	0.525	0.546	0.460	0.471	0.446	0.512	0.528	0.556	0.684	0.635	0.684	0.849	0.819	1.054	1.536	1.878	1.945	1.322	0.974	0.982	1.038	1.034	1.328	2.763	6.804	15.49
310.0	105.1	141.8	145.2	117.3	93.82	98.55	109.0	124.2	151.2	190.2	256.7	343.0	347.7	240.2	160.0	260.2	947.4	 2702	 3531	 1196	20.35	3.714	2.609	2.066	1.515	1.444	1.232	1.037	0.926	0.870	0.741	0.690	0.630	0.474	0.499	0.424	0.376	0.366	0.320	0.305	0.330	0.288	0.325	0.333	0.386	0.457	0.498	0.562	0.580	0.552	0.559	0.592	0.636	0.578	0.583	0.549	0.584	0.631	0.649	0.716	0.754	0.831	0.934	1.007	1.106	1.321	1.451	1.812	1.875	1.773	1.405	1.054	0.935	0.883	1.050	1.885	3.967
315.0	127.5	171.5	168.8	137.4	116.9	118.9	133.4	151.5	185.2	229.4	275.2	325.8	373.8	377.1	218.9	158.5	273.6	679.7	 1729	 4194	 1923	22.66	3.442	2.689	2.019	1.611	1.433	1.168	1.045	0.890	0.879	0.745	0.664	0.600	0.535	0.414	0.426	0.369	0.390	0.314	0.359	0.386	0.355	0.341	0.461	0.510	0.697	0.717	0.672	0.703	0.628	0.702	0.619	0.699	0.656	0.730	0.663	0.720	0.816	0.834	0.949	0.967	1.148	1.096	1.438	1.537	1.500	1.652	1.724	1.943	2.146	1.863	1.394	1.027	0.902	0.935	1.331
320.0	162.6	234.5	226.9	165.2	133.6	131.3	159.3	177.9	220.0	267.5	315.9	359.5	378.5	422.8	340.8	181.4	151.1	207.3	498.2	 2376	 4834	380.2	12.77	3.375	2.507	1.870	1.506	1.405	1.270	0.924	0.956	0.902	0.680	0.618	0.591	0.448	0.368	0.418	0.353	0.369	0.375	0.358	0.352	0.373	0.491	0.641	0.702	0.899	0.922	0.841	0.736	0.744	0.682	0.775	0.648	0.843	0.773	0.767	0.868	0.983	1.078	1.123	1.201	1.355	1.630	1.582	1.798	1.755	1.896	1.904	2.158	2.253	2.227	1.527	1.048	0.815	0.909
325.0	211.5	324.2	333.8	225.1	157.3	155.6	178.7	206.8	262.6	309.4	368.3	417.8	420.4	426.5	420.5	274.6	156.1	124.6	160.5	707.0	 3269	 3305	309.5	6.131	3.138	2.501	1.860	1.622	1.299	0.974	0.906	0.818	0.806	0.684	0.636	0.552	0.447	0.329	0.368	0.394	0.358	0.356	0.407	0.452	0.585	0.764	0.964	1.215	1.243	1.182	1.013	1.108	0.768	0.887	0.786	0.842	0.875	0.938	0.957	1.062	1.155	1.276	1.343	1.483	1.818	1.705	2.002	1.975	2.208	2.128	2.102	2.132	2.370	2.323	1.729	1.135	1.000
330.0	257.5	426.4	459.7	315.2	211.9	192.4	214.4	242.8	299.7	355.6	422.8	475.4	486.4	457.4	416.5	381.1	251.8	146.0	113.6	213.3	908.6	 2539	 3514	 1269	16.47	3.483	2.492	1.988	1.614	1.288	1.148	0.985	0.764	0.688	0.667	0.539	0.512	0.428	0.382	0.408	0.411	0.393	0.427	0.521	0.650	0.948	1.184	1.548	1.648	1.665	1.318	1.412	1.079	1.036	0.929	0.992	1.071	1.141	1.119	1.214	1.344	1.518	1.676	1.719	1.915	2.047	2.194	2.209	2.473	2.395	2.349	2.339	2.278	2.278	2.303	2.009	1.717
335.0	285.1	502.2	571.1	410.3	281.9	241.5	250.1	287.4	340.0	405.9	474.9	539.2	573.8	521.1	441.1	393.2	367.7	234.1	139.8	130.4	260.9	626.9	 1699	 4820	 1676	24.07	3.708	2.727	1.983	1.539	1.278	1.135	0.967	0.754	0.753	0.606	0.613	0.526	0.448	0.452	0.431	0.445	0.465	0.554	0.749	1.041	1.301	1.620	2.103	1.936	1.692	1.859	1.292	1.237	1.123	1.128	1.288	1.358	1.414	1.506	1.496	1.647	1.939	1.972	2.157	2.329	2.531	2.582	2.551	2.561	2.583	2.576	2.545	2.384	2.210	2.157	2.332
340.0	320.9	554.3	646.4	488.5	349.7	297.4	294.5	330.1	371.6	438.4	520.7	579.6	619.4	575.8	479.6	413.2	375.8	332.9	193.7	137.2	138.7	193.7	467.6	 2616	 4703	349.1	14.42	3.516	2.585	1.769	1.545	1.337	1.115	0.939	0.736	0.652	0.555	0.531	0.395	0.442	0.474	0.430	0.526	0.643	0.825	1.159	1.369	1.808	2.362	2.208	1.884	2.139	1.612	1.473	1.413	1.244	1.354	1.593	1.516	1.646	1.794	1.925	2.097	2.154	2.407	2.492	2.614	2.566	2.836	2.935	2.840	3.001	2.647	2.526	2.416	2.232	2.273
345.0	328.1	569.4	666.2	541.7	397.9	348.3	331.6	354.9	392.2	462.8	557.3	599.9	636.4	599.2	513.1	440.8	359.6	363.5	279.6	168.7	135.5	113.4	158.3	739.3	 3381	 4411	282.2	6.847	3.400	2.221	1.739	1.506	1.281	1.062	0.822	0.668	0.607	0.522	0.409	0.510	0.561	0.547	0.552	0.662	0.892	1.187	1.435	2.145	2.407	2.222	1.976	2.252	1.772	1.692	1.544	1.482	1.639	1.815	1.795	1.807	1.917	1.999	2.140	2.242	2.420	2.565	2.976	2.924	3.099	3.033	3.201	2.920	2.945	2.683	2.415	2.319	2.312
350.0	329.5	561.3	668.4	583.1	464.8	410.3	391.9	404.7	428.0	487.9	569.5	613.1	641.2	623.1	543.1	478.7	383.9	361.7	348.1	272.7	179.7	129.1	120.4	227.3	941.7	 2895	 3243	 1183	18.96	3.190	2.446	1.625	1.452	1.095	0.928	0.692	0.658	0.573	0.500	0.550	0.502	0.516	0.511	0.705	0.858	1.128	1.439	2.053	2.343	2.253	2.115	2.373	2.079	1.990	1.814	1.741	1.937	1.952	1.911	1.957	2.120	2.142	2.318	2.383	2.709	2.589	2.857	2.820	3.109	3.245	3.184	3.140	3.045	2.928	2.712	2.587	2.481
355.0	320.1	553.1	674.4	616.8	536.8	481.0	465.5	460.3	480.2	529.2	593.8	631.2	664.3	644.4	578.7	520.8	426.4	393.5	354.6	354.1	282.8	174.7	152.8	145.2	273.0	703.4	 1570	 4605	 1827	21.41	3.477	2.420	1.877	1.331	1.018	0.857	0.843	0.643	0.566	0.618	0.513	0.506	0.568	0.773	0.795	1.079	1.546	1.903	2.343	2.300	2.215	2.602	2.218	2.205	2.049	2.112	2.304	2.190	2.346	2.257	2.309	2.398	2.531	2.525	2.707	2.758	2.771	3.055	3.263	3.230	3.369	3.096	3.204	3.020	3.015	2.818	2.589
360.0	319.2	543.3	666.3	650.1	592.3	545.9	517.2	509.7	531.1	555.3	606.5	646.4	674.2	656.8	599.7	548.9	463.2	434.8	379.7	366.8	362.0	235.3	190.0	155.6	150.2	218.6	424.3	 2521	 4958	294.4	15.10	3.260	2.208	1.505	1.086	0.979	0.866	0.668	0.563	0.577	0.548	0.518	0.610	0.685	0.863	1.024	1.401	1.900	2.242	2.154	2.301	2.561	2.687	2.469	2.343	2.298	2.574	2.404	2.389	2.264	2.424	2.420	2.768	2.652	2.833	2.981	2.843	3.235	3.252	3.288	3.385	3.297	3.351	3.331	3.099	2.921	2.972
365.0	302.6	526.8	656.3	668.9	638.1	592.8	571.5	555.6	558.6	586.4	630.7	665.8	684.5	670.3	615.7	575.3	498.4	475.7	417.3	384.5	384.4	314.5	241.2	186.4	150.8	132.1	146.5	700.0	 3502	 4203	278.4	6.973	3.062	1.876	1.294	1.155	0.861	0.920	0.647	0.576	0.652	0.589	0.619	0.703	0.854	1.005	1.407	1.900	2.111	2.189	2.295	2.774	2.757	2.700	2.423	2.675	2.864	2.577	2.630	2.528	2.652	2.605	2.741	2.790	3.015	3.082	2.996	3.185	3.181	3.252	3.489	3.398	3.321	3.257	3.268	3.072	3.237
370.0	308.0	513.1	646.7	687.7	678.3	645.8	626.5	610.7	607.3	632.2	665.6	691.0	707.5	690.4	644.0	610.2	539.7	524.0	465.5	435.3	403.2	371.5	347.9	255.1	197.8	153.4	115.6	223.1	956.5	 2964	 3325	 1064	16.02	3.746	2.173	1.469	0.935	0.872	0.724	0.693	0.605	0.656	0.677	0.779	0.872	1.069	1.385	1.819	2.081	2.185	2.176	2.816	2.772	2.839	2.799	2.942	3.037	2.902	2.903	2.750	2.997	2.763	2.930	3.044	3.035	3.216	3.139	3.222	3.273	3.344	3.446	3.514	3.479	3.328	3.379	3.365	3.465
375.0	311.2	505.4	658.3	724.8	738.3	711.4	681.1	666.7	663.8	679.9	718.0	740.2	764.6	727.7	692.9	643.2	585.1	574.7	512.2	494.5	453.1	402.3	423.6	371.4	275.9	212.5	163.0	174.8	297.7	737.2	 1751	 4468	 1390	23.47	3.740	1.862	1.412	1.088	0.936	0.826	0.654	0.730	0.774	0.863	0.908	1.167	1.377	1.886	2.138	2.179	2.292	2.980	2.979	3.142	3.047	3.126	3.180	3.172	3.364	2.783	3.232	3.159	3.280	3.206	3.319	3.423	3.528	3.669	3.484	3.754	3.774	3.653	3.514	3.588	3.652	3.589	3.565
380.0	308.3	515.1	664.8	749.1	773.4	761.8	730.0	712.7	702.9	710.9	759.8	768.6	806.0	756.9	716.7	662.4	612.6	605.5	545.9	536.9	496.8	439.1	447.1	442.7	354.9	264.9	212.8	205.7	183.6	250.5	517.9	 2597	 4033	283.9	12.18	2.700	1.822	1.254	1.016	0.915	0.662	0.810	0.693	0.842	0.965	1.234	1.455	1.774	2.028	2.133	2.283	3.109	3.208	3.275	3.234	3.300	3.350	3.366	3.356	3.207	3.437	3.269	3.446	3.255	3.599	3.560	3.591	3.586	3.782	3.907	3.768	3.583	3.701	3.691	3.689	3.618	3.634
385.0	305.1	505.3	649.9	742.3	806.2	788.0	756.9	740.6	740.8	740.2	779.1	787.9	831.1	776.4	723.5	681.2	635.3	630.4	574.6	571.9	534.0	472.7	468.4	463.2	425.9	319.1	253.6	242.4	185.6	164.1	226.8	801.5	 3043	 3540	213.2	4.964	2.051	1.616	1.198	0.994	0.780	0.844	0.805	0.889	0.940	1.258	1.496	1.908	2.214	2.253	2.295	3.132	3.227	3.355	3.369	3.626	3.519	3.572	3.529	3.461	3.440	3.199	3.488	3.407	3.687	3.717	3.629	3.631	3.888	4.038	3.877	3.438	3.752	3.836	3.936	3.795	3.787
390.0	298.5	502.2	653.8	761.0	811.3	811.3	788.8	763.6	755.6	766.6	791.2	791.4	825.4	771.0	727.0	695.7	653.1	652.6	606.2	605.7	569.9	531.2	499.7	469.0	452.5	394.6	300.1	272.3	206.7	162.9	167.8	285.6	857.9	 2537	 2623	810.5	12.72	2.289	1.534	1.196	0.874	0.870	0.871	0.933	1.126	1.187	1.462	1.811	2.116	2.204	2.342	3.036	3.062	3.426	3.498	3.690	3.692	3.622	3.595	3.594	3.487	3.450	3.539	3.497	3.762	3.756	3.908	3.657	3.875	4.122	3.981	3.770	3.781	3.964	3.893	3.923	4.035
395.0	307.6	503.7	650.7	751.0	808.5	828.7	805.7	790.9	789.3	779.4	803.5	798.3	830.5	773.9	727.0	704.0	693.9	675.6	627.6	631.5	598.0	575.3	533.6	480.9	464.1	430.5	372.0	319.1	240.3	190.4	173.1	179.7	249.6	609.1	 1440	 3470	 1173	14.26	2.153	1.530	1.166	0.983	0.971	0.988	1.162	1.213	1.482	1.668	2.201	2.356	2.307	3.037	3.290	3.460	3.492	3.616	3.634	3.721	3.799	3.687	3.641	3.607	3.752	3.598	3.771	3.697	3.791	3.672	3.852	4.173	3.995	3.766	4.008	3.943	3.871	3.974	4.247
400.0	318.3	495.0	655.0	760.8	814.7	841.2	815.7	806.3	797.0	789.8	810.3	801.0	831.5	773.1	729.9	701.4	704.9	679.1	639.6	647.6	616.2	588.0	556.1	494.9	485.2	442.1	416.2	375.2	276.7	220.2	198.9	180.6	126.9	175.4	375.3	 2113	 3357	211.5	6.885	1.932	1.233	1.173	0.984	1.014	1.057	1.317	1.534	1.740	2.189	2.226	2.319	3.162	3.202	3.684	3.564	3.599	3.686	3.627	3.910	3.745	3.783	3.773	3.959	3.666	3.890	3.799	3.856	3.669	3.978	4.199	4.063	4.052	4.110	3.797	3.921	4.048	3.923
405.0	319.7	479.0	652.6	758.3	818.9	850.4	828.5	829.6	811.6	807.4	814.9	806.7	837.1	768.3	726.5	695.8	701.0	676.3	643.6	655.8	620.7	595.8	568.4	512.5	502.9	451.4	442.1	423.3	314.6	247.5	225.6	196.1	112.6	87.82	109.8	588.4	 2568	 1634	31.65	3.508	1.568	1.395	1.156	1.201	1.205	1.193	1.464	1.883	2.151	2.275	2.398	3.190	3.316	3.679	3.651	3.542	3.609	3.816	4.034	3.833	3.785	3.872	3.958	3.798	3.947	3.692	3.812	3.525	3.980	4.157	4.091	4.068	4.066	3.957	3.903	4.068	3.909
410.0	310.5	481.6	627.2	734.5	810.3	843.3	832.5	833.8	811.7	806.9	808.9	789.9	808.0	750.9	710.8	683.2	686.6	668.2	635.1	647.4	609.4	596.8	574.9	518.1	510.5	454.9	440.1	419.5	341.8	278.9	237.8	202.7	118.5	79.69	59.83	156.9	703.6	 1682	 2104	641.5	9.882	1.868	1.420	1.304	1.324	1.390	1.585	1.858	2.090	2.176	2.371	3.020	3.221	3.478	3.574	3.577	3.604	3.753	3.896	3.863	3.792	4.055	3.926	3.652	3.767	3.581	3.686	3.564	3.850	3.980	3.884	3.829	3.932	3.942	3.893	3.917	4.029
415.0	299.3	460.4	595.5	703.0	792.8	824.9	831.7	831.6	805.5	793.3	798.6	769.6	767.2	718.9	685.7	667.7	660.6	649.1	619.1	633.6	588.7	590.2	568.5	515.6	511.9	445.7	434.1	399.0	344.1	324.1	255.6	203.2	133.9	90.79	59.02	68.15	179.3	400.8	 1241	 2635	217.5	11.87	1.725	1.583	1.373	1.561	1.729	1.948	2.165	2.083	2.398	2.928	3.040	3.239	3.388	3.517	3.678	3.769	3.696	3.896	3.917	3.850	3.899	4.064	3.792	3.408	3.591	3.411	3.664	3.754	3.747	3.657	3.561	3.908	3.719	3.854	4.037
420.0	284.6	442.8	585.7	682.0	760.7	796.1	821.8	819.4	809.1	789.5	793.2	758.0	746.4	696.8	665.0	644.3	638.8	631.4	609.7	616.9	574.3	580.1	560.7	513.7	509.7	443.1	438.3	399.2	337.3	338.3	287.0	218.0	150.6	102.5	66.76	54.85	67.63	106.7	323.1	 1693	 2343	201.8	4.480	1.770	1.595	1.445	1.661	1.953	1.919	2.046	2.146	2.795	3.117	3.234	3.302	3.513	3.573	3.700	3.739	4.088	4.108	4.037	3.717	3.953	3.761	3.653	3.729	3.449	3.619	3.623	3.680	3.464	3.642	3.683	3.818	3.755	3.788
