Sample:	'1
File name:	T2025032005º«µêºÓ5.FD3
Run date:	'09:49:07, 03/21/2025
Operator:	Administrator
Comment:	'

Instrument
Model:	F-2700 FL Spectrophotometer
Serial number:	23B8-004
ROM Version:	4J14000 07

Instrument parameters
Measurement type:	3-D scan
Data mode:	Fluorescence
EX  Start WL:	220.0 nm
EX  End WL:	600.0 nm
EX Sampling interval:	5.0 nm
EM  Start WL:	230.0 nm
EM  End WL:	650.0 nm
EM Sampling interval:	5.0 nm
Scan speed:	12000 nm/min
EX Slit:	5.0 nm
EM Slit:	5.0 nm
PMT Voltage:	700 V
Response:	Auto 
Corrected spectra:	Off
Contour interval:	50.000

Peak integration
Integration method:	Rectangular
Sensitivity:	1
Threshold:	1.000

Peaks
No.	ApexEX/EM(nm)	Height(Data)
1	225.0/335.0	802.9
2	225.0/490.0	269.5
3	225.0/615.0	25.12
4	230.0/345.0	802.8
5	230.0/500.0	237.9
6	235.0/255.0	353.3
7	235.0/515.0	212.9
8	240.0/265.0	429.6
9	240.0/435.0	363.5
10	240.0/525.0	194.1
11	245.0/270.0	431.5
12	245.0/535.0	166.6
13	250.0/275.0	552.3
14	250.0/440.0	357.2
15	250.0/550.0	138.6
16	255.0/280.0	622.9
17	255.0/565.0	118.8
18	260.0/290.0	568.3
19	260.0/575.0	108.0
20	265.0/585.0	94.38
21	270.0/300.0	900.1
22	270.0/600.0	82.11
23	275.0/305.0	986.8
24	275.0/610.0	71.93
25	280.0/310.0	886.1
26	280.0/625.0	63.21
27	285.0/315.0	885.8
28	285.0/635.0	51.99
29	290.0/325.0	811.4
30	295.0/330.0	591.5
31	300.0/335.0	518.7
32	310.0/350.0	321.9
33	315.0/355.0	302.2
34	320.0/360.0	291.7
35	325.0/370.0	259.1
36	330.0/375.0	256.1
37	335.0/380.0	256.9
38	345.0/395.0	207.7
39	350.0/400.0	211.3
40	355.0/405.0	189.6
41	360.0/415.0	160.6
42	365.0/420.0	160.8
43	370.0/425.0	140.8
44	380.0/440.0	105.6
45	395.0/460.0	65.27
46	400.0/465.0	55.37
47	415.0/485.0	33.77
48	425.0/500.0	24.38
49	430.0/505.0	21.71
50	445.0/525.0	12.85
51	455.0/340.0	2.342
52	455.0/540.0	8.845
53	460.0/335.0	2.377
54	475.0/260.0	1.741
55	475.0/345.0	2.348
56	485.0/265.0	2.104
57	495.0/270.0	2.174
58	505.0/275.0	3.138
59	510.0/280.0	3.529
60	520.0/285.0	3.744
61	525.0/290.0	3.349
62	540.0/295.0	4.313
63	545.0/300.0	5.044
64	555.0/305.0	5.198
65	565.0/310.0	4.518
66	575.0/315.0	4.861
67	580.0/320.0	5.016
68	585.0/325.0	5.034

Data points
	220.0	225.0	230.0	235.0	240.0	245.0	250.0	255.0	260.0	265.0	270.0	275.0	280.0	285.0	290.0	295.0	300.0	305.0	310.0	315.0	320.0	325.0	330.0	335.0	340.0	345.0	350.0	355.0	360.0	365.0	370.0	375.0	380.0	385.0	390.0	395.0	400.0	405.0	410.0	415.0	420.0	425.0	430.0	435.0	440.0	445.0	450.0	455.0	460.0	465.0	470.0	475.0	480.0	485.0	490.0	495.0	500.0	505.0	510.0	515.0	520.0	525.0	530.0	535.0	540.0	545.0	550.0	555.0	560.0	565.0	570.0	575.0	580.0	585.0	590.0	595.0	600.0
230.0	55.22	879.3	1545	447.8	12.45	3.182	2.076	1.847	2.177	1.293	1.380	1.109	1.068	0.965	0.710	0.690	0.713	0.506	0.459	0.393	0.328	0.318	0.314	0.240	0.251	0.201	0.224	0.213	0.229	0.203	0.219	0.150	0.160	0.162	0.152	0.200	0.143	0.148	0.145	0.188	0.339	0.539	0.471	0.241	0.144	0.154	0.935	3.655	5.479	3.529	1.107	0.198	0.103	0.084	0.086	0.089	0.092	0.087	0.080	0.097	0.075	0.084	0.090	0.077	0.089	0.072	0.076	0.081	0.083	0.079	0.091	0.077	0.087	0.083	0.080	0.082	0.098
235.0	161.9	260.8	992.6	1552	419.8	20.37	3.332	2.550	2.144	1.471	1.669	1.114	0.996	1.081	0.821	0.751	0.753	0.707	0.523	0.360	0.431	0.270	0.255	0.227	0.248	0.243	0.208	0.227	0.251	0.208	0.258	0.160	0.167	0.150	0.126	0.176	0.141	0.149	0.158	0.110	0.155	0.323	0.441	0.677	0.475	0.260	0.309	1.014	2.260	3.878	5.033	4.776	1.972	0.342	0.090	0.077	0.101	0.094	0.081	0.105	0.062	0.075	0.068	0.087	0.076	0.075	0.072	0.085	0.087	0.091	0.087	0.086	0.092	0.148	0.070	0.081	0.095
240.0	245.7	168.2	311.2	1382	1605	310.4	10.24	2.807	2.676	1.938	1.808	1.218	1.290	1.264	0.930	0.812	0.597	0.658	0.471	0.427	0.375	0.347	0.347	0.290	0.315	0.265	0.187	0.237	0.250	0.196	0.226	0.178	0.148	0.101	0.131	0.170	0.132	0.141	0.126	0.095	0.156	0.208	0.208	0.463	0.693	0.806	0.422	0.375	0.586	1.275	2.945	6.575	7.639	4.740	1.531	0.211	0.102	0.101	0.092	0.098	0.066	0.073	0.094	0.110	0.086	0.071	0.083	0.078	0.071	0.083	0.116	0.084	0.104	0.112	0.075	0.101	0.111
245.0	178.3	285.9	144.1	497.4	1818	1490	210.3	5.576	3.130	1.909	1.923	1.476	1.220	1.148	1.145	0.549	0.742	0.687	0.385	0.574	0.349	0.339	0.296	0.305	0.361	0.263	0.340	0.279	0.362	0.247	0.192	0.228	0.147	0.124	0.153	0.171	0.164	0.163	0.134	0.101	0.165	0.138	0.162	0.205	0.339	0.836	0.837	0.635	0.355	0.414	0.818	2.343	5.763	8.997	8.744	3.954	1.076	0.154	0.096	0.096	0.092	0.092	0.088	0.097	0.077	0.082	0.112	0.067	0.074	0.087	0.102	0.075	0.085	0.106	0.077	0.093	0.103
250.0	63.07	200.1	288.6	209.9	605.8	1597	1920	646.3	31.64	3.107	2.888	2.077	1.497	1.380	0.912	0.808	0.793	0.694	0.599	0.548	0.427	0.385	0.368	0.347	0.323	0.312	0.257	0.261	0.293	0.229	0.182	0.225	0.177	0.184	0.168	0.178	0.176	0.134	0.123	0.135	0.138	0.151	0.167	0.150	0.195	0.317	0.510	0.846	0.930	0.774	0.513	0.705	1.457	3.007	5.665	7.833	10.12	8.822	4.367	1.146	0.185	0.105	0.088	0.107	0.100	0.093	0.099	0.065	0.076	0.096	0.088	0.112	0.081	0.089	0.097	0.109	0.079
255.0	28.20	56.12	212.3	353.3	225.2	420.6	1604	2767	287.3	26.04	3.343	2.554	1.813	1.730	1.320	0.986	0.796	0.851	0.792	0.569	0.419	0.390	0.404	0.349	0.327	0.323	0.265	0.226	0.236	0.221	0.222	0.263	0.151	0.187	0.196	0.201	0.167	0.156	0.132	0.194	0.147	0.131	0.132	0.144	0.143	0.211	0.218	0.275	0.519	1.033	1.293	1.263	0.739	0.812	1.406	1.957	3.802	9.619	15.66	15.32	6.590	1.318	0.139	0.109	0.123	0.102	0.100	0.102	0.086	0.100	0.113	0.105	0.091	0.112	0.101	0.120	0.074
260.0	20.43	21.28	83.36	343.6	325.6	145.4	496.3	2637	2281	231.8	13.01	3.613	2.298	2.108	1.390	1.301	0.995	0.841	0.731	0.584	0.443	0.476	0.414	0.381	0.359	0.291	0.345	0.225	0.235	0.336	0.262	0.241	0.206	0.152	0.210	0.216	0.174	0.181	0.134	0.155	0.153	0.142	0.150	0.159	0.122	0.165	0.144	0.153	0.223	0.370	0.907	1.741	1.740	0.854	0.599	0.548	1.036	2.694	7.232	15.29	19.86	13.87	4.798	0.562	0.128	0.096	0.103	0.102	0.121	0.111	0.094	0.114	0.091	0.094	0.107	0.106	0.087
265.0	31.61	14.92	27.79	159.3	429.6	241.0	147.8	921.6	3495	1961	171.8	6.736	3.267	2.551	1.491	1.305	1.094	0.904	0.852	0.642	0.484	0.446	0.379	0.382	0.426	0.374	0.260	0.220	0.270	0.295	0.270	0.250	0.210	0.173	0.266	0.220	0.214	0.207	0.157	0.159	0.189	0.171	0.121	0.164	0.137	0.161	0.157	0.115	0.156	0.160	0.358	0.877	1.804	2.104	1.423	0.462	0.405	0.755	1.805	4.627	11.15	20.36	22.32	12.49	2.754	0.217	0.117	0.162	0.140	0.115	0.118	0.102	0.106	0.123	0.114	0.168	0.095
270.0	33.77	18.36	16.32	49.90	208.4	431.5	276.4	255.5	1153	2848	3123	686.6	30.74	3.970	2.205	1.566	1.400	1.056	0.981	0.719	0.561	0.581	0.444	0.389	0.486	0.394	0.314	0.325	0.351	0.281	0.259	0.296	0.273	0.228	0.267	0.276	0.255	0.260	0.195	0.207	0.207	0.162	0.167	0.197	0.189	0.188	0.173	0.116	0.121	0.135	0.163	0.312	0.598	1.151	1.873	2.174	1.687	0.848	0.654	1.265	2.784	5.974	11.22	17.35	20.24	17.42	9.185	2.344	0.315	0.120	0.119	0.102	0.169	0.120	0.139	0.131	0.114
275.0	81.28	48.18	29.49	32.78	69.16	208.2	552.3	315.2	301.3	733.1	2525	5120	893.6	24.96	3.767	2.572	1.766	1.399	1.077	0.934	0.680	0.537	0.703	0.476	0.443	0.359	0.357	0.373	0.319	0.324	0.284	0.338	0.347	0.369	0.346	0.421	0.324	0.352	0.248	0.299	0.306	0.283	0.197	0.258	0.321	0.251	0.193	0.210	0.165	0.218	0.150	0.225	0.291	0.385	0.664	1.089	2.212	3.138	2.267	0.858	0.910	1.566	2.783	4.193	6.187	13.19	25.59	27.20	13.96	2.191	0.279	0.103	0.188	0.142	0.149	0.143	0.099
280.0	131.3	89.28	53.74	36.72	41.65	85.11	351.9	622.9	226.1	217.6	747.1	3941	4659	140.6	10.53	3.712	2.213	1.769	1.357	1.100	0.989	0.610	0.739	0.568	0.552	0.386	0.390	0.356	0.383	0.320	0.319	0.366	0.281	0.415	0.461	0.500	0.546	0.518	0.358	0.316	0.321	0.297	0.363	0.319	0.398	0.350	0.345	0.351	0.241	0.242	0.214	0.218	0.220	0.237	0.335	0.499	0.926	2.130	3.529	2.726	1.390	0.758	0.920	1.303	1.735	3.464	8.898	19.99	30.44	25.02	9.607	1.145	0.227	0.188	0.170	0.158	0.103
285.0	167.0	132.3	77.37	47.91	37.60	54.31	144.2	554.1	539.9	157.0	242.4	1217	4527	3787	103.6	5.786	3.059	1.997	1.670	1.215	1.109	0.707	0.758	0.617	0.611	0.359	0.425	0.415	0.427	0.348	0.281	0.316	0.351	0.477	0.710	0.632	0.664	0.613	0.420	0.450	0.447	0.444	0.394	0.500	0.470	0.479	0.384	0.368	0.338	0.334	0.266	0.241	0.241	0.204	0.251	0.288	0.457	0.792	1.676	3.151	3.744	2.241	0.875	0.766	0.805	1.192	2.310	5.396	12.40	24.21	31.02	20.81	5.503	0.543	0.201	0.193	0.137
290.0	223.8	167.5	110.8	67.98	53.58	55.86	80.79	222.0	568.3	497.3	201.1	367.4	1327	3388	3473	415.6	20.78	2.947	2.040	1.511	1.130	0.953	0.789	0.656	0.679	0.489	0.540	0.413	0.489	0.389	0.313	0.359	0.378	0.538	0.691	0.779	0.714	0.661	0.571	0.487	0.492	0.461	0.553	0.573	0.521	0.596	0.474	0.505	0.435	0.350	0.288	0.279	0.294	0.295	0.304	0.305	0.399	0.515	0.740	1.231	2.115	3.349	3.314	2.564	1.306	0.847	1.039	1.657	3.218	6.391	11.71	18.45	22.36	21.41	13.35	4.541	0.622
295.0	259.2	214.9	142.4	91.72	76.98	73.47	81.57	121.2	247.8	627.7	651.0	240.2	393.9	849.1	2138	4175	580.1	17.17	3.315	1.897	1.231	1.166	0.889	0.837	0.633	0.521	0.560	0.515	0.418	0.562	0.356	0.464	0.310	0.521	0.710	0.823	0.696	0.692	0.606	0.481	0.560	0.556	0.556	0.642	0.610	0.704	0.548	0.616	0.531	0.459	0.327	0.344	0.391	0.355	0.338	0.385	0.411	0.481	0.579	0.575	0.909	1.233	1.783	3.604	4.313	2.765	1.146	0.960	1.297	1.968	3.070	4.508	5.932	10.52	21.73	30.00	19.40
300.0	269.1	254.6	185.0	127.1	99.78	99.11	110.8	126.4	180.1	378.6	900.1	513.3	235.6	299.3	621.7	2910	3828	85.63	8.043	2.450	1.795	1.309	1.247	0.954	0.709	0.622	0.522	0.595	0.430	0.488	0.433	0.453	0.343	0.462	0.721	0.707	0.862	0.775	0.710	0.615	0.540	0.587	0.500	0.677	0.740	0.754	0.578	0.710	0.661	0.468	0.447	0.509	0.493	0.442	0.526	0.433	0.547	0.575	0.677	0.670	0.714	0.838	1.114	1.865	3.561	5.044	3.938	2.032	1.333	1.185	1.473	1.656	1.884	3.014	6.768	15.82	28.48
305.0	315.4	309.4	254.1	179.0	138.6	140.7	156.0	179.1	226.3	318.0	684.5	986.8	425.6	267.4	290.8	907.2	3514	2939	66.81	4.642	2.722	1.666	1.281	0.882	0.799	0.703	0.603	0.604	0.505	0.558	0.508	0.539	0.422	0.648	0.719	0.748	0.815	0.818	0.730	0.749	0.611	0.640	0.589	0.748	0.707	0.976	0.708	0.808	0.842	0.655	0.539	0.705	0.629	0.569	0.642	0.674	0.704	0.824	0.950	1.013	0.949	1.151	1.161	1.418	2.074	3.484	5.191	5.198	2.899	1.900	1.503	1.441	1.304	1.652	2.434	4.464	9.933
310.0	381.4	387.3	323.2	244.2	190.0	186.6	207.1	246.3	282.0	347.1	496.3	820.1	886.1	468.4	283.0	354.3	1073	2491	2647	293.8	15.61	2.302	1.675	1.320	0.986	0.742	0.775	0.755	0.564	0.547	0.586	0.522	0.441	0.612	0.747	0.783	0.736	0.800	0.762	0.773	0.712	0.703	0.740	0.870	0.784	1.011	0.923	1.102	1.041	0.900	0.739	0.852	0.756	0.757	0.749	0.802	0.916	1.029	1.153	1.244	1.138	1.378	1.518	1.760	1.942	2.387	2.982	4.017	4.379	4.518	3.325	2.181	1.703	1.646	1.589	1.963	3.108
315.0	477.9	498.0	411.4	308.0	239.9	219.4	246.4	282.4	310.1	382.8	472.5	592.6	777.6	885.8	409.0	266.5	386.1	657.1	1581	3108	435.1	11.99	2.448	1.810	1.420	0.814	0.835	0.735	0.710	0.658	0.508	0.530	0.461	0.490	0.740	0.874	0.749	0.819	0.743	0.812	0.889	0.733	0.876	1.025	0.920	1.289	1.166	1.321	1.344	0.992	0.964	0.942	0.940	1.043	0.866	1.001	1.114	1.258	1.363	1.504	1.376	1.418	1.505	1.857	2.008	2.204	2.163	2.893	3.159	3.650	4.770	4.861	3.030	2.210	1.708	1.578	1.603
320.0	566.3	602.2	516.1	354.3	255.2	241.4	273.1	306.3	323.4	396.6	480.5	565.0	627.5	871.9	686.4	295.8	251.0	242.5	434.0	2103	2737	64.86	5.647	2.319	1.540	1.108	0.898	0.754	0.750	0.578	0.585	0.521	0.530	0.521	0.715	0.729	0.848	0.792	0.705	0.824	0.779	0.818	0.938	1.153	1.312	1.455	1.371	1.723	1.487	1.247	1.122	1.131	1.080	0.957	0.996	1.091	1.135	1.376	1.406	1.421	1.409	1.477	1.553	1.810	2.169	2.296	2.287	2.627	2.657	2.803	3.540	4.362	5.016	3.895	2.251	1.672	1.583
325.0	647.5	685.2	609.3	423.8	286.0	236.2	277.0	315.7	331.3	395.4	481.4	544.2	571.1	651.5	811.4	439.9	230.9	155.0	143.4	607.8	2457	2127	52.56	3.554	1.916	1.397	1.022	0.726	0.731	0.708	0.537	0.573	0.508	0.592	0.626	0.693	0.774	0.780	0.805	0.861	0.819	0.952	0.928	1.264	1.457	1.546	1.770	1.923	1.877	1.645	1.324	1.302	1.180	1.054	0.936	0.974	1.189	1.290	1.474	1.422	1.510	1.525	1.685	1.815	2.205	2.218	2.344	2.686	2.547	2.688	2.712	3.244	4.006	5.034	3.985	2.616	1.596
330.0	681.0	775.3	738.2	575.1	366.4	265.1	267.0	302.5	322.7	378.4	460.1	526.6	536.2	526.0	575.5	591.5	357.1	151.6	90.17	173.6	701.0	1818	1981	234.1	13.67	1.872	1.408	0.984	0.865	0.744	0.562	0.608	0.532	0.573	0.661	0.700	0.773	0.711	0.855	0.810	0.799	0.936	1.103	1.304	1.538	1.712	2.063	2.095	2.203	2.021	1.730	1.734	1.570	1.333	1.147	1.052	1.178	1.254	1.483	1.440	1.521	1.410	1.691	1.837	2.017	2.097	2.225	2.502	2.551	2.613	2.491	2.544	2.864	3.080	3.523	3.909	3.241
335.0	728.9	802.9	796.1	650.3	432.4	298.4	260.2	288.3	315.3	359.5	436.8	489.6	496.5	476.7	433.9	425.9	518.7	256.6	93.58	86.98	192.4	447.1	1259	2386	366.4	9.394	1.889	1.310	1.185	0.894	0.702	0.773	0.540	0.553	0.687	0.627	0.703	0.671	0.777	0.860	0.761	0.996	1.085	1.233	1.533	1.900	2.179	2.233	2.377	2.263	1.814	2.113	1.624	1.583	1.244	1.033	1.139	1.184	1.378	1.319	1.409	1.433	1.487	1.741	1.828	2.104	2.119	2.312	2.340	2.371	2.383	2.186	2.326	2.310	2.324	2.496	2.999
340.0	701.4	799.6	789.2	671.5	463.0	305.3	261.8	280.4	303.0	340.7	410.5	460.1	468.3	444.1	375.0	322.5	419.4	405.3	140.4	76.84	85.98	133.1	346.6	1720	2345	54.35	3.812	1.617	1.313	0.987	0.874	0.744	0.638	0.640	0.635	0.607	0.702	0.661	0.776	0.799	0.891	0.943	1.110	1.146	1.470	1.727	2.151	2.342	2.259	2.198	1.988	2.291	1.841	1.435	1.308	1.135	1.306	1.115	1.328	1.408	1.226	1.304	1.601	1.745	1.812	2.003	2.067	2.160	2.219	2.274	2.257	1.992	2.043	2.282	1.901	1.837	1.930
345.0	625.3	760.1	802.8	685.6	483.5	316.7	266.5	263.8	286.4	324.7	378.6	422.9	431.7	409.7	348.5	284.7	287.6	399.7	267.9	86.81	69.77	70.60	107.7	510.1	2185	1627	44.71	2.261	1.630	0.845	0.902	0.757	0.565	0.684	0.633	0.623	0.663	0.700	0.678	0.713	0.717	0.887	0.959	1.119	1.386	1.764	1.843	2.140	2.272	2.302	2.187	2.348	1.822	1.540	1.349	1.130	1.212	1.204	1.362	1.341	1.166	1.225	1.429	1.787	1.554	1.738	1.908	1.864	1.934	2.189	2.084	1.986	1.951	2.111	1.824	1.719	1.472
350.0	581.8	691.3	748.2	677.0	505.7	328.9	267.6	264.8	276.6	307.4	342.5	377.5	390.1	368.9	322.3	264.9	235.0	258.3	321.9	216.7	94.84	70.00	65.93	143.9	639.9	1463	1492	200.0	9.782	1.578	1.139	0.975	0.657	0.757	0.632	0.730	0.628	0.654	0.674	0.712	0.683	0.757	0.929	1.079	1.187	1.600	1.723	1.914	2.268	2.084	2.090	2.252	1.955	1.724	1.398	1.179	1.177	1.228	1.232	1.271	1.304	1.303	1.411	1.505	1.479	1.590	1.611	1.752	1.666	1.841	1.903	1.861	1.777	1.910	1.659	1.586	1.422
355.0	535.3	597.1	661.5	645.7	501.2	340.7	278.9	270.1	270.2	290.7	318.5	344.8	348.6	337.3	301.4	251.4	220.1	198.3	215.9	302.2	198.4	92.08	68.86	73.72	170.9	359.8	1026	1806	294.5	6.160	1.557	1.146	0.718	0.771	0.647	0.700	0.624	0.629	0.654	0.644	0.663	0.749	0.798	0.884	1.128	1.393	1.418	1.783	2.040	1.842	1.795	2.114	1.877	1.669	1.357	1.155	1.277	1.161	1.264	1.260	1.225	1.140	1.286	1.341	1.351	1.472	1.492	1.513	1.682	1.700	1.779	1.676	1.612	1.550	1.666	1.556	1.337
360.0	497.5	563.1	618.5	604.5	494.7	353.1	278.0	273.2	273.7	284.7	308.5	324.1	327.8	316.9	286.0	248.4	216.3	192.4	177.9	240.5	291.7	144.4	82.43	66.33	74.63	106.2	289.0	1404	1600	48.72	2.948	1.349	0.887	0.775	0.809	0.678	0.599	0.677	0.589	0.638	0.677	0.740	0.777	0.890	1.101	1.244	1.348	1.650	1.778	1.662	1.812	2.046	1.781	1.488	1.453	1.250	1.126	1.155	1.156	1.163	1.201	1.219	1.375	1.271	1.395	1.377	1.475	1.564	1.634	1.759	1.640	1.549	1.491	1.416	1.638	1.548	1.320
365.0	468.8	520.0	583.1	583.2	478.3	364.8	297.1	274.6	275.5	286.3	297.8	313.2	313.6	306.1	276.4	245.5	221.2	197.6	175.4	186.1	275.4	240.8	111.8	75.15	62.21	56.77	88.39	432.9	1647	1258	38.37	2.221	1.186	0.885	0.752	0.646	0.659	0.610	0.583	0.693	0.758	0.649	0.815	0.817	1.141	1.193	1.388	1.656	1.520	1.551	1.742	1.932	1.808	1.623	1.491	1.389	1.258	1.296	1.474	1.109	1.405	1.190	1.425	1.200	1.362	1.365	1.346	1.415	1.474	1.487	1.600	1.628	1.430	1.520	1.526	1.410	1.399
370.0	436.6	481.7	530.0	539.0	475.7	377.5	305.8	282.6	278.9	288.0	290.6	306.4	303.8	292.5	268.7	245.1	223.8	204.4	187.3	179.1	200.4	259.1	213.0	109.8	73.91	58.26	53.66	121.6	500.5	1241	960.9	170.5	7.610	1.441	0.878	0.759	0.700	0.682	0.650	0.635	0.692	0.673	0.714	0.741	0.983	1.060	1.222	1.397	1.483	1.474	1.525	1.828	1.771	1.696	1.597	1.330	1.182	1.282	1.351	1.298	1.388	1.221	1.374	1.328	1.347	1.325	1.473	1.450	1.358	1.352	1.562	1.563	1.495	1.472	1.430	1.372	1.308
375.0	411.0	451.4	513.1	503.0	465.8	387.3	320.8	291.1	294.0	289.5	300.4	298.7	296.8	286.2	264.2	243.8	225.9	213.2	199.1	184.1	180.0	194.3	256.1	199.7	101.9	73.32	60.79	63.04	136.6	312.7	857.1	1428	233.1	5.182	1.360	0.968	0.777	0.718	0.638	0.649	0.670	0.711	0.565	0.791	0.828	1.042	1.143	1.255	1.446	1.290	1.389	1.611	1.723	1.736	1.592	1.416	1.358	1.193	1.325	1.308	1.320	1.337	1.378	1.490	1.460	1.513	1.459	1.384	1.323	1.337	1.364	1.524	1.535	1.622	1.437	1.434	1.487
380.0	402.7	425.6	482.1	492.6	454.3	399.6	331.8	308.8	301.1	292.7	300.3	297.0	296.9	288.1	258.9	241.7	230.9	219.4	206.0	193.0	183.0	175.2	211.8	256.9	154.3	88.76	73.26	61.24	64.95	96.19	257.2	1176	1199	40.35	2.390	1.259	0.819	0.742	0.711	0.719	0.670	0.705	0.675	0.725	0.971	0.891	1.155	1.265	1.309	1.141	1.308	1.644	1.639	1.530	1.683	1.472	1.363	1.219	1.391	1.195	1.266	1.237	1.456	1.357	1.439	1.384	1.431	1.387	1.572	1.483	1.403	1.478	1.320	1.484	1.486	1.360	1.400
385.0	378.2	414.3	464.6	480.6	454.3	396.4	342.9	317.2	302.8	300.6	301.1	296.3	298.3	284.0	254.9	241.6	232.8	222.0	210.7	201.0	191.3	176.0	177.9	235.6	223.0	118.9	84.67	67.55	55.26	53.03	85.64	378.0	1254	877.3	29.86	1.716	1.097	0.764	0.729	0.710	0.751	0.670	0.647	0.761	0.896	0.978	1.037	1.286	1.346	1.083	1.314	1.560	1.595	1.798	1.571	1.392	1.331	1.303	1.332	1.437	1.273	1.381	1.407	1.166	1.402	1.331	1.503	1.338	1.512	1.328	1.303	1.678	1.390	1.542	1.454	1.449	1.439
390.0	378.2	408.2	441.1	461.4	447.1	389.9	345.3	324.5	307.4	300.6	301.2	291.2	292.0	276.5	252.8	238.5	232.1	223.6	215.2	206.4	197.7	184.3	174.6	185.3	221.2	191.4	113.2	79.96	61.39	50.07	50.97	108.4	383.2	879.4	682.0	133.3	5.464	1.051	0.909	0.806	0.669	0.844	0.722	0.825	0.894	0.997	0.963	1.202	1.315	1.186	1.204	1.472	1.544	1.699	1.556	1.396	1.376	1.438	1.469	1.454	1.345	1.514	1.413	1.438	1.437	1.394	1.406	1.360	1.393	1.339	1.304	1.497	1.479	1.465	1.397	1.473	1.472
395.0	384.5	391.7	427.0	439.6	418.4	398.9	352.0	333.9	315.3	302.6	296.5	288.7	289.0	268.8	248.7	238.2	230.6	221.3	216.6	209.3	202.0	189.0	176.6	170.5	171.2	207.7	180.7	101.9	74.44	58.52	50.10	52.49	103.4	219.7	599.1	1053	181.0	3.524	1.114	0.879	0.677	0.756	0.840	0.887	0.834	1.036	0.910	1.102	1.206	1.186	1.170	1.512	1.636	1.609	1.549	1.526	1.479	1.460	1.486	1.575	1.345	1.421	1.486	1.442	1.441	1.343	1.374	1.390	1.336	1.498	1.385	1.347	1.371	1.420	1.545	1.509	1.574
400.0	363.3	406.2	422.1	433.2	424.8	394.0	360.7	337.9	320.5	306.0	300.8	288.9	286.3	267.3	249.1	233.7	226.6	219.9	212.4	211.2	204.2	192.3	182.0	172.0	158.5	175.2	211.3	143.1	84.76	66.68	55.78	45.78	43.35	62.86	173.1	847.0	831.0	32.97	1.748	1.178	0.840	0.730	0.890	0.793	0.877	0.885	0.982	1.195	1.188	1.079	1.257	1.371	1.569	1.571	1.543	1.477	1.474	1.472	1.424	1.467	1.525	1.348	1.352	1.365	1.307	1.330	1.316	1.267	1.382	1.450	1.346	1.417	1.286	1.312	1.513	1.439	1.526
405.0	356.5	383.4	413.9	416.8	419.0	387.6	367.4	345.0	322.7	308.4	305.3	288.5	285.4	264.8	246.7	230.6	223.3	220.5	210.5	208.5	203.6	194.8	183.9	173.6	156.9	153.9	188.8	189.6	107.2	76.34	62.30	47.74	34.17	29.47	50.47	262.1	849.2	599.8	25.16	1.559	1.010	0.901	0.956	0.776	0.928	0.887	1.002	1.189	1.232	1.246	1.111	1.421	1.562	1.454	1.523	1.501	1.557	1.438	1.513	1.496	1.392	1.339	1.392	1.405	1.334	1.344	1.271	1.356	1.340	1.436	1.341	1.405	1.350	1.265	1.413	1.314	1.355
410.0	352.1	371.3	396.7	402.1	402.7	386.1	360.0	343.2	324.2	309.1	300.6	282.1	275.6	252.9	235.3	224.6	216.4	212.7	206.8	203.6	197.0	190.0	182.3	172.3	158.9	149.2	151.7	175.9	157.8	99.68	68.90	52.96	36.78	26.92	25.13	68.93	254.7	580.0	492.4	118.8	4.262	1.054	0.929	0.824	0.967	0.951	1.018	1.177	1.076	1.062	1.099	1.379	1.492	1.462	1.513	1.423	1.545	1.417	1.429	1.463	1.314	1.469	1.423	1.359	1.474	1.360	1.341	1.304	1.230	1.415	1.300	1.290	1.293	1.193	1.275	1.305	1.272
