Sample:	'1
File name:	Default_20240104_165135.FD3
Run date:	'16:45:14, 01/04/2024
Operator:	dsjg
Comment:	'

Instrument
Model:	F-2700 FL Spectrophotometer
Serial number:	2198-001
ROM Version:	4J14000 07

Instrument parameters
Measurement type:	3-D scan
Data mode:	Fluorescence
EX  Start WL:	220.0 nm
EX  End WL:	600.0 nm
EX Sampling interval:	5.0 nm
EM  Start WL:	230.0 nm
EM  End WL:	650.0 nm
EM Sampling interval:	5.0 nm
Scan speed:	12000 nm/min
EX Slit:	5.0 nm
EM Slit:	5.0 nm
PMT Voltage:	700 V
Response:	Auto 
Corrected spectra:	Off
Contour interval:	50.000

Peak integration
Integration method:	Rectangular
Sensitivity:	1
Threshold:	1.000

Peaks
No.	ApexEX/EM(nm)	Height(Data)
1	225.0/610.0	21.64
2	235.0/260.0	168.4
3	235.0/350.0	941.3
4	240.0/265.0	185.2
5	245.0/270.0	170.8
6	245.0/540.0	112.6
7	250.0/275.0	187.5
8	255.0/280.0	191.9
9	255.0/445.0	318.9
10	260.0/290.0	180.4
11	275.0/310.0	874.0
12	275.0/610.0	57.91
13	280.0/315.0	900.5
14	280.0/415.0	276.1
15	280.0/620.0	48.17
16	315.0/355.0	216.3
17	320.0/360.0	208.4
18	330.0/375.0	175.7
19	335.0/380.0	186.6
20	340.0/385.0	176.3
21	340.0/425.0	231.1
22	345.0/430.0	227.4
23	350.0/400.0	207.1
24	355.0/405.0	212.5
25	400.0/465.0	57.78
26	415.0/485.0	35.10
27	425.0/500.0	30.56
28	430.0/505.0	30.33
29	435.0/510.0	28.73
30	440.0/520.0	28.42
31	445.0/525.0	26.15
32	475.0/355.0	3.645
33	520.0/285.0	1.661
34	560.0/310.0	4.925
35	570.0/315.0	5.020
36	575.0/320.0	5.014

Data points
	220.0	225.0	230.0	235.0	240.0	245.0	250.0	255.0	260.0	265.0	270.0	275.0	280.0	285.0	290.0	295.0	300.0	305.0	310.0	315.0	320.0	325.0	330.0	335.0	340.0	345.0	350.0	355.0	360.0	365.0	370.0	375.0	380.0	385.0	390.0	395.0	400.0	405.0	410.0	415.0	420.0	425.0	430.0	435.0	440.0	445.0	450.0	455.0	460.0	465.0	470.0	475.0	480.0	485.0	490.0	495.0	500.0	505.0	510.0	515.0	520.0	525.0	530.0	535.0	540.0	545.0	550.0	555.0	560.0	565.0	570.0	575.0	580.0	585.0	590.0	595.0	600.0
230.0	24.83	293.6	652.4	173.2	9.028	4.822	4.003	3.662	3.016	2.609	2.360	2.134	1.814	1.498	1.450	1.050	0.952	0.859	0.755	0.772	0.676	0.632	0.593	0.573	0.546	0.524	0.517	0.481	0.486	0.482	0.459	0.406	0.423	0.367	0.424	0.470	0.498	0.476	0.422	0.422	0.389	0.427	0.413	0.354	0.313	0.345	0.372	0.841	2.022	2.423	1.383	0.473	0.263	0.256	0.265	0.262	0.251	0.242	0.277	0.257	0.221	0.249	0.278	0.242	0.254	0.259	0.251	0.255	0.235	0.234	0.263	0.232	0.250	0.234	0.254	0.280	0.269
235.0	30.67	105.0	578.5	890.2	260.7	10.63	4.366	3.435	3.282	2.615	2.417	2.346	1.682	1.494	1.328	1.171	1.050	0.931	0.754	0.751	0.693	0.621	0.656	0.608	0.544	0.541	0.538	0.500	0.467	0.556	0.439	0.447	0.455	0.327	0.426	0.354	0.379	0.463	0.400	0.461	0.388	0.351	0.411	0.397	0.401	0.387	0.297	0.463	0.824	1.691	2.951	3.890	2.380	0.796	0.258	0.257	0.250	0.269	0.315	0.280	0.286	0.271	0.281	0.212	0.260	0.227	0.251	0.175	0.240	0.291	0.271	0.262	0.238	0.273	0.266	0.282	0.277
240.0	49.51	48.19	212.0	937.3	998.2	171.5	5.606	3.766	3.528	3.177	2.516	2.425	1.781	1.665	1.531	1.082	1.161	0.914	0.825	0.735	0.639	0.692	0.645	0.592	0.622	0.627	0.552	0.471	0.465	0.446	0.498	0.386	0.412	0.366	0.410	0.356	0.389	0.469	0.406	0.463	0.485	0.403	0.416	0.396	0.407	0.460	0.386	0.395	0.414	0.677	1.407	3.733	5.551	4.120	1.808	0.470	0.239	0.233	0.290	0.265	0.280	0.247	0.278	0.240	0.250	0.259	0.293	0.202	0.274	0.240	0.218	0.212	0.241	0.236	0.243	0.290	0.236
245.0	59.07	73.73	69.87	391.6	 1212	872.0	102.5	4.525	3.737	3.656	2.873	2.568	2.274	1.768	1.418	1.154	1.075	0.927	0.708	0.763	0.710	0.671	0.577	0.524	0.563	0.607	0.521	0.617	0.511	0.484	0.503	0.434	0.401	0.385	0.373	0.346	0.307	0.448	0.423	0.478	0.429	0.416	0.417	0.347	0.397	0.439	0.469	0.533	0.381	0.376	0.569	1.283	3.142	5.692	5.829	3.661	1.110	0.323	0.267	0.275	0.272	0.241	0.258	0.240	0.303	0.298	0.261	0.228	0.338	0.252	0.247	0.245	0.236	0.228	0.274	0.269	0.287
250.0	30.79	85.51	106.7	126.2	452.7	 1027	796.5	165.0	13.57	3.532	3.255	2.631	2.336	1.829	1.513	1.294	1.050	1.087	0.763	0.785	0.715	0.661	0.615	0.592	0.592	0.540	0.606	0.549	0.456	0.482	0.528	0.475	0.419	0.407	0.383	0.337	0.319	0.358	0.418	0.482	0.416	0.442	0.425	0.408	0.406	0.405	0.410	0.522	0.599	0.613	0.524	0.576	0.993	1.906	3.140	4.534	5.333	4.958	2.868	1.049	0.340	0.227	0.271	0.261	0.285	0.254	0.263	0.263	0.281	0.253	0.261	0.272	0.272	0.247	0.310	0.235	0.312
255.0	21.47	36.12	111.7	148.0	135.3	295.0	862.6	 1248	224.3	12.80	3.386	2.564	2.392	1.701	1.600	1.219	1.297	1.083	0.809	0.815	0.649	0.614	0.644	0.620	0.540	0.507	0.567	0.537	0.437	0.540	0.424	0.521	0.395	0.406	0.371	0.363	0.355	0.363	0.331	0.438	0.364	0.441	0.376	0.441	0.396	0.408	0.300	0.368	0.429	0.535	0.870	0.827	0.670	0.701	0.960	1.266	2.100	4.347	6.876	7.435	4.264	1.137	0.365	0.317	0.276	0.286	0.257	0.240	0.259	0.275	0.238	0.236	0.263	0.300	0.300	0.249	0.287
260.0	16.87	16.52	56.24	168.4	131.4	86.33	305.6	 1150	 1184	167.4	7.240	2.985	2.616	2.062	1.699	1.310	1.294	1.183	0.755	0.713	0.705	0.699	0.596	0.603	0.501	0.670	0.581	0.567	0.414	0.477	0.488	0.545	0.400	0.400	0.360	0.347	0.304	0.358	0.302	0.344	0.356	0.460	0.429	0.428	0.429	0.353	0.350	0.394	0.325	0.333	0.533	0.863	1.094	0.781	0.521	0.525	0.729	1.366	3.148	6.315	8.764	6.992	2.936	0.638	0.298	0.279	0.245	0.292	0.291	0.256	0.262	0.214	0.283	0.254	0.253	0.224	0.295
265.0	15.97	14.56	22.16	98.08	185.2	87.13	83.38	448.9	 1332	 1050	124.5	4.374	2.896	2.209	1.800	1.518	1.223	1.065	0.872	0.743	0.756	0.705	0.610	0.611	0.524	0.676	0.603	0.573	0.459	0.489	0.531	0.542	0.441	0.364	0.410	0.363	0.273	0.418	0.293	0.287	0.371	0.387	0.482	0.378	0.446	0.424	0.355	0.318	0.343	0.313	0.336	0.532	0.903	1.170	1.021	0.537	0.405	0.555	1.020	2.109	4.818	8.154	9.490	5.738	1.722	0.353	0.273	0.260	0.298	0.305	0.290	0.250	0.315	0.213	0.271	0.268	0.294
270.0	16.08	14.19	12.53	32.10	104.2	170.8	101.1	122.2	467.7	 1070	 1152	424.2	25.48	2.564	2.286	1.788	1.324	1.180	0.858	0.856	0.770	0.770	0.748	0.615	0.621	0.599	0.585	0.608	0.509	0.481	0.504	0.491	0.462	0.424	0.403	0.395	0.301	0.387	0.296	0.301	0.324	0.324	0.390	0.400	0.430	0.421	0.379	0.356	0.340	0.280	0.303	0.345	0.445	0.642	0.979	1.062	0.957	0.744	0.543	0.710	1.374	2.496	4.513	6.458	7.730	6.842	4.053	1.466	0.386	0.298	0.282	0.253	0.297	0.256	0.265	0.263	0.266
275.0	18.69	16.95	13.68	15.21	31.46	98.02	187.5	116.3	119.9	292.4	852.9	 1413	582.8	21.83	2.658	1.901	1.542	1.244	1.042	0.898	0.860	0.804	0.791	0.611	0.595	0.590	0.611	0.588	0.546	0.565	0.481	0.472	0.445	0.456	0.404	0.398	0.445	0.405	0.322	0.313	0.333	0.327	0.366	0.310	0.409	0.427	0.395	0.389	0.349	0.332	0.308	0.312	0.378	0.378	0.474	0.596	0.999	1.418	1.163	0.744	0.596	0.811	1.349	1.750	2.571	4.922	8.302	9.143	5.364	1.438	0.280	0.256	0.251	0.280	0.306	0.264	0.272
280.0	21.16	19.65	14.33	12.23	14.37	37.45	139.8	191.9	85.33	82.43	277.7	 1066	 1276	127.9	8.678	2.112	1.786	1.360	1.080	0.925	0.867	0.840	0.790	0.641	0.590	0.574	0.528	0.615	0.550	0.519	0.581	0.463	0.455	0.506	0.397	0.380	0.410	0.338	0.370	0.316	0.318	0.345	0.338	0.289	0.437	0.431	0.384	0.360	0.392	0.358	0.342	0.315	0.356	0.317	0.333	0.358	0.576	0.959	1.428	1.390	0.911	0.550	0.577	0.626	0.851	1.510	3.522	6.838	9.718	8.456	3.577	0.589	0.287	0.286	0.281	0.294	0.267
285.0	27.45	24.14	19.27	14.13	12.03	17.22	62.78	180.7	169.4	57.87	83.59	378.3	 1145	 1002	96.75	3.682	1.990	1.554	1.322	0.942	0.888	1.015	0.748	0.679	0.584	0.622	0.599	0.722	0.480	0.557	0.479	0.490	0.517	0.462	0.458	0.438	0.406	0.383	0.306	0.345	0.302	0.324	0.311	0.303	0.375	0.444	0.414	0.418	0.427	0.382	0.352	0.351	0.315	0.296	0.391	0.384	0.384	0.526	0.884	1.332	1.661	1.076	0.577	0.448	0.492	0.653	1.088	2.203	4.661	8.357	9.728	6.711	1.878	0.332	0.300	0.276	0.255
290.0	31.13	30.27	27.53	19.34	15.60	17.97	30.30	84.47	180.4	173.3	83.25	118.5	383.2	843.0	936.4	366.7	22.45	2.436	1.596	1.195	1.026	0.876	0.913	0.782	0.709	0.671	0.641	0.604	0.510	0.499	0.491	0.496	0.465	0.479	0.447	0.421	0.417	0.394	0.327	0.365	0.279	0.323	0.333	0.305	0.319	0.356	0.437	0.423	0.416	0.425	0.346	0.344	0.384	0.357	0.391	0.349	0.349	0.422	0.499	0.670	0.936	1.258	1.352	1.148	0.769	0.562	0.597	0.842	1.432	2.613	4.350	6.383	7.197	6.694	4.060	1.280	0.305
295.0	37.04	42.98	39.91	29.46	26.99	29.34	36.64	52.18	101.9	215.0	208.8	115.1	146.3	255.6	583.4	 1215	536.5	25.82	2.884	1.652	1.229	1.043	0.941	0.973	0.729	0.711	0.628	0.654	0.566	0.542	0.474	0.557	0.431	0.507	0.473	0.441	0.394	0.357	0.369	0.335	0.269	0.282	0.412	0.332	0.293	0.304	0.324	0.386	0.466	0.437	0.349	0.450	0.414	0.443	0.435	0.403	0.395	0.460	0.470	0.490	0.573	0.722	0.890	1.563	1.853	1.376	0.863	0.780	0.819	1.090	1.424	1.916	2.575	4.567	8.468	9.853	5.389
300.0	51.91	69.56	73.06	59.71	55.33	64.75	87.96	114.1	163.7	251.6	423.4	370.9	172.3	173.9	311.0	845.6	 1425	412.9	14.62	2.486	1.538	1.148	1.002	0.934	0.829	0.717	0.678	0.683	0.640	0.584	0.564	0.555	0.491	0.475	0.469	0.424	0.397	0.409	0.427	0.352	0.259	0.341	0.358	0.298	0.310	0.368	0.368	0.499	0.560	0.526	0.507	0.587	0.538	0.511	0.554	0.549	0.600	0.682	0.802	0.762	0.957	0.984	1.134	1.568	2.123	2.734	2.378	2.004	1.491	1.295	1.508	1.446	1.711	2.167	3.883	7.439	10.51
305.0	74.61	126.1	129.7	111.8	108.9	137.7	189.9	253.8	288.9	473.8	657.0	790.5	576.8	425.0	411.3	517.1	 1187	 1466	69.10	5.622	1.919	1.414	1.125	1.000	0.858	0.783	0.876	0.798	0.743	0.641	0.586	0.530	0.558	0.618	0.546	0.460	0.464	0.381	0.407	0.347	0.333	0.394	0.374	0.315	0.307	0.441	0.534	0.568	0.641	0.600	0.648	0.677	0.797	0.771	0.753	0.799	1.013	1.146	1.199	1.418	1.737	1.871	2.299	2.550	3.029	3.776	4.061	4.323	3.533	2.670	2.651	2.438	2.353	2.448	2.656	3.426	6.286
310.0	107.6	183.5	196.7	167.7	159.8	194.5	263.4	345.3	430.7	584.4	714.5	874.0	848.1	630.6	513.7	436.9	637.7	 1013	 1069	269.5	16.62	1.842	1.445	1.035	0.972	0.887	0.821	0.831	0.728	0.626	0.627	0.547	0.547	0.626	0.522	0.493	0.473	0.392	0.452	0.374	0.360	0.436	0.362	0.394	0.383	0.474	0.542	0.662	0.827	0.741	0.782	0.863	0.879	0.912	1.007	1.073	1.217	1.441	1.720	1.928	2.031	2.471	2.749	3.200	3.534	3.808	4.096	4.733	4.925	4.466	3.735	3.127	3.123	3.074	2.665	2.499	3.462
315.0	137.7	248.5	276.1	233.6	215.2	243.1	312.1	385.8	489.9	637.3	752.6	871.8	900.5	836.2	641.2	463.2	498.7	461.8	519.7	 1184	417.3	15.06	1.756	1.336	1.256	0.893	0.820	0.845	0.828	0.698	0.713	0.572	0.580	0.658	0.554	0.499	0.548	0.447	0.414	0.409	0.371	0.447	0.428	0.428	0.444	0.640	0.621	0.852	0.936	1.001	1.011	1.045	1.061	1.147	1.184	1.265	1.465	1.676	1.950	2.195	2.408	2.720	3.033	3.259	3.673	4.031	3.938	4.513	4.637	4.777	5.020	4.409	3.955	3.304	2.964	2.675	3.011
320.0	161.2	283.2	331.0	266.3	238.4	263.2	338.7	421.5	507.4	646.2	772.5	873.2	881.3	851.2	766.3	495.0	469.6	333.0	188.0	639.2	 1286	306.4	6.000	1.678	1.295	1.227	1.028	0.897	0.787	0.807	0.740	0.666	0.602	0.641	0.581	0.567	0.461	0.441	0.431	0.407	0.351	0.403	0.418	0.407	0.431	0.636	0.755	1.071	1.088	1.223	1.007	1.141	1.200	1.189	1.318	1.364	1.443	1.751	2.021	2.292	2.391	2.798	3.055	3.417	3.797	4.008	4.073	4.598	4.667	4.376	4.719	5.014	4.994	3.944	3.243	2.796	2.728
325.0	172.2	332.4	377.8	310.3	255.1	267.4	335.0	407.5	474.6	600.0	719.9	822.8	806.4	760.1	762.3	543.5	441.6	290.5	99.34	203.0	821.3	 1230	51.76	3.346	1.395	1.213	1.220	0.914	0.814	0.671	0.795	0.640	0.592	0.605	0.576	0.616	0.532	0.458	0.442	0.426	0.381	0.429	0.424	0.437	0.520	0.640	0.734	1.226	1.246	1.227	1.206	1.236	1.238	1.264	1.262	1.349	1.515	1.716	2.101	2.298	2.316	2.682	2.823	3.259	3.616	3.703	4.214	4.168	4.328	4.344	4.001	4.045	4.457	4.449	3.432	2.629	2.594
330.0	211.4	426.6	550.1	513.6	402.6	300.5	325.4	377.2	427.7	537.8	651.8	744.0	750.4	685.0	650.0	578.3	481.1	278.8	99.31	90.44	249.4	728.3	 1006	220.0	15.05	1.740	1.391	0.991	0.931	0.876	0.760	0.714	0.667	0.632	0.609	0.613	0.521	0.460	0.465	0.461	0.455	0.406	0.434	0.451	0.516	0.673	0.905	1.333	1.674	1.699	1.810	2.126	1.902	1.765	1.679	1.608	1.623	1.695	2.024	2.220	2.040	2.329	2.659	2.917	3.125	3.464	3.732	3.795	4.020	3.948	3.837	3.680	3.842	3.659	3.633	3.529	3.066
335.0	260.9	553.5	781.9	831.3	656.2	387.0	329.3	353.9	406.4	501.2	606.2	693.6	706.8	651.1	595.1	515.6	539.8	343.8	135.8	94.86	112.2	214.0	459.7	 1189	355.3	15.27	1.823	1.201	1.066	0.964	0.811	0.776	0.811	0.569	0.647	0.537	0.578	0.517	0.463	0.462	0.404	0.384	0.432	0.453	0.526	0.677	0.978	1.456	2.179	2.323	2.536	3.345	3.118	2.963	2.347	1.866	1.868	1.788	1.923	2.080	1.926	2.157	2.446	2.550	2.941	3.083	3.493	3.571	3.780	3.760	3.871	3.604	3.499	3.413	3.182	3.259	3.435
340.0	271.2	572.4	853.0	916.5	714.0	412.2	315.2	339.7	363.9	454.8	544.1	637.0	645.2	604.0	546.6	452.4	465.9	398.0	170.7	102.0	87.71	97.77	157.1	633.9	 1274	273.3	5.637	1.415	1.067	1.027	0.842	0.781	0.825	0.593	0.619	0.567	0.607	0.524	0.521	0.442	0.362	0.400	0.367	0.485	0.595	0.754	0.964	1.464	2.172	2.516	2.685	3.494	3.433	3.292	2.457	1.747	1.662	1.726	1.998	1.932	2.014	2.147	2.357	2.467	2.693	2.872	3.199	3.173	3.475	3.394	3.641	3.282	3.458	3.105	2.761	2.850	2.655
345.0	248.2	555.8	833.9	919.7	709.6	399.2	295.5	302.3	336.0	398.9	487.0	563.0	574.8	547.3	493.0	404.0	375.5	363.6	235.8	112.1	83.33	74.76	78.73	199.2	834.6	 1163	45.69	2.655	1.420	1.190	0.952	0.712	0.741	0.633	0.634	0.622	0.545	0.532	0.526	0.407	0.443	0.379	0.369	0.492	0.545	0.650	0.957	1.532	2.139	2.526	2.701	3.482	3.451	3.183	2.340	1.655	1.525	1.613	1.764	1.876	1.782	1.859	2.092	2.281	2.349	2.537	2.911	2.907	3.020	3.094	3.310	2.964	3.091	2.834	2.554	2.442	2.491
350.0	233.8	538.0	829.2	941.3	755.4	412.7	290.2	291.0	309.8	363.6	426.8	487.7	510.6	491.2	445.1	368.7	327.0	280.3	251.0	188.4	103.6	78.80	71.93	84.05	232.8	688.0	925.4	198.3	13.34	1.411	1.064	0.882	0.817	0.725	0.729	0.613	0.557	0.525	0.480	0.406	0.423	0.393	0.428	0.473	0.488	0.687	1.000	1.646	2.080	2.427	2.839	3.598	3.592	3.388	2.470	1.764	1.635	1.511	1.708	1.736	1.794	1.827	1.994	2.077	2.307	2.295	2.451	2.655	2.763	2.738	2.851	2.755	2.769	2.644	2.416	2.206	2.294
355.0	218.7	488.1	800.5	909.3	758.1	413.0	285.3	280.9	290.9	331.0	379.6	425.9	444.5	434.2	396.9	330.2	293.0	238.2	191.9	216.3	173.4	93.03	78.11	66.06	78.31	172.6	386.4	 1037	326.3	14.31	1.437	0.974	0.911	0.752	0.693	0.627	0.562	0.527	0.440	0.452	0.319	0.384	0.445	0.465	0.535	0.690	0.961	1.492	1.977	2.427	2.812	3.645	3.350	3.419	2.444	1.665	1.671	1.451	1.493	1.571	1.697	1.649	1.917	1.863	2.054	2.064	2.121	2.323	2.620	2.579	2.425	2.447	2.472	2.269	2.249	2.099	2.091
360.0	199.4	436.7	713.9	824.4	703.1	394.6	277.8	268.3	278.8	303.8	341.1	380.7	391.7	380.3	350.9	302.8	265.6	217.0	166.6	174.4	208.4	127.6	82.98	65.65	49.19	58.36	107.2	533.1	 1137	255.7	5.525	1.178	0.965	0.855	0.730	0.618	0.609	0.555	0.512	0.440	0.394	0.399	0.409	0.543	0.541	0.673	0.894	1.401	1.791	2.101	2.339	3.372	3.374	3.115	2.225	1.732	1.614	1.376	1.443	1.447	1.608	1.648	1.738	1.749	1.990	1.940	2.115	2.101	2.107	2.339	2.294	2.360	2.311	2.232	2.059	1.977	1.950
365.0	173.5	392.0	626.0	751.9	643.9	379.0	274.1	258.4	266.2	282.9	313.2	346.7	353.5	345.3	317.1	277.5	246.3	204.2	161.2	147.7	185.9	183.7	101.8	69.12	48.53	39.24	42.35	149.4	741.1	 1060	43.14	2.656	1.105	0.996	0.871	0.539	0.542	0.532	0.490	0.432	0.420	0.464	0.378	0.472	0.505	0.601	0.804	1.299	1.620	1.919	2.264	2.953	3.091	2.843	2.245	1.795	1.478	1.469	1.563	1.434	1.505	1.647	1.612	1.627	1.824	1.758	1.903	1.909	1.980	2.124	2.012	2.190	1.982	2.114	1.923	1.802	1.763
370.0	159.3	341.8	557.9	687.1	597.9	371.6	269.7	258.0	263.4	273.3	293.0	313.5	320.1	310.7	291.0	257.3	231.4	196.6	163.3	147.2	148.9	178.8	165.9	96.37	60.92	45.80	36.72	52.26	201.7	632.6	859.8	181.5	11.83	1.295	0.858	0.695	0.611	0.583	0.489	0.473	0.413	0.460	0.455	0.455	0.498	0.603	0.794	1.077	1.450	1.784	2.103	2.653	2.752	2.591	2.104	1.707	1.467	1.446	1.460	1.370	1.295	1.444	1.526	1.554	1.754	1.680	1.804	1.723	1.828	1.886	1.789	1.927	1.883	1.846	1.818	1.741	1.583
375.0	138.8	304.1	479.7	598.1	543.3	345.6	265.2	253.8	255.5	264.1	274.6	283.7	283.3	280.0	262.5	237.7	216.9	188.4	163.7	150.3	140.3	143.8	175.7	161.0	85.28	60.14	46.48	40.90	66.51	159.0	368.7	957.5	285.5	13.10	1.212	0.968	0.627	0.538	0.519	0.506	0.435	0.475	0.447	0.402	0.495	0.594	0.763	1.018	1.343	1.534	1.834	2.292	2.414	2.446	2.085	1.621	1.400	1.428	1.459	1.413	1.269	1.466	1.425	1.535	1.502	1.543	1.517	1.501	1.613	1.673	1.656	1.717	1.636	1.703	1.729	1.741	1.417
380.0	129.2	267.0	426.7	529.0	488.6	336.9	264.2	254.8	250.9	255.9	262.0	266.2	267.9	258.8	244.5	222.2	206.3	184.6	165.1	155.4	144.2	139.1	150.9	186.6	128.9	76.42	59.29	47.83	44.78	57.67	103.7	498.2	972.8	215.1	4.585	1.134	0.787	0.605	0.579	0.556	0.443	0.485	0.467	0.456	0.492	0.504	0.611	0.864	1.232	1.381	1.645	2.100	2.250	2.175	1.874	1.588	1.335	1.386	1.297	1.447	1.404	1.471	1.432	1.554	1.459	1.520	1.539	1.501	1.504	1.533	1.720	1.531	1.583	1.612	1.602	1.519	1.546
385.0	122.7	244.3	393.8	472.5	447.5	320.2	262.7	248.4	242.5	244.5	254.9	257.2	253.8	249.6	235.8	212.4	198.2	180.2	165.3	156.8	150.4	146.3	144.8	167.9	176.3	107.9	74.88	61.21	50.27	43.45	45.84	141.5	643.9	838.2	35.14	1.961	0.963	0.720	0.563	0.579	0.432	0.478	0.439	0.441	0.472	0.556	0.553	0.766	1.069	1.343	1.416	1.909	2.072	1.993	1.761	1.508	1.345	1.335	1.336	1.425	1.392	1.386	1.340	1.514	1.462	1.499	1.529	1.344	1.546	1.540	1.606	1.595	1.458	1.650	1.540	1.508	1.547
390.0	114.4	221.6	348.5	423.0	415.4	310.1	263.5	247.2	243.8	241.1	248.7	249.4	250.1	250.1	230.7	206.6	192.9	180.5	169.2	163.3	161.9	157.4	155.4	155.7	175.4	170.0	117.5	85.81	71.00	56.83	45.59	55.03	176.8	502.0	648.3	143.5	9.900	0.974	0.693	0.613	0.484	0.484	0.445	0.465	0.455	0.594	0.559	0.804	1.039	1.144	1.300	1.763	1.852	1.914	1.644	1.452	1.441	1.385	1.309	1.468	1.410	1.386	1.334	1.413	1.328	1.366	1.474	1.404	1.522	1.558	1.568	1.576	1.541	1.511	1.465	1.425	1.445
395.0	106.9	204.5	314.1	386.4	379.5	298.2	266.4	249.3	242.7	243.7	243.9	250.5	252.1	249.4	234.7	208.1	190.4	178.3	174.4	171.0	172.7	173.2	173.0	167.1	169.2	185.2	183.8	126.4	97.53	79.22	60.66	46.00	60.56	125.3	280.8	706.0	227.9	9.848	0.914	0.691	0.531	0.518	0.491	0.455	0.484	0.537	0.580	0.750	0.991	0.977	1.229	1.633	1.709	1.799	1.671	1.361	1.535	1.425	1.337	1.324	1.300	1.298	1.360	1.450	1.308	1.382	1.439	1.492	1.594	1.525	1.561	1.607	1.628	1.587	1.469	1.412	1.496
400.0	105.9	199.7	291.7	353.6	352.7	295.3	265.8	255.0	242.9	241.6	244.9	252.8	260.9	255.2	237.4	206.7	190.9	179.5	175.5	176.8	179.1	184.4	186.5	183.0	179.7	182.5	207.1	176.3	123.5	98.94	74.62	52.57	39.28	43.31	75.40	369.6	718.1	171.0	3.289	0.880	0.620	0.550	0.487	0.470	0.495	0.556	0.535	0.728	0.888	0.998	1.142	1.513	1.533	1.609	1.579	1.282	1.393	1.446	1.464	1.464	1.397	1.269	1.441	1.330	1.240	1.286	1.420	1.492	1.582	1.467	1.445	1.594	1.551	1.571	1.534	1.424	1.447
405.0	97.66	183.0	279.4	333.7	333.3	284.1	270.1	253.8	248.2	243.6	248.0	255.7	266.0	260.8	239.7	208.8	189.2	177.5	177.3	180.1	186.1	192.3	197.7	196.6	194.1	191.3	202.0	212.5	159.3	116.2	88.46	61.73	39.95	28.03	27.54	100.2	461.4	618.2	30.13	1.641	0.671	0.587	0.485	0.414	0.500	0.534	0.590	0.728	0.933	0.915	1.126	1.422	1.488	1.549	1.520	1.316	1.344	1.410	1.469	1.429	1.392	1.359	1.381	1.315	1.328	1.344	1.367	1.540	1.571	1.560	1.560	1.661	1.590	1.616	1.454	1.359	1.371
410.0	96.85	174.3	269.4	313.0	324.6	289.9	267.7	257.9	249.6	244.3	253.9	261.5	271.0	267.7	247.5	211.1	185.7	174.5	177.2	182.1	190.4	199.8	207.6	211.0	211.2	207.3	203.1	210.5	205.5	152.1	106.7	74.31	47.35	29.69	20.16	31.64	121.7	369.9	479.9	127.5	7.758	0.867	0.662	0.503	0.461	0.564	0.588	0.725	0.873	0.932	1.005	1.278	1.398	1.431	1.470	1.335	1.344	1.309	1.486	1.364	1.356	1.428	1.375	1.338	1.400	1.413	1.380	1.518	1.525	1.632	1.700	1.621	1.579	1.652	1.517	1.503	1.364
415.0	96.32	170.7	245.6	288.6	305.3	286.4	274.7	263.8	252.9	249.4	257.3	263.2	276.1	275.8	248.8	208.1	181.7	173.0	175.3	181.0	190.0	203.0	214.6	221.1	224.2	220.2	214.9	206.1	206.9	194.3	133.5	86.07	56.01	35.86	23.19	19.65	35.85	89.63	212.8	516.7	188.4	7.822	0.857	0.627	0.517	0.557	0.606	0.728	0.847	0.961	0.874	1.284	1.338	1.389	1.424	1.286	1.477	1.395	1.438	1.479	1.388	1.446	1.323	1.261	1.463	1.427	1.315	1.613	1.479	1.652	1.631	1.783	1.619	1.649	1.477	1.567	1.444
