Sample:	'1
File name:	t2025031915华安进水.FD3
Run date:	'18:55:30, 03/19/2025
Operator:	Administrator
Comment:	'

Instrument
Model:	F-2700 FL Spectrophotometer
Serial number:	23B8-004
ROM Version:	4J14000 07

Instrument parameters
Measurement type:	3-D scan
Data mode:	Fluorescence
EX  Start WL:	220.0 nm
EX  End WL:	600.0 nm
EX Sampling interval:	5.0 nm
EM  Start WL:	230.0 nm
EM  End WL:	650.0 nm
EM Sampling interval:	5.0 nm
Scan speed:	12000 nm/min
EX Slit:	5.0 nm
EM Slit:	5.0 nm
PMT Voltage:	700 V
Response:	Auto 
Corrected spectra:	Off
Contour interval:	50.000

Peak integration
Integration method:	Rectangular
Sensitivity:	1
Threshold:	1.000

Peaks
No.	ApexEX/EM(nm)	Height(Data)
1	225.0/340.0	1240
2	225.0/490.0	187.8
3	225.0/620.0	14.62
4	230.0/500.0	167.0
5	235.0/515.0	138.0
6	240.0/265.0	443.7
7	240.0/525.0	135.9
8	240.0/625.0	7.470
9	245.0/270.0	438.0
10	245.0/540.0	117.5
11	250.0/275.0	547.6
12	250.0/550.0	105.0
13	255.0/280.0	637.1
14	255.0/565.0	106.9
15	260.0/290.0	568.1
16	260.0/575.0	95.04
17	265.0/585.0	88.46
18	270.0/300.0	887.9
19	270.0/600.0	77.39
20	275.0/305.0	891.2
21	275.0/335.0	403.0
22	275.0/610.0	62.12
23	280.0/310.0	697.3
24	280.0/625.0	50.41
25	285.0/315.0	659.1
26	285.0/635.0	38.61
27	290.0/325.0	609.5
28	295.0/330.0	456.8
29	300.0/335.0	430.6
30	305.0/340.0	348.8
31	310.0/350.0	262.1
32	315.0/355.0	230.5
33	320.0/360.0	210.2
34	325.0/370.0	156.6
35	330.0/375.0	142.6
36	335.0/380.0	145.2
37	340.0/385.0	114.6
38	345.0/395.0	91.48
39	350.0/400.0	102.9
40	355.0/405.0	86.22
41	360.0/415.0	68.07
42	365.0/420.0	73.85
43	370.0/425.0	66.72
44	380.0/440.0	51.24
45	385.0/445.0	44.52
46	390.0/450.0	34.02
47	395.0/460.0	31.26
48	400.0/465.0	27.09
49	405.0/470.0	20.47
50	410.0/480.0	18.74
51	415.0/485.0	16.89
52	420.0/490.0	13.46
53	425.0/500.0	12.60
54	430.0/505.0	11.23
55	435.0/510.0	8.860
56	440.0/520.0	8.652
57	445.0/525.0	7.452
58	455.0/340.0	3.644
59	455.0/540.0	5.514
60	460.0/545.0	4.433
61	470.0/560.0	2.890
62	480.0/575.0	1.617
63	485.0/265.0	2.215
64	485.0/580.0	1.442
65	495.0/270.0	2.176
66	505.0/275.0	3.311
67	510.0/280.0	3.823
68	520.0/285.0	3.930
69	530.0/290.0	3.878
70	535.0/270.0	51.21
71	540.0/295.0	4.778
72	545.0/300.0	5.110
73	555.0/305.0	4.876
74	560.0/310.0	3.941
75	575.0/315.0	4.067
76	580.0/320.0	4.060
77	585.0/325.0	3.981

Data points
	220.0	225.0	230.0	235.0	240.0	245.0	250.0	255.0	260.0	265.0	270.0	275.0	280.0	285.0	290.0	295.0	300.0	305.0	310.0	315.0	320.0	325.0	330.0	335.0	340.0	345.0	350.0	355.0	360.0	365.0	370.0	375.0	380.0	385.0	390.0	395.0	400.0	405.0	410.0	415.0	420.0	425.0	430.0	435.0	440.0	445.0	450.0	455.0	460.0	465.0	470.0	475.0	480.0	485.0	490.0	495.0	500.0	505.0	510.0	515.0	520.0	525.0	530.0	535.0	540.0	545.0	550.0	555.0	560.0	565.0	570.0	575.0	580.0	585.0	590.0	595.0	600.0
230.0	84.78	1678	3731	783.2	24.19	3.656	3.251	3.037	2.019	1.937	2.285	1.814	1.793	1.543	1.234	1.156	1.013	0.861	0.886	1.109	0.742	0.873	0.701	0.545	0.576	0.490	0.483	0.426	0.337	0.465	0.370	0.408	0.362	0.326	0.317	0.320	0.252	0.259	0.231	0.252	0.523	0.808	0.726	0.315	0.217	0.255	2.317	9.188	14.05	7.832	2.264	0.341	0.130	0.106	0.093	0.129	0.095	0.094	0.086	0.071	0.069	0.063	0.052	0.052	0.040	0.045	0.056	0.066	0.048	0.021	0.037	0.039	0.038	0.027	0.007	0.034	0.036
235.0	191.4	474.0	2475	3349	547.0	39.13	4.252	3.849	2.236	2.736	2.674	2.012	2.183	1.519	1.256	1.218	0.916	0.994	1.049	1.203	0.706	0.918	0.771	0.526	0.574	0.571	0.557	0.441	0.390	0.424	0.431	0.382	0.408	0.281	0.323	0.313	0.268	0.274	0.315	0.220	0.273	0.459	0.641	0.679	0.648	0.410	0.643	2.448	5.826	9.192	11.52	11.00	4.712	0.677	0.145	0.117	0.078	0.107	0.088	0.101	0.060	0.041	0.093	0.035	0.023	0.025	0.060	0.058	0.039	0.041	0.043	0.036	0.027	0.011	0.012	0.029	0.021
240.0	290.1	226.5	757.0	3110	4074	423.5	21.41	5.565	3.478	2.910	2.951	2.189	2.316	1.964	1.766	1.372	1.150	1.033	1.039	1.377	0.936	0.989	0.659	0.664	0.538	0.510	0.582	0.535	0.501	0.531	0.377	0.404	0.349	0.332	0.338	0.334	0.300	0.291	0.273	0.221	0.260	0.259	0.343	0.503	0.802	0.928	0.621	0.775	1.475	2.763	6.857	15.77	19.35	10.47	3.427	0.426	0.126	0.139	0.080	0.175	0.096	0.079	0.105	0.128	0.038	0.064	0.059	0.035	0.037	0.034	0.032	0.047	0.029	0.053	0.006	0.015	0.032
245.0	208.6	311.7	256.4	1110	4991	3396	327.7	10.35	4.701	3.663	3.805	2.570	2.634	1.869	1.751	1.448	1.306	1.144	1.047	1.272	0.813	1.151	0.710	0.661	0.669	0.536	0.553	0.501	0.475	0.465	0.327	0.442	0.352	0.314	0.353	0.312	0.261	0.273	0.270	0.275	0.205	0.275	0.196	0.242	0.496	0.911	1.075	0.923	0.604	0.741	1.697	5.590	14.57	20.93	20.05	10.38	2.335	0.218	0.136	0.189	0.114	0.073	0.082	0.100	0.067	0.075	0.039	0.011	0.030	0.041	0.122	0.049	0.024	0.049	0.031	0.032	0.042
250.0	74.11	225.0	318.7	354.0	1698	3916	5187	1187	62.88	6.401	5.199	4.059	3.065	2.328	2.267	1.546	1.403	1.474	1.246	1.339	0.892	1.236	0.784	0.696	0.699	0.618	0.604	0.462	0.523	0.508	0.401	0.511	0.404	0.296	0.354	0.355	0.295	0.266	0.266	0.249	0.213	0.311	0.194	0.209	0.296	0.404	0.591	0.946	1.174	0.907	0.814	1.453	3.640	6.968	12.52	20.21	24.62	19.05	11.10	3.155	0.291	0.132	0.092	0.090	0.079	0.104	0.083	0.071	0.072	0.105	0.066	0.043	0.052	0.031	0.039	0.018	0.026
255.0	29.62	69.31	237.9	406.0	479.7	1020	4626	7249	1684	60.82	8.201	6.418	4.808	3.032	2.972	1.820	1.714	1.657	1.525	1.577	0.966	1.296	0.910	0.757	0.825	0.555	0.665	0.692	0.595	0.554	0.558	0.519	0.502	0.366	0.375	0.335	0.304	0.347	0.287	0.262	0.272	0.284	0.226	0.250	0.260	0.259	0.293	0.358	0.648	1.068	1.537	1.471	1.200	1.712	3.004	4.864	9.388	23.99	43.20	29.78	17.51	3.041	0.242	0.129	0.110	0.111	0.099	0.078	0.082	0.097	0.060	0.044	0.066	0.059	0.038	0.012	0.023
260.0	25.93	27.98	86.57	353.9	387.1	284.3	1421	6408	8312	262.6	26.88	8.613	6.135	3.825	3.506	2.751	2.002	1.839	1.542	1.726	0.967	1.389	1.007	0.844	0.969	0.783	0.630	0.837	0.617	0.605	0.591	0.569	0.582	0.358	0.389	0.402	0.356	0.344	0.338	0.276	0.306	0.259	0.281	0.161	0.258	0.207	0.242	0.197	0.267	0.519	0.992	1.884	1.881	1.163	0.913	1.273	2.384	6.540	18.99	43.25	58.89	27.52	14.06	1.534	0.221	0.143	0.100	0.123	0.065	0.077	0.070	0.056	0.068	0.068	0.051	0.044	0.052
265.0	24.15	20.39	34.57	167.4	443.7	272.1	359.6	2209	9384	7459	213.4	14.82	8.520	5.649	4.749	3.002	2.578	2.097	1.710	1.974	1.278	1.600	0.984	0.835	0.866	0.846	0.643	0.818	0.566	0.830	0.478	0.630	0.616	0.465	0.440	0.400	0.323	0.286	0.301	0.298	0.312	0.296	0.302	0.195	0.228	0.238	0.230	0.250	0.229	0.263	0.419	1.029	1.942	2.215	1.552	0.673	0.749	1.650	4.622	13.14	33.06	57.55	73.02	24.92	7.571	0.589	0.205	0.167	0.104	0.116	0.045	0.096	0.061	0.114	0.067	0.049	0.026
270.0	35.28	22.83	23.30	53.98	223.9	438.0	318.6	553.2	2983	7969	9999.9	2776	58.23	9.149	6.288	4.461	3.511	2.716	2.256	2.422	1.591	1.855	1.191	0.928	0.921	0.840	0.743	0.834	0.748	0.829	0.476	0.766	0.602	0.529	0.497	0.497	0.465	0.404	0.404	0.339	0.331	0.327	0.310	0.272	0.246	0.263	0.233	0.292	0.251	0.219	0.253	0.356	0.732	1.218	1.901	2.176	1.876	1.116	1.371	3.223	7.839	16.51	35.88	51.21	44.01	55.26	15.91	6.873	0.709	0.225	0.143	0.156	0.092	0.119	0.081	0.090	0.057
275.0	50.99	33.62	30.62	28.83	73.13	197.0	547.6	379.4	709.3	1970	7535	9999.9	1250	59.76	10.07	7.137	4.695	3.543	2.929	3.211	1.813	2.362	1.557	1.217	1.105	1.025	0.841	0.921	0.787	1.003	0.746	0.885	0.712	0.701	0.797	0.577	0.578	0.502	0.504	0.434	0.344	0.452	0.349	0.416	0.234	0.397	0.300	0.358	0.293	0.288	0.237	0.291	0.318	0.473	0.709	1.077	2.381	3.311	2.441	1.359	2.062	3.963	8.380	11.97	14.06	41.01	75.21	91.73	26.44	7.602	0.542	0.242	0.155	0.166	0.123	0.135	0.124
280.0	80.37	60.05	41.35	26.11	42.59	66.23	341.5	637.1	312.0	500.6	2124	9999.9	9999.9	911.4	32.01	9.397	6.060	5.001	4.128	3.845	2.018	2.608	1.655	1.373	1.198	1.153	1.038	0.961	0.766	0.872	0.812	0.793	0.836	0.743	0.774	0.810	0.633	0.606	0.541	0.487	0.493	0.458	0.441	0.405	0.410	0.375	0.394	0.341	0.300	0.284	0.242	0.229	0.211	0.295	0.313	0.445	0.904	2.035	3.823	3.365	1.688	1.323	2.341	3.046	3.559	10.18	25.12	65.99	106.0	82.82	21.64	3.485	0.319	0.214	0.178	0.148	0.179
285.0	106.1	76.24	48.03	32.77	36.12	33.48	132.7	546.3	559.6	228.9	567.3	3076	9999.9	8607	126.4	17.20	8.898	6.152	5.306	4.864	2.444	2.933	1.913	1.515	1.210	1.242	1.287	1.100	0.843	0.849	0.881	0.897	0.925	0.814	0.865	0.840	0.728	0.674	0.636	0.559	0.597	0.572	0.632	0.493	0.437	0.465	0.468	0.430	0.438	0.339	0.268	0.246	0.258	0.247	0.273	0.369	0.393	0.758	1.843	3.334	3.930	2.623	1.188	1.110	1.247	2.830	6.186	16.71	41.75	77.50	107.2	31.83	15.90	1.077	0.209	0.242	0.215
290.0	148.7	114.0	79.36	45.74	45.47	38.86	69.16	222.3	568.1	525.1	287.4	801.9	3144	9718	9999.9	2503	39.85	9.818	7.275	6.294	3.463	3.776	2.464	1.903	1.707	1.346	1.234	1.254	1.100	1.091	1.019	0.989	1.072	1.089	0.977	1.053	0.821	0.800	0.730	0.630	0.727	0.624	0.678	0.510	0.602	0.627	0.551	0.531	0.457	0.376	0.358	0.282	0.297	0.320	0.308	0.337	0.405	0.469	0.784	1.303	2.222	3.543	3.878	2.907	1.604	1.391	2.016	4.286	9.986	19.51	38.80	55.07	83.59	56.32	52.13	11.91	2.128
295.0	201.5	161.0	100.4	65.16	61.70	55.14	67.01	115.0	249.6	643.2	685.4	345.1	795.8	2308	7498	9999.9	732.4	46.85	10.65	9.311	4.668	4.754	3.052	2.097	2.238	1.491	1.618	1.475	1.281	1.214	1.191	1.265	1.199	1.278	1.063	1.197	0.956	0.900	0.772	0.725	0.704	0.794	0.760	0.641	0.765	0.736	0.684	0.637	0.535	0.447	0.498	0.423	0.354	0.390	0.342	0.518	0.470	0.502	0.524	0.721	0.974	1.494	2.266	3.695	4.778	2.950	1.538	1.591	2.879	5.016	9.130	12.70	20.74	28.47	83.07	112.0	33.89
300.0	227.9	184.2	129.7	81.26	76.82	67.39	83.27	104.4	165.5	370.1	887.9	518.2	300.2	592.5	1984	9874	9999.9	613.7	27.75	12.76	6.044	6.394	3.887	2.619	2.388	1.908	2.003	1.687	1.409	1.294	1.171	1.213	1.307	1.469	1.209	1.084	1.010	1.008	0.962	0.866	0.752	0.897	0.779	0.713	0.698	0.767	0.787	0.814	0.568	0.509	0.449	0.517	0.471	0.361	0.452	0.473	0.623	0.633	0.678	0.711	0.839	0.938	1.265	1.948	3.597	5.110	4.221	1.941	1.528	1.769	2.561	3.464	5.119	7.014	22.85	54.56	102.3
305.0	251.8	217.4	162.7	108.1	94.59	86.91	102.8	124.1	168.0	258.5	601.0	891.2	328.0	236.4	526.3	2818	9999.9	9999.9	460.5	20.44	8.058	7.798	4.704	3.189	2.690	2.069	2.099	1.840	1.501	1.524	1.214	1.272	1.322	1.529	1.318	1.238	1.039	1.101	0.971	0.869	0.793	0.921	0.834	0.891	0.822	0.849	0.827	0.827	0.734	0.561	0.447	0.460	0.539	0.420	0.525	0.587	0.664	0.591	0.763	0.799	0.897	1.056	1.081	1.337	2.008	3.244	4.632	4.876	2.722	1.495	1.281	1.423	1.713	2.182	5.657	13.23	33.65
310.0	278.7	247.4	193.0	133.0	109.7	105.6	126.2	145.4	178.3	232.7	360.7	642.5	697.3	300.9	219.7	705.1	2925	9999.9	9999.9	2110	30.53	12.02	6.434	4.411	3.702	2.573	2.325	2.100	1.612	1.735	1.450	1.526	1.420	1.594	1.376	1.303	1.203	1.048	1.135	0.940	0.839	1.022	0.900	0.907	0.816	0.861	0.911	0.945	0.838	0.687	0.608	0.579	0.631	0.578	0.640	0.707	0.779	0.703	0.805	0.858	1.067	1.064	1.158	1.174	1.542	1.923	2.448	3.378	3.941	3.841	2.603	1.595	1.164	1.158	1.900	3.467	8.152
315.0	362.3	354.7	248.9	159.1	130.2	123.4	139.7	157.5	190.6	234.3	297.9	380.3	544.5	659.1	252.9	240.3	716.9	2342	7310	9999.9	2772	40.78	9.519	6.048	4.822	3.430	2.916	2.497	2.212	1.997	1.464	1.806	1.477	1.718	1.575	1.482	1.241	1.204	1.220	1.000	1.009	1.128	0.995	1.062	1.005	1.093	1.139	1.150	0.977	0.804	0.675	0.675	0.745	0.660	0.655	0.809	0.852	0.838	0.846	1.010	1.055	1.030	1.294	1.174	1.417	1.523	1.761	1.939	2.316	2.705	3.958	4.067	2.572	1.283	1.208	1.297	2.432
320.0	515.1	541.8	389.8	210.0	149.2	133.0	155.1	179.6	207.6	257.1	305.3	338.3	377.9	620.1	491.1	155.0	231.2	573.3	1894	9999.9	9999.9	493.3	23.52	8.273	5.872	4.167	3.454	3.047	2.502	2.121	1.628	1.692	1.591	1.620	1.409	1.403	1.147	1.245	1.180	1.084	1.212	1.277	1.232	1.303	1.532	1.759	1.674	1.713	1.423	1.058	0.839	0.799	0.785	0.753	0.904	0.868	0.897	0.992	1.011	1.042	1.168	1.172	1.272	1.385	1.564	1.544	1.647	1.582	2.040	1.814	2.524	3.649	4.060	2.840	1.591	1.051	1.089
325.0	656.5	748.6	556.9	281.1	188.5	152.0	170.9	192.7	227.5	271.8	330.4	355.0	339.1	421.5	609.5	290.1	133.9	180.4	463.7	2888	9999.9	9999.9	376.7	13.54	7.607	5.232	3.854	3.352	2.861	2.595	2.073	1.827	1.794	1.653	1.377	1.553	1.280	1.390	1.314	1.240	1.239	1.348	1.449	1.493	1.884	2.116	2.299	2.310	1.955	1.373	1.120	0.911	0.841	0.792	0.966	0.867	1.013	1.056	1.018	1.210	1.197	1.261	1.346	1.452	1.432	1.760	1.672	1.669	1.902	1.981	1.986	2.235	3.025	3.981	3.170	1.730	0.992
330.0	805.7	920.8	738.2	440.9	287.2	197.8	195.0	210.0	235.0	282.0	345.1	367.3	351.8	338.5	409.6	456.8	251.4	108.4	147.5	684.2	2814	9999.9	8940	1622	26.11	7.857	5.839	4.593	3.510	2.933	2.534	2.123	2.012	1.864	1.609	1.577	1.463	1.503	1.339	1.334	1.439	1.556	1.531	1.736	2.173	2.438	2.472	2.920	2.618	1.866	1.543	1.407	1.268	1.131	1.048	1.062	1.120	1.125	1.052	1.228	1.258	1.354	1.199	1.472	1.613	1.736	1.824	1.816	1.938	1.903	1.918	1.755	1.978	2.401	2.794	3.053	2.545
335.0	977.6	1161	976.2	618.2	419.4	266.1	231.1	230.9	250.3	296.8	362.8	403.0	392.6	355.8	316.5	332.4	430.6	209.4	93.06	198.3	664.0	2348	6613	9999.9	2548	29.06	8.336	6.278	4.596	3.537	2.925	2.641	2.135	2.085	1.700	1.604	1.500	1.459	1.444	1.309	1.556	1.631	1.886	2.074	2.421	2.807	2.931	3.440	3.359	2.491	2.037	2.111	1.736	1.653	1.321	1.198	1.342	1.228	1.180	1.264	1.327	1.478	1.425	1.480	1.680	1.886	1.933	1.879	2.051	2.215	1.954	1.977	1.882	1.886	1.846	1.898	2.620
340.0	992.5	1240	1056	696.8	475.6	292.2	236.2	235.3	256.3	295.2	363.0	400.6	395.7	359.4	295.4	248.1	341.1	348.8	119.2	90.58	186.1	561.2	1738	8630	9999.9	407.6	19.68	7.834	5.657	4.273	3.341	2.826	2.112	2.233	1.825	1.834	1.577	1.661	1.702	1.404	1.521	1.684	1.884	2.205	2.456	2.792	3.187	3.644	3.419	2.660	2.296	2.224	2.005	1.731	1.594	1.397	1.159	1.106	1.065	1.298	1.324	1.311	1.445	1.523	1.534	1.812	1.984	1.965	2.075	2.167	2.078	1.907	1.841	1.799	1.573	1.677	1.788
345.0	960.8	1142	1031	712.1	493.9	300.1	229.1	224.1	248.3	280.1	340.5	374.2	377.2	342.1	285.8	218.1	218.2	339.7	227.5	74.54	78.48	161.3	418.8	2506	9999.9	9646	335.8	11.51	7.266	5.324	3.821	3.447	2.406	2.327	1.908	1.790	1.752	1.633	1.656	1.394	1.562	1.826	1.908	2.095	2.486	2.768	2.976	3.434	3.327	2.588	2.325	2.451	2.006	1.792	1.466	1.269	1.094	1.210	1.135	1.239	1.299	1.349	1.248	1.505	1.566	1.743	1.630	2.028	1.980	1.884	1.965	1.767	1.826	1.694	1.446	1.402	1.335
350.0	894.7	1054	954.7	699.6	488.6	291.9	215.1	205.8	225.7	253.4	306.9	337.5	340.5	316.6	266.8	200.2	161.6	193.3	262.1	170.2	63.88	69.09	120.4	582.1	2956	8547	7753	1461	23.05	7.312	5.117	3.817	2.773	2.670	2.147	1.979	1.815	1.748	1.582	1.488	1.560	1.784	1.902	2.034	2.332	2.629	2.894	3.109	2.991	2.508	2.260	2.364	2.000	1.760	1.398	1.315	1.184	1.119	1.081	1.108	1.134	1.202	1.390	1.426	1.419	1.523	1.615	1.725	1.743	1.792	1.762	1.701	1.700	1.606	1.434	1.430	1.277
355.0	780.8	936.5	861.0	651.5	467.8	277.9	197.7	186.7	206.7	230.6	271.9	299.5	305.0	283.6	239.9	180.4	140.4	121.0	141.0	230.5	138.3	51.41	51.99	148.8	672.8	1995	6135	9999.9	2230	25.67	7.127	5.370	3.354	3.218	2.285	2.014	1.735	1.934	1.540	1.456	1.571	1.608	1.567	1.779	2.127	2.536	2.509	2.791	2.646	2.319	2.149	2.314	2.132	1.784	1.246	1.122	1.091	1.047	1.102	1.027	1.030	1.014	1.171	1.191	1.484	1.453	1.528	1.607	1.603	1.572	1.583	1.623	1.589	1.561	1.232	1.260	1.194
360.0	702.4	815.9	761.7	580.3	427.3	265.2	184.4	175.2	186.3	205.8	242.9	266.6	272.3	251.1	215.9	164.8	125.6	99.65	87.53	154.2	210.2	70.44	36.02	51.20	165.7	458.6	1647	9278	9999.9	380.7	13.61	6.491	4.581	3.906	2.524	2.155	1.752	1.974	1.599	1.571	1.452	1.643	1.608	1.704	1.900	2.095	2.403	2.766	2.627	2.167	2.019	2.081	1.992	1.673	1.291	1.120	1.096	0.959	1.064	1.091	0.981	1.064	1.005	1.020	1.258	1.274	1.179	1.552	1.476	1.373	1.531	1.493	1.570	1.336	1.161	1.148	0.958
365.0	642.9	734.0	666.0	522.5	381.5	246.7	169.3	154.6	168.6	188.0	217.0	239.3	242.7	226.1	196.2	149.7	113.5	89.46	70.06	83.75	180.9	155.6	45.54	28.11	51.27	115.3	384.1	2797	9999.9	9552	51.60	10.02	5.529	4.822	3.253	2.493	1.987	2.018	1.684	1.542	1.515	1.700	1.477	1.599	1.828	1.909	2.287	2.205	2.294	1.998	1.695	2.044	1.692	1.481	1.269	1.070	0.957	0.878	0.878	1.016	0.958	0.897	1.049	0.976	1.283	1.189	0.993	1.248	1.146	1.318	1.475	1.334	1.336	1.275	1.241	1.054	0.899
370.0	533.4	593.4	553.3	452.7	336.5	215.3	154.7	137.2	142.9	166.0	188.1	205.3	209.8	194.5	169.5	131.0	101.9	80.73	60.76	56.86	88.72	156.6	109.4	37.03	24.67	37.31	97.46	640.6	3036	9228	7229	1295	18.96	6.259	3.998	3.161	2.338	2.191	1.818	1.550	1.548	1.586	1.406	1.487	1.638	1.797	1.990	2.077	1.978	1.649	1.584	1.579	1.606	1.334	1.197	0.983	0.789	0.891	0.824	0.881	0.906	0.815	0.885	0.977	1.048	1.030	1.072	0.994	1.195	1.163	1.179	1.122	1.219	1.103	1.002	0.914	0.857
375.0	447.7	502.8	456.8	379.4	287.9	184.0	134.6	120.0	123.8	142.0	156.0	173.1	175.9	162.3	144.1	115.6	91.69	72.42	55.79	48.75	50.86	75.38	142.6	105.5	25.75	19.68	32.14	153.8	687.4	2181	6318	9999.9	1807	21.43	6.025	4.295	2.733	2.651	1.993	1.894	1.627	1.563	1.395	1.400	1.534	1.576	1.740	1.788	1.637	1.428	1.324	1.304	1.512	1.108	1.077	0.961	0.911	0.719	0.781	0.761	0.790	0.722	0.795	0.811	0.825	0.852	0.833	0.907	1.002	0.947	1.139	0.988	1.114	0.858	0.859	0.861	0.669
380.0	400.2	431.0	403.6	336.4	255.9	172.9	121.5	111.0	112.9	123.4	143.0	154.5	153.6	147.9	128.2	102.7	84.92	66.76	53.25	45.31	40.89	44.99	88.68	145.2	54.27	17.04	17.84	45.23	164.0	498.6	1738	9447	9358	315.2	10.66	4.898	3.552	3.046	2.380	1.853	1.682	1.625	1.490	1.368	1.529	1.561	1.477	1.621	1.507	1.376	1.138	1.240	1.434	1.063	0.900	0.872	0.692	0.641	0.639	0.606	0.778	0.791	0.766	0.768	0.845	0.794	0.779	0.863	0.902	0.853	0.941	0.992	0.834	0.817	0.711	0.771	0.690
385.0	359.3	361.7	354.2	298.3	225.3	155.3	112.6	99.83	102.5	113.5	129.2	140.1	138.6	128.6	115.3	90.09	77.82	62.15	51.06	42.80	37.75	36.67	47.38	111.7	114.6	31.08	13.96	20.33	46.20	120.8	401.6	2940	9830	7918	41.38	7.190	4.296	3.975	2.796	2.098	1.848	1.566	1.561	1.316	1.382	1.454	1.397	1.408	1.500	1.264	1.119	1.177	1.179	0.974	0.872	0.749	0.687	0.610	0.632	0.568	0.694	0.634	0.633	0.609	0.714	0.716	0.754	0.788	0.898	0.744	0.766	0.839	0.893	0.808	0.705	0.782	0.709
390.0	292.8	321.6	298.8	254.9	202.7	138.4	103.2	88.89	86.98	98.79	109.8	119.0	119.6	111.1	99.82	81.25	68.97	57.18	47.93	41.93	35.89	32.86	32.35	52.23	101.3	80.78	28.45	14.44	19.06	35.60	98.35	669.8	2912	8042	5634	985.2	14.93	4.977	3.585	2.410	2.028	1.802	1.701	1.361	1.327	1.366	1.329	1.405	1.382	1.097	1.039	1.080	1.078	0.923	0.925	0.701	0.654	0.654	0.689	0.553	0.603	0.607	0.606	0.571	0.593	0.649	0.678	0.695	0.723	0.744	0.687	0.671	0.674	0.753	0.712	0.667	0.592
395.0	281.4	257.1	243.1	219.1	171.8	121.6	89.43	80.63	78.72	83.68	96.94	103.9	103.6	97.81	86.09	73.70	62.93	52.38	45.26	39.42	35.89	32.47	28.22	29.17	45.22	91.48	81.68	21.44	12.53	15.72	29.51	156.7	656.0	1917	5003	8353	1446	17.57	4.502	2.914	2.606	2.208	1.805	1.357	1.467	1.412	1.352	1.219	1.292	1.041	0.952	1.111	1.028	0.798	0.814	0.734	0.647	0.559	0.543	0.517	0.524	0.483	0.665	0.677	0.595	0.586	0.603	0.760	0.691	0.597	0.600	0.614	0.566	0.667	0.692	0.644	0.571
400.0	244.6	236.1	213.7	194.1	157.8	113.9	84.66	74.51	76.41	78.92	90.31	92.00	94.48	89.41	79.28	66.66	59.05	49.63	44.50	37.65	34.36	30.80	26.93	24.41	26.03	52.41	102.9	47.77	13.81	10.85	14.09	42.38	153.4	436.0	1382	6885	6943	268.9	8.959	3.836	2.841	2.443	1.905	1.485	1.406	1.227	1.268	1.306	1.071	0.949	0.868	0.991	1.000	0.780	0.714	0.780	0.648	0.658	0.498	0.565	0.517	0.564	0.598	0.474	0.526	0.623	0.641	0.664	0.678	0.590	0.601	0.547	0.589	0.572	0.529	0.542	0.660
405.0	237.8	213.5	192.6	175.2	140.4	107.3	82.28	72.90	72.58	75.90	84.13	84.88	87.92	82.00	74.30	63.71	56.40	48.77	42.56	36.49	33.03	30.35	26.26	22.54	20.90	28.27	74.96	86.22	28.56	10.82	9.993	16.55	41.03	104.2	317.6	2107	7194	6058	36.92	5.422	3.385	2.928	2.091	1.575	1.431	1.354	1.307	1.334	1.126	0.878	0.785	0.913	1.005	0.723	0.658	0.623	0.592	0.631	0.538	0.531	0.497	0.558	0.630	0.469	0.479	0.554	0.542	0.592	0.603	0.545	0.578	0.541	0.534	0.563	0.481	0.483	0.464
