Sample:	'1
File name:	L2025090913¹ãÐËÂ·ÇÅ.FD3
Run date:	'16:44:30, 09/09/2025
Operator:	Administrator
Comment:	'

Instrument
Model:	F-2700 FL Spectrophotometer
Serial number:	3064-004
ROM Version:	4J14000 07

Instrument parameters
Measurement type:	3-D scan
Data mode:	Fluorescence
EX  Start WL:	220.0 nm
EX  End WL:	600.0 nm
EX Sampling interval:	5.0 nm
EM  Start WL:	230.0 nm
EM  End WL:	650.0 nm
EM Sampling interval:	5.0 nm
Scan speed:	12000 nm/min
EX Slit:	5.0 nm
EM Slit:	5.0 nm
PMT Voltage:	700 V
Response:	Auto 
Corrected spectra:	Off
Contour interval:	50.000

Peak integration
Integration method:	Rectangular
Sensitivity:	1
Threshold:	1.000

Peaks
No.	ApexEX/EM(nm)	Height(Data)
1	225.0/615.0	29.91
2	230.0/590.0	36.24
3	230.0/605.0	30.37
4	235.0/340.0	926.6
5	235.0/350.0	925.0
6	235.0/625.0	27.81
7	240.0/520.0	237.0
8	245.0/265.0	322.0
9	245.0/530.0	227.1
10	245.0/635.0	23.02
11	250.0/545.0	210.0
12	250.0/615.0	28.60
13	255.0/280.0	624.9
14	255.0/555.0	185.9
15	260.0/285.0	823.1
16	260.0/565.0	167.3
17	265.0/290.0	897.6
18	265.0/580.0	158.3
19	270.0/295.0	 1238
20	270.0/590.0	144.2
21	275.0/305.0	 1591
22	275.0/605.0	154.4
23	280.0/310.0	 1615
24	280.0/340.0	 1358
25	280.0/380.0	 1234
26	280.0/615.0	123.9
27	285.0/315.0	 1629
28	285.0/630.0	99.52
29	290.0/320.0	 1546
30	290.0/645.0	87.35
31	305.0/340.0	989.3
32	315.0/355.0	755.5
33	320.0/360.0	814.1
34	325.0/365.0	789.2
35	335.0/380.0	757.8
36	340.0/385.0	726.2
37	350.0/400.0	647.6
38	355.0/405.0	622.4
39	415.0/485.0	130.3
40	430.0/505.0	80.93
41	445.0/525.0	47.79
42	450.0/530.0	40.14
43	460.0/335.0	3.502
44	460.0/545.0	27.17
45	505.0/275.0	3.077
46	510.0/280.0	3.674
47	515.0/285.0	3.506
48	530.0/290.0	3.962
49	545.0/300.0	6.845
50	550.0/305.0	7.419
51	560.0/310.0	7.031
52	560.0/340.0	5.656
53	570.0/315.0	7.632
54	575.0/290.0	73.59
55	575.0/320.0	8.066
56	580.0/325.0	7.141
57	590.0/330.0	6.435

Data points
	220.0	225.0	230.0	235.0	240.0	245.0	250.0	255.0	260.0	265.0	270.0	275.0	280.0	285.0	290.0	295.0	300.0	305.0	310.0	315.0	320.0	325.0	330.0	335.0	340.0	345.0	350.0	355.0	360.0	365.0	370.0	375.0	380.0	385.0	390.0	395.0	400.0	405.0	410.0	415.0	420.0	425.0	430.0	435.0	440.0	445.0	450.0	455.0	460.0	465.0	470.0	475.0	480.0	485.0	490.0	495.0	500.0	505.0	510.0	515.0	520.0	525.0	530.0	535.0	540.0	545.0	550.0	555.0	560.0	565.0	570.0	575.0	580.0	585.0	590.0	595.0	600.0
230.0	9.563	428.2	 2614	 1438	94.55	7.898	4.895	5.463	3.799	3.955	4.611	3.530	4.042	3.301	3.186	2.977	2.136	1.809	1.868	1.688	1.607	1.510	1.192	1.256	1.167	1.007	0.922	0.809	0.892	0.710	0.692	0.687	0.693	0.657	0.746	0.638	0.520	0.662	0.636	0.444	0.546	0.622	0.670	0.546	0.446	0.410	1.745	6.088	10.27	7.202	2.714	0.545	0.312	0.239	0.258	0.156	0.221	0.191	0.177	0.185	0.227	0.186	0.101	0.173	0.022	0.080	0.160	0.097	0.057	0.097	0.091	0.178	0.040	0.075	0.039	0.069	-0.008
235.0	34.05	114.7	 1100	 3141	 1116	163.1	6.800	9.261	7.111	4.974	4.092	3.915	4.233	4.036	2.615	4.813	2.791	2.005	2.176	1.969	1.630	1.721	1.118	1.069	1.347	1.067	1.096	1.028	0.728	0.685	0.860	1.202	0.721	0.590	0.849	0.662	0.551	0.701	0.580	0.419	0.410	0.487	0.709	0.827	0.582	0.638	0.727	1.754	4.199	6.967	10.66	9.593	4.467	0.804	0.320	0.176	0.257	0.071	0.071	0.175	0.273	0.238	0.155	0.082	0.095	0.181	0.105	0.138	-0.098	0.156	-0.004	0.001	0.191	0.198	0.008	0.241	-0.070
240.0	52.64	70.11	283.7	 1828	 4161	976.1	79.32	9.989	7.312	5.853	5.501	4.631	4.348	3.951	2.917	3.032	1.982	2.020	2.239	1.658	1.607	1.584	1.292	1.280	1.196	1.324	1.199	0.968	0.866	0.970	0.866	0.878	0.809	0.666	0.833	0.533	0.652	0.422	0.385	0.464	0.527	0.611	0.572	0.478	0.530	0.940	0.587	0.871	1.371	2.264	6.330	13.52	15.27	10.65	2.661	0.332	0.319	0.252	0.057	0.164	0.296	0.175	0.047	0.106	0.085	0.055	0.063	0.008	0.024	0.209	0.139	-0.061	0.154	-0.005	0.140	0.158	-0.071
245.0	20.57	95.65	119.3	500.0	 2943	 5056	782.0	32.75	8.354	8.388	6.192	5.163	5.384	4.556	4.302	3.685	2.938	2.490	2.523	1.734	1.748	1.776	0.958	1.475	0.820	1.350	1.166	1.364	0.890	0.561	0.997	0.847	0.463	0.560	0.504	0.516	0.573	0.323	0.473	0.344	0.305	0.679	0.445	0.499	0.366	0.855	0.642	0.859	0.797	0.792	1.714	4.728	11.85	18.92	17.67	8.725	1.972	0.414	0.209	0.381	0.233	0.029	0.141	0.246	0.095	0.323	0.057	0.102	0.037	0.198	-0.028	0.137	0.092	0.071	0.058	-0.089	-0.054
250.0	4.878	52.18	139.2	211.7	790.3	 3114	 5179	 2741	214.8	11.83	8.759	7.925	6.057	4.571	4.514	3.544	3.840	2.586	2.247	1.440	1.709	2.124	1.499	1.680	1.116	1.279	0.997	1.399	0.832	0.719	0.925	0.749	0.619	0.707	0.530	0.525	0.521	0.467	0.363	0.465	0.471	0.662	0.427	0.443	0.395	0.465	0.500	0.767	1.076	0.730	0.780	1.381	3.062	6.690	11.48	17.20	20.84	17.82	9.022	2.347	0.263	0.058	0.058	0.171	0.184	0.268	0.072	0.160	0.140	0.101	-0.058	0.038	0.064	0.075	0.092	-0.071	-0.041
255.0	10.16	17.92	66.84	243.4	300.4	735.8	 2388	 7549	 4230	297.7	14.83	7.719	8.590	5.405	5.389	5.020	3.416	2.562	2.105	2.059	2.106	1.483	1.504	1.954	1.279	1.419	1.266	1.295	1.301	0.873	0.648	0.935	0.783	0.653	0.541	0.542	0.430	0.579	0.445	0.528	0.479	0.587	0.452	0.411	0.318	0.510	0.378	0.448	0.549	0.915	1.137	1.214	1.354	1.700	2.807	4.315	9.191	21.64	36.76	32.77	13.06	2.212	0.156	0.173	0.091	0.288	0.144	0.278	0.110	0.092	0.008	0.149	0.002	0.159	-0.046	-0.003	0.052
260.0	16.35	8.368	28.77	151.3	338.0	261.9	602.5	 4026	9999.9	 3619	153.4	13.74	8.975	8.775	6.876	4.701	3.172	3.150	2.687	2.674	2.428	1.790	2.097	1.881	1.267	1.245	1.249	0.932	1.078	0.822	0.811	1.359	0.680	0.620	0.464	0.390	0.469	0.631	0.474	0.559	0.382	0.782	0.629	0.455	0.289	0.583	0.416	0.440	0.571	0.579	0.745	1.460	1.632	1.262	1.064	1.165	2.559	6.353	18.59	39.62	46.80	30.00	8.631	0.892	0.088	0.241	0.175	0.107	0.094	0.016	0.032	0.085	0.026	0.110	0.171	0.138	-0.097
265.0	5.413	7.956	15.67	56.57	289.6	322.0	188.8	 1085	 6319	9999.9	 2754	65.51	11.95	11.39	7.215	6.342	4.176	3.684	2.704	2.847	2.586	2.329	1.878	1.829	1.416	0.963	1.570	0.757	1.580	1.271	0.793	0.814	0.698	0.915	0.586	0.692	0.496	0.565	0.627	0.450	0.470	0.740	0.719	0.557	0.421	0.359	0.753	0.614	0.389	0.368	0.442	0.805	1.574	1.744	1.530	0.667	0.913	1.753	4.630	13.27	30.05	51.88	48.30	24.68	4.162	0.521	0.317	0.216	0.191	0.301	0.220	0.162	0.135	0.083	0.175	0.149	0.044
270.0	9.577	14.80	23.77	28.84	102.8	304.7	362.2	332.3	 1656	 6016	9999.9	 6682	174.0	18.19	10.57	7.707	5.851	5.221	3.427	3.182	2.998	2.299	1.980	1.903	1.603	1.457	1.636	1.194	1.527	1.445	1.180	1.158	0.649	0.898	0.776	0.666	0.690	0.605	0.642	0.470	0.586	0.785	0.529	0.453	0.507	0.557	0.582	0.624	0.420	0.426	0.394	0.453	0.686	1.029	1.790	1.936	1.804	1.257	1.427	3.330	7.635	16.84	30.48	46.65	51.63	44.26	18.01	3.958	0.368	0.202	0.144	0.123	0.224	0.188	0.138	0.189	0.087
275.0	38.48	40.49	40.42	32.15	40.44	103.3	416.8	512.9	458.3	 1434	 4211	9999.9	9999.9	207.7	15.42	12.31	8.674	5.594	4.178	3.689	3.907	3.062	2.371	2.391	1.994	1.849	1.293	1.037	1.730	1.434	1.503	1.117	0.627	0.880	1.011	0.766	0.798	0.818	0.672	0.565	0.740	0.707	0.693	0.558	0.592	0.906	0.615	0.660	0.430	0.484	0.395	0.340	0.373	0.477	0.768	1.212	2.164	3.077	2.100	1.298	2.074	4.337	7.049	11.38	21.09	49.67	83.96	50.05	24.81	2.557	0.178	0.215	0.271	0.142	0.223	0.202	0.043
280.0	59.40	82.54	73.07	54.36	44.57	55.69	199.0	624.9	473.3	432.7	 1124	 5562	9999.9	 2589	123.1	15.15	10.53	7.311	5.214	4.344	3.733	3.072	2.366	2.310	2.001	1.910	1.698	1.589	1.301	1.798	1.254	1.467	0.827	0.944	0.865	0.780	0.889	0.995	0.574	0.932	0.682	0.801	1.029	0.657	0.906	0.893	0.776	0.657	0.621	0.509	0.590	0.414	0.368	0.694	0.494	0.566	1.096	2.378	3.674	3.115	1.599	1.680	2.301	3.226	5.475	13.82	37.13	72.93	100.5	44.80	13.34	0.760	0.222	0.117	0.205	0.059	0.167
285.0	98.09	135.9	123.2	88.36	59.03	54.62	105.8	361.5	823.1	401.8	433.2	 1558	 7889	9999.9	 1932	60.95	15.07	9.193	5.912	4.371	4.652	3.053	3.113	2.349	2.978	1.996	2.015	1.858	1.906	1.620	1.352	1.441	1.002	1.126	0.908	1.043	0.951	0.934	0.879	1.021	0.779	0.676	0.981	0.841	1.142	0.955	1.081	0.965	0.754	0.752	0.672	0.629	0.506	0.756	0.627	0.476	0.665	1.006	1.905	3.506	3.459	2.460	1.640	1.445	2.075	4.017	9.271	22.13	58.54	97.37	100.6	33.01	4.693	0.423	0.308	0.212	0.166
290.0	139.3	190.6	197.8	153.1	99.97	87.90	111.3	199.9	559.6	897.6	493.6	658.5	 2200	 7013	9999.9	 7309	103.8	15.28	9.274	7.241	5.195	3.933	3.711	3.311	2.677	2.408	2.151	1.488	1.733	1.633	1.216	1.350	1.053	1.170	1.130	1.144	0.897	1.033	0.879	1.032	1.147	0.948	1.219	1.015	1.173	1.144	1.236	1.379	1.305	1.041	0.867	0.803	0.676	0.743	0.628	0.563	0.755	0.814	1.207	1.609	2.773	3.901	3.962	3.021	2.005	2.211	3.438	6.426	14.89	28.53	53.46	73.59	70.10	64.97	21.93	4.859	0.469
295.0	175.5	233.5	270.8	234.0	147.9	139.7	144.1	210.6	349.1	676.9	 1238	789.6	914.3	 1868	 3717	9999.9	9999.9	135.3	15.13	9.256	6.674	4.206	4.781	3.883	3.241	2.835	2.584	2.053	2.174	1.650	1.748	1.337	1.411	0.890	1.483	1.109	0.916	1.135	1.219	1.239	0.970	1.130	1.272	1.320	1.378	1.280	1.254	1.259	1.372	1.397	1.129	0.897	0.902	0.953	0.934	0.814	1.063	0.943	1.131	1.256	1.626	2.496	3.281	5.149	5.444	3.674	2.722	3.077	5.080	8.122	13.31	17.76	24.62	61.36	112.9	57.42	31.83
300.0	185.8	268.0	328.2	289.6	202.6	185.7	199.7	240.4	343.3	533.5	 1133	 1399	786.0	820.4	 1106	 4667	9999.9	 7344	90.33	13.55	8.836	6.315	5.080	3.758	3.817	3.057	2.435	2.265	1.880	2.097	1.667	1.572	1.677	0.926	1.397	1.078	1.187	1.078	1.521	1.266	1.367	1.249	1.504	1.356	1.391	1.538	1.479	1.591	1.393	1.421	1.002	1.204	1.181	0.951	0.916	0.791	1.381	1.339	1.347	1.327	1.618	2.242	2.338	3.454	5.701	6.845	4.777	3.450	3.409	3.917	4.941	5.290	6.679	16.01	43.21	88.50	129.7
305.0	196.3	300.6	350.5	321.3	252.2	213.7	248.1	297.0	394.6	532.1	859.7	 1591	 1213	706.5	590.3	 1299	 6535	9999.9	 1244	51.64	11.66	7.341	5.821	4.840	3.877	3.587	2.264	2.543	2.117	1.945	1.757	1.420	1.274	1.476	1.119	1.353	1.141	1.443	1.611	1.496	1.291	1.094	1.335	1.423	1.499	1.606	1.447	1.483	1.627	1.639	1.304	1.255	1.132	0.801	1.088	0.826	1.364	1.519	1.343	1.827	1.886	1.885	2.422	2.755	4.129	5.595	7.419	6.363	3.873	3.352	2.869	2.750	3.120	4.856	10.55	24.73	64.88
310.0	204.2	312.3	385.8	356.7	282.4	261.6	296.9	372.8	464.7	618.5	814.5	 1201	 1615	 1199	633.3	585.1	 1703	 5953	9999.9	 5036	75.51	12.91	7.598	5.708	4.370	3.571	3.108	2.925	2.700	1.938	1.797	1.710	1.442	1.494	1.389	1.128	1.180	1.595	1.464	1.581	1.328	1.218	1.477	1.355	1.490	1.727	1.581	1.698	1.696	1.544	1.306	1.311	1.323	1.135	1.219	1.367	1.505	1.871	1.726	2.129	2.222	2.307	2.459	2.937	3.707	4.358	5.396	6.264	7.031	6.118	4.420	3.120	2.916	2.823	3.670	6.567	15.70
315.0	222.7	343.1	450.2	410.2	317.7	297.8	347.8	415.6	529.1	700.7	879.5	 1071	 1276	 1629	 1071	532.7	626.0	 1489	 3231	9999.9	 7532	102.5	11.30	7.964	5.629	4.465	3.598	3.055	3.199	2.568	1.704	1.970	1.625	1.471	1.756	1.017	1.001	1.221	1.602	1.525	1.564	1.338	1.423	1.652	1.617	1.653	1.764	1.930	1.863	1.868	1.524	1.314	1.167	1.652	1.303	1.534	1.763	1.910	1.677	2.224	2.512	2.720	2.819	3.008	3.886	3.998	4.575	4.787	4.900	6.558	7.632	6.512	4.344	2.838	2.647	2.718	4.968
320.0	250.2	411.4	564.9	497.7	358.6	331.3	373.3	463.6	587.0	753.9	935.2	 1113	 1240	 1405	 1546	725.0	444.7	530.9	858.7	 4188	9999.9	 5862	69.37	10.14	7.404	5.505	4.751	3.613	3.474	3.142	2.357	2.184	1.764	1.429	1.407	1.299	1.075	1.263	1.599	1.770	1.561	1.694	1.464	1.871	2.000	1.997	2.127	2.626	2.255	1.821	1.541	1.370	1.356	1.585	1.654	1.495	1.579	1.612	2.052	2.051	2.623	2.651	3.407	3.426	4.071	4.479	4.402	4.574	4.463	5.165	6.142	8.066	6.826	4.752	2.821	2.394	2.597
325.0	292.3	494.1	690.6	618.4	437.6	365.1	428.3	492.2	636.7	807.9	 1011	 1177	 1277	 1278	 1484	 1163	516.7	367.6	353.4	 1078	 6088	9999.9	930.1	41.81	9.645	6.657	5.267	4.337	3.260	2.943	2.410	2.419	2.045	1.558	1.288	1.455	1.194	1.336	1.454	1.623	1.487	1.649	1.499	2.080	1.947	2.140	2.488	2.971	2.967	2.320	2.005	1.726	1.712	1.530	1.759	1.686	1.774	1.861	1.793	2.474	3.317	2.686	3.344	3.975	4.120	4.360	4.310	5.018	4.935	5.192	4.976	6.504	7.141	6.773	4.451	3.167	2.284
330.0	296.4	560.2	787.0	754.1	526.3	440.5	456.4	545.6	669.9	851.1	 1047	 1245	 1342	 1282	 1239	 1235	914.7	449.7	298.0	391.6	 1521	 5448	9999.9	 3883	59.89	10.97	7.108	5.215	3.843	3.633	2.958	2.297	2.458	1.530	1.367	1.400	1.383	1.513	1.801	1.549	1.484	1.588	1.657	1.921	1.864	2.606	2.756	3.151	3.433	2.862	2.313	2.219	1.858	1.739	1.931	1.794	1.935	2.107	2.237	2.504	3.080	3.194	3.503	3.803	4.114	4.323	5.086	4.931	5.342	5.290	5.445	5.378	5.457	5.892	6.435	5.927	4.620
335.0	323.1	596.8	843.8	857.2	606.9	491.4	497.9	572.5	710.6	880.3	 1086	 1266	 1358	 1332	 1210	 1019	 1019	816.7	378.8	293.8	483.7	 1324	 3248	9999.9	 6086	83.61	11.07	7.474	5.431	4.813	3.149	2.480	2.589	2.112	1.668	1.672	1.364	1.469	1.619	1.685	1.682	1.676	1.690	1.871	2.268	2.657	2.966	3.439	3.502	3.030	2.416	2.272	2.207	2.226	2.275	2.123	1.956	1.828	2.354	2.709	3.183	3.346	3.404	3.438	4.455	4.509	4.853	5.277	5.496	5.283	5.440	5.399	5.165	4.794	4.809	5.486	5.908
340.0	315.3	585.1	879.6	926.6	688.9	564.9	547.6	620.5	727.5	895.3	 1067	 1258	 1358	 1340	 1206	983.8	870.8	989.3	584.2	311.4	286.6	431.3	835.9	 4349	9999.9	 4826	58.31	9.872	6.706	5.364	5.067	2.882	2.329	1.872	2.067	1.926	1.867	1.773	1.629	1.811	1.774	2.081	1.533	2.127	2.246	2.648	3.056	3.020	3.239	3.146	2.653	2.568	2.293	2.419	2.284	2.061	1.952	2.563	2.358	2.610	3.013	3.163	3.961	3.700	4.360	4.736	4.973	5.353	5.656	5.452	5.247	5.446	5.189	5.035	4.447	4.371	4.267
345.0	312.6	558.8	869.6	905.1	724.8	614.3	611.6	647.0	749.7	909.3	 1086	 1250	 1351	 1337	 1213	998.4	797.2	858.6	853.4	431.2	280.6	266.1	313.7	 1097	 6216	9999.9	769.3	36.12	8.736	5.934	5.324	3.663	2.454	2.473	1.935	1.735	2.026	1.427	1.610	1.570	1.559	1.641	1.763	2.044	2.334	2.582	3.116	3.191	3.198	2.972	3.000	2.805	2.568	2.562	2.617	2.494	2.314	2.609	3.002	2.486	3.085	3.059	3.824	3.940	4.043	4.809	4.841	5.214	4.978	5.196	5.686	5.303	5.154	4.859	4.746	4.536	3.897
350.0	281.9	531.0	800.9	925.0	802.5	740.4	708.3	743.2	810.2	926.7	 1093	 1219	 1311	 1300	 1210	 1015	833.4	743.1	799.7	732.4	421.0	293.6	254.0	378.7	 1557	 5648	9999.9	 3287	52.53	9.202	6.685	4.864	3.579	2.824	2.074	1.923	1.878	1.654	1.500	1.853	1.486	1.693	1.652	1.802	2.283	2.355	2.675	3.030	3.329	3.009	3.032	3.036	2.697	2.978	2.742	2.575	2.662	2.777	3.151	3.052	3.377	3.411	3.739	3.879	4.214	4.589	4.810	5.006	5.348	5.675	5.629	5.304	5.011	4.744	4.736	4.422	4.154
355.0	267.5	473.8	766.8	880.0	832.9	832.6	793.9	833.3	892.0	 1004	 1123	 1213	 1281	 1289	 1217	 1060	890.1	770.7	697.6	755.5	715.6	417.2	301.6	274.7	486.0	 1362	 3450	9999.9	 5214	71.23	10.74	6.510	4.225	3.301	2.830	1.613	2.192	1.685	1.543	1.580	1.570	1.854	1.408	2.040	2.139	2.211	2.339	2.963	2.921	3.210	3.116	2.931	2.997	3.177	2.867	3.144	3.189	3.142	3.554	3.532	3.604	4.029	4.214	4.573	4.494	4.234	4.498	4.927	5.053	5.421	5.398	5.693	5.470	5.256	5.194	4.967	4.729
360.0	264.0	456.8	731.0	878.7	872.6	882.9	876.5	932.3	948.2	 1045	 1143	 1232	 1282	 1276	 1230	 1077	926.7	808.4	723.7	687.8	814.1	614.7	370.5	292.9	286.9	430.7	876.9	 4629	9999.9	 4150	52.27	8.284	6.050	3.952	2.645	2.123	2.239	1.651	1.863	1.735	1.679	1.989	1.618	1.848	2.002	2.225	2.156	3.237	2.796	3.140	2.793	3.144	3.256	3.193	3.428	3.235	3.813	3.422	3.829	3.496	3.803	4.277	4.271	4.621	4.327	4.575	4.291	4.724	5.145	5.273	5.473	5.109	5.114	5.208	5.132	5.172	4.889
365.0	262.7	461.1	682.8	838.1	897.7	906.6	933.1	956.3	986.4	 1077	 1165	 1234	 1272	 1261	 1230	 1100	959.1	855.1	762.1	686.1	740.9	789.2	496.3	344.0	277.5	258.7	311.9	 1169	 6544	9999.9	701.4	29.45	7.271	4.826	3.488	3.073	2.529	1.883	1.737	1.776	1.548	1.863	1.523	1.621	1.984	2.042	2.277	2.981	2.815	2.903	2.549	3.114	3.597	3.322	3.305	3.387	3.926	3.644	4.272	4.071	3.884	4.199	4.451	4.677	4.465	4.559	4.653	4.878	5.034	5.000	5.409	5.263	5.821	4.914	5.098	4.555	5.291
370.0	252.7	445.3	667.4	841.4	919.0	984.9	 1000	 1028	 1045	 1135	 1198	 1237	 1243	 1258	 1197	 1089	988.8	892.7	811.7	742.1	690.1	743.2	721.5	483.6	339.9	272.4	227.0	373.1	 1638	 5810	9999.9	 2884	43.80	7.884	5.063	3.601	2.691	2.167	2.035	1.778	1.847	1.860	1.621	1.753	2.047	2.325	2.359	2.751	2.859	2.892	2.811	3.614	3.353	3.349	3.488	3.472	3.803	3.978	4.083	3.910	4.160	4.476	4.586	4.755	4.441	5.065	4.890	4.927	5.363	4.951	5.457	5.550	5.718	5.349	5.300	5.045	5.156
375.0	215.2	442.8	626.3	828.8	921.9	993.4	 1052	 1054	 1105	 1150	 1217	 1233	 1218	 1212	 1173	 1082	997.9	928.0	858.1	793.5	734.2	694.6	720.5	707.8	465.9	333.8	257.2	239.0	475.0	 1377	 3853	9999.9	 4322	56.15	7.515	4.605	3.651	2.718	2.321	2.023	2.272	1.928	2.072	1.798	1.859	2.071	2.219	2.468	2.847	3.119	2.649	3.208	3.288	3.244	3.633	3.844	4.150	4.041	4.043	4.192	4.304	4.248	4.330	4.583	4.582	4.835	4.985	4.412	4.984	4.678	4.604	5.623	5.380	5.485	5.482	5.144	5.683
380.0	216.5	408.9	575.0	801.2	919.5	990.3	 1036	 1072	 1097	 1155	 1207	 1226	 1234	 1197	 1152	 1083	 1001	942.1	874.2	826.9	764.0	711.3	679.7	757.8	620.1	400.9	304.6	241.0	240.9	403.8	954.6	 4926	9999.9	 3181	36.62	6.055	4.084	3.306	2.759	2.131	1.913	1.923	1.849	1.767	1.782	2.137	2.213	2.285	2.560	2.728	2.688	3.276	3.391	3.600	3.799	4.098	4.052	3.776	3.935	4.316	4.168	4.143	4.422	4.822	5.059	4.670	4.764	4.730	4.630	4.584	5.039	5.648	5.327	5.257	5.534	5.252	5.411
385.0	220.9	388.4	553.0	810.4	898.2	 1014	 1066	 1108	 1103	 1162	 1190	 1213	 1175	 1174	 1127	 1065	991.3	952.8	903.3	846.4	786.7	733.4	683.0	698.3	726.2	508.4	352.3	277.2	222.5	210.1	299.9	 1240	 6526	9999.9	536.0	19.72	5.283	4.083	3.220	2.196	2.077	1.800	1.820	2.084	2.263	1.699	2.327	2.490	2.548	2.597	2.913	2.971	3.708	3.849	3.449	3.763	4.346	3.839	4.135	3.840	4.088	4.113	4.623	4.867	4.768	4.544	4.622	4.578	4.940	4.562	5.437	4.857	5.578	5.295	5.043	5.397	5.593
390.0	227.5	381.5	554.8	788.1	888.2	 1013	 1056	 1074	 1093	 1127	 1149	 1176	 1162	 1128	 1095	 1036	977.5	947.5	897.7	866.1	807.5	758.6	703.9	663.7	680.4	664.6	467.9	328.8	259.7	207.1	183.5	356.8	 1644	 5574	 7949	 2193	33.05	6.176	4.296	3.162	2.618	1.930	1.907	2.106	1.846	1.918	2.314	2.409	2.326	2.640	2.657	2.891	3.361	3.492	3.515	4.010	3.871	4.417	4.020	4.057	4.102	3.957	4.758	4.373	4.803	4.370	4.614	4.590	4.502	4.471	4.782	4.793	4.994	5.140	5.100	5.310	5.049
395.0	204.8	372.3	558.1	731.5	852.1	964.1	 1059	 1073	 1083	 1127	 1138	 1133	 1128	 1095	 1058	 1003	960.9	935.9	892.7	865.6	813.7	775.9	731.6	679.5	646.7	646.1	628.7	423.5	313.9	247.0	193.1	189.8	437.3	 1299	 3132	 8756	 3342	44.79	6.114	4.370	3.356	2.622	2.091	1.924	2.040	2.002	2.200	2.331	2.616	2.455	2.791	3.192	3.278	3.428	3.625	3.770	3.924	4.496	4.040	4.399	4.165	4.555	4.256	4.309	4.430	4.095	4.126	4.381	4.323	5.035	5.041	4.312	4.741	4.758	5.225	5.200	4.780
400.0	225.3	373.7	532.8	693.0	856.1	935.0	 1059	 1067	 1054	 1077	 1101	 1099	 1084	 1073	 1026	985.8	942.4	923.9	870.3	858.6	818.5	773.6	741.2	690.3	643.0	616.0	647.6	547.5	363.9	283.4	216.6	171.7	186.9	349.3	767.6	 4311	 8922	 2425	27.35	5.082	3.982	3.064	2.491	2.137	2.285	2.072	2.310	2.438	2.375	2.318	2.696	3.041	3.198	3.908	3.629	3.950	3.648	4.132	3.741	4.066	4.321	4.251	3.951	4.385	4.075	5.038	4.301	3.977	4.170	4.890	4.384	4.872	4.781	5.154	4.855	5.328	5.114
405.0	200.8	357.9	533.9	699.3	833.0	926.6	 1013	 1051	 1061	 1063	 1079	 1081	 1056	 1040	 1009	959.8	913.8	887.2	864.0	843.9	815.9	769.8	738.6	705.2	653.0	592.4	605.4	622.4	443.3	317.3	244.9	186.1	148.1	152.9	224.1	 1085	 5503	 8013	440.7	14.15	4.302	3.462	2.661	2.736	2.283	2.310	2.361	2.216	2.297	2.581	2.474	2.927	3.175	3.329	3.368	3.827	3.593	3.892	3.784	3.879	4.084	3.824	4.302	4.081	4.633	4.355	4.478	4.397	4.434	4.694	4.266	4.488	4.888	4.956	4.983	4.864	4.745
410.0	202.8	348.6	501.5	676.3	807.9	899.6	997.9	 1036	 1056	 1065	 1066	 1046	 1030	 1005	964.5	920.4	877.0	860.3	837.1	816.8	793.2	762.0	735.6	702.8	656.4	611.7	572.8	575.6	553.8	410.9	288.8	218.5	165.2	129.6	118.1	288.6	 1378	 4434	 6051	 1899	28.95	4.833	3.263	2.847	2.441	2.435	2.266	2.490	2.167	2.438	2.487	2.769	3.061	3.494	3.514	3.587	3.775	3.591	3.674	3.933	4.430	3.946	4.041	4.108	4.177	4.150	4.399	4.282	3.931	4.390	3.919	3.923	4.696	4.617	4.375	4.635	4.509
