Sample:	'1
File name:	g2025081904Î÷Õ¢.FD3
Run date:	'16:07:42, 08/19/2025
Operator:	Administrator
Comment:	'

Instrument
Model:	F-2700 FL Spectrophotometer
Serial number:	23B8-004
ROM Version:	4J14000 07

Instrument parameters
Measurement type:	3-D scan
Data mode:	Fluorescence
EX  Start WL:	220.0 nm
EX  End WL:	600.0 nm
EX Sampling interval:	5.0 nm
EM  Start WL:	230.0 nm
EM  End WL:	650.0 nm
EM Sampling interval:	5.0 nm
Scan speed:	12000 nm/min
EX Slit:	5.0 nm
EM Slit:	5.0 nm
PMT Voltage:	700 V
Response:	Auto 
Corrected spectra:	Off
Contour interval:	50.000

Peak integration
Integration method:	Rectangular
Sensitivity:	1
Threshold:	1.000

Peaks
No.	ApexEX/EM(nm)	Height(Data)
1	225.0/490.0	310.0
2	225.0/585.0	33.06
3	225.0/600.0	28.23
4	225.0/625.0	20.74
5	230.0/345.0	974.7
6	230.0/500.0	301.4
7	230.0/575.0	35.38
8	230.0/640.0	21.93
9	235.0/510.0	263.6
10	240.0/525.0	246.4
11	245.0/405.0	739.4
12	245.0/535.0	204.0
13	250.0/550.0	172.3
14	255.0/280.0	701.2
15	255.0/410.0	749.6
16	255.0/565.0	149.8
17	260.0/290.0	636.8
18	260.0/575.0	125.7
19	265.0/585.0	109.1
20	270.0/300.0	1071
21	270.0/380.0	711.3
22	270.0/410.0	790.3
23	270.0/600.0	96.75
24	275.0/305.0	1145
25	275.0/385.0	702.2
26	275.0/610.0	84.68
27	280.0/310.0	1012
28	280.0/340.0	807.4
29	280.0/625.0	72.62
30	285.0/320.0	1040
31	285.0/635.0	55.60
32	290.0/325.0	1022
33	295.0/330.0	886.7
34	300.0/335.0	923.1
35	305.0/345.0	809.1
36	325.0/370.0	404.8
37	330.0/375.0	403.9
38	335.0/380.0	407.8
39	340.0/390.0	382.4
40	345.0/395.0	382.6
41	350.0/405.0	411.0
42	355.0/410.0	416.4
43	365.0/420.0	363.5
44	430.0/505.0	35.20
45	440.0/520.0	24.72
46	445.0/525.0	22.14
47	455.0/540.0	14.39
48	480.0/350.0	3.823
49	505.0/275.0	3.980
50	515.0/280.0	4.146
51	520.0/285.0	4.635
52	530.0/290.0	4.162
53	540.0/295.0	5.616
54	545.0/300.0	5.904
55	555.0/305.0	6.253
56	560.0/310.0	5.409
57	580.0/320.0	6.838
58	585.0/325.0	7.109

Data points
	220.0	225.0	230.0	235.0	240.0	245.0	250.0	255.0	260.0	265.0	270.0	275.0	280.0	285.0	290.0	295.0	300.0	305.0	310.0	315.0	320.0	325.0	330.0	335.0	340.0	345.0	350.0	355.0	360.0	365.0	370.0	375.0	380.0	385.0	390.0	395.0	400.0	405.0	410.0	415.0	420.0	425.0	430.0	435.0	440.0	445.0	450.0	455.0	460.0	465.0	470.0	475.0	480.0	485.0	490.0	495.0	500.0	505.0	510.0	515.0	520.0	525.0	530.0	535.0	540.0	545.0	550.0	555.0	560.0	565.0	570.0	575.0	580.0	585.0	590.0	595.0	600.0
230.0	29.99	807.4	2905	1111	42.20	5.633	4.289	3.788	3.819	3.236	3.323	2.811	2.653	1.946	1.707	1.541	1.251	1.143	1.055	0.845	0.776	0.627	0.584	0.519	0.454	0.439	0.375	0.334	0.281	0.265	0.238	0.243	0.264	0.238	0.168	0.229	0.183	0.194	0.168	0.156	0.214	0.288	0.365	0.253	0.144	0.160	4.001	18.30	27.23	14.81	4.329	0.706	0.122	0.099	0.110	0.103	0.088	0.098	0.066	0.093	0.085	0.049	0.070	0.051	0.065	0.061	0.061	0.043	0.039	0.042	0.044	0.072	0.057	0.031	0.029	0.023	0.023
235.0	115.9	225.5	1542	3409	617.8	75.21	4.670	6.056	4.396	3.695	2.978	3.255	2.846	2.419	1.703	1.479	1.340	1.217	1.080	0.970	1.012	0.717	0.578	0.520	0.472	0.524	0.456	0.321	0.260	0.215	0.197	0.276	0.246	0.234	0.215	0.290	0.207	0.258	0.206	0.162	0.138	0.182	0.278	0.430	0.396	0.278	1.028	4.593	11.35	21.60	24.74	22.22	8.883	1.400	0.187	0.143	0.107	0.127	0.138	0.082	0.080	0.047	0.046	0.072	0.052	0.079	0.037	0.024	0.046	0.070	0.059	0.042	0.038	0.084	0.104	0.029	0.014
240.0	163.2	165.4	437.4	2562	4491	499.8	36.85	8.465	6.316	5.306	4.172	3.771	2.987	2.271	2.195	1.840	1.565	1.188	1.103	0.827	0.905	0.769	0.619	0.488	0.508	0.560	0.504	0.414	0.371	0.307	0.285	0.334	0.182	0.246	0.196	0.222	0.225	0.169	0.196	0.198	0.220	0.182	0.193	0.279	0.481	0.499	0.702	1.268	2.701	6.379	17.33	42.27	30.11	21.67	7.481	0.915	0.156	0.094	0.122	0.118	0.109	0.061	0.061	0.072	0.044	0.093	0.075	0.030	0.044	0.120	0.031	0.050	0.038	0.043	0.053	0.035	0.006
245.0	110.6	244.1	186.0	784.7	5098	4001	378.0	17.85	9.023	5.192	4.622	4.407	3.168	2.228	2.181	2.099	1.839	1.322	1.157	0.798	0.860	0.752	0.638	0.543	0.522	0.565	0.510	0.431	0.329	0.254	0.315	0.396	0.236	0.229	0.214	0.217	0.243	0.208	0.222	0.142	0.231	0.152	0.146	0.178	0.272	0.591	0.897	1.046	0.885	1.569	4.131	14.58	36.28	63.28	30.47	18.99	4.937	0.395	0.079	0.119	0.079	0.110	0.127	0.079	0.067	0.089	0.080	0.086	0.031	0.029	0.029	0.031	0.047	0.053	0.052	0.074	0.012
250.0	37.72	158.8	297.8	297.4	1539	5353	6646	1443	88.77	9.816	7.503	5.139	4.234	2.940	2.524	2.182	1.902	1.560	1.239	1.020	0.907	0.753	0.731	0.603	0.656	0.506	0.536	0.393	0.421	0.359	0.344	0.311	0.370	0.210	0.240	0.226	0.225	0.222	0.212	0.152	0.220	0.133	0.143	0.196	0.196	0.251	0.440	0.820	1.099	1.236	1.398	3.622	8.692	21.07	34.35	59.88	58.78	59.39	15.27	5.826	0.634	0.148	0.133	0.100	0.101	0.097	0.108	0.105	0.044	0.065	0.028	0.046	0.043	0.063	0.053	0.040	0.026
255.0	20.08	52.38	181.8	402.4	473.2	1284	5577	9999.9	2029	100.8	11.49	7.972	6.460	4.344	3.086	2.917	1.845	1.565	1.565	1.189	1.026	0.876	0.790	0.716	0.778	0.526	0.636	0.571	0.456	0.427	0.329	0.325	0.282	0.200	0.303	0.273	0.221	0.219	0.160	0.194	0.223	0.205	0.242	0.181	0.220	0.260	0.181	0.313	0.456	0.931	1.708	2.302	2.601	4.915	7.872	14.03	23.98	69.95	122.4	108.5	24.64	7.176	0.439	0.232	0.178	0.137	0.143	0.167	0.134	0.095	0.073	0.086	0.048	0.039	0.089	0.069	0.048
260.0	15.12	21.31	65.92	313.4	441.5	361.8	1501	9876	9999.9	1559	48.68	12.24	8.030	5.688	4.281	2.682	2.374	2.038	1.680	1.252	1.073	0.936	0.718	0.719	0.735	0.594	0.683	0.560	0.516	0.439	0.448	0.354	0.309	0.315	0.275	0.335	0.309	0.216	0.246	0.216	0.229	0.241	0.207	0.214	0.180	0.217	0.157	0.198	0.212	0.365	0.896	1.920	2.661	2.240	2.162	3.391	5.617	17.64	51.92	117.1	145.6	33.49	20.19	3.486	0.375	0.195	0.147	0.125	0.120	0.089	0.082	0.083	0.082	0.082	0.086	0.038	0.052
265.0	17.44	15.34	26.01	133.4	454.8	343.5	379.8	2947	9999.9	9999.9	247.8	25.12	11.10	7.163	4.872	3.856	2.646	2.306	1.847	1.574	1.218	1.162	0.846	0.866	0.864	0.730	0.738	0.612	0.529	0.520	0.394	0.374	0.350	0.273	0.372	0.372	0.329	0.317	0.252	0.213	0.270	0.214	0.179	0.186	0.172	0.199	0.183	0.206	0.167	0.246	0.367	0.800	1.976	2.615	2.378	1.297	1.560	4.252	12.04	31.98	82.45	138.9	160.1	30.93	14.83	1.249	0.248	0.198	0.184	0.116	0.096	0.095	0.106	0.073	0.095	0.052	0.099
270.0	26.02	23.30	21.06	43.21	188.4	454.6	361.0	724.7	3302	9999.9	9999.9	3623	68.85	11.15	6.912	4.769	3.736	2.642	2.209	1.873	1.367	1.176	1.048	0.938	0.799	0.727	0.782	0.504	0.559	0.524	0.512	0.464	0.460	0.384	0.422	0.430	0.323	0.394	0.261	0.267	0.285	0.238	0.232	0.245	0.247	0.253	0.207	0.224	0.205	0.166	0.188	0.321	0.660	1.197	2.119	2.540	2.548	2.137	3.115	7.476	19.02	38.97	80.37	109.9	142.7	105.4	62.52	10.36	1.527	0.244	0.223	0.151	0.180	0.137	0.096	0.114	0.111
275.0	57.00	45.58	39.81	29.19	56.58	179.5	574.7	455.9	800.8	2403	9988	9999.9	1380	72.46	10.19	7.179	5.224	3.715	2.772	2.462	1.639	1.579	1.337	1.129	0.927	0.975	0.787	0.636	0.645	0.606	0.558	0.543	0.508	0.535	0.515	0.495	0.389	0.386	0.271	0.296	0.299	0.279	0.309	0.300	0.358	0.322	0.330	0.296	0.242	0.226	0.179	0.217	0.318	0.459	0.682	1.079	2.306	3.980	3.374	2.499	4.663	8.975	18.30	25.17	40.15	85.26	172.5	174.4	31.81	13.71	1.006	0.228	0.211	0.225	0.168	0.081	0.132
280.0	96.83	86.64	67.71	38.74	32.75	68.66	326.0	701.2	377.6	607.8	2680	9999.9	9999.9	1001	33.80	10.11	6.106	4.843	3.469	2.475	1.868	1.867	1.277	1.130	1.005	1.004	0.852	0.855	0.649	0.677	0.635	0.587	0.481	0.453	0.651	0.492	0.406	0.418	0.414	0.416	0.386	0.330	0.398	0.463	0.375	0.431	0.367	0.416	0.374	0.324	0.295	0.218	0.249	0.330	0.359	0.479	0.802	2.257	3.993	4.146	2.464	2.555	4.469	6.088	9.491	20.49	56.78	130.1	179.9	149.3	27.31	6.639	0.497	0.310	0.172	0.101	0.155
285.0	130.9	133.5	98.98	58.71	39.43	44.61	127.4	568.1	634.4	279.7	703.3	3449	9999.9	9252	135.0	17.58	8.051	5.746	3.665	2.929	2.350	1.901	1.606	1.221	0.938	1.126	0.799	0.696	0.703	0.751	0.658	0.702	0.532	0.451	0.718	0.640	0.585	0.490	0.501	0.588	0.425	0.339	0.485	0.554	0.399	0.461	0.538	0.607	0.456	0.397	0.309	0.272	0.288	0.317	0.275	0.336	0.475	0.894	1.714	3.769	4.635	3.115	1.891	1.969	2.646	5.172	13.39	32.75	76.21	153.9	175.1	35.76	19.68	2.400	0.332	0.186	0.188
290.0	190.0	193.2	149.4	99.93	68.28	63.25	85.33	236.9	636.8	586.7	346.3	929.8	3559	9999.9	9999.9	2365	38.56	8.546	5.398	3.822	2.864	2.321	1.932	1.412	1.389	1.149	0.947	0.949	0.768	0.714	0.674	0.663	0.597	0.588	0.702	0.719	0.696	0.650	0.566	0.528	0.492	0.474	0.532	0.558	0.613	0.652	0.658	0.827	0.675	0.564	0.425	0.432	0.440	0.395	0.367	0.395	0.454	0.632	0.834	1.449	2.480	3.767	4.162	3.400	2.145	2.026	3.917	8.190	18.00	38.87	69.19	88.13	119.2	90.72	63.86	12.78	2.665
295.0	223.6	256.9	214.5	141.1	106.7	94.47	100.5	155.4	298.7	732.4	811.0	472.2	964.7	2470	8769	9999.9	746.1	41.65	8.694	5.489	3.979	3.086	2.498	1.805	1.617	1.558	1.264	0.933	0.849	0.783	0.738	0.641	0.761	0.901	0.779	0.785	0.828	0.663	0.735	0.511	0.547	0.441	0.596	0.588	0.696	0.815	0.825	0.913	0.774	0.749	0.626	0.564	0.536	0.431	0.503	0.511	0.595	0.669	0.787	0.914	1.232	1.648	2.293	4.363	5.616	4.172	2.696	3.079	5.100	9.741	16.37	20.44	30.12	52.15	115.3	139.7	36.38
300.0	263.1	302.7	259.6	179.2	134.8	130.6	135.6	167.4	233.9	474.5	1071	689.7	461.6	721.1	2373	9999.9	9999.9	579.4	21.81	7.424	4.778	3.430	2.993	2.153	1.851	1.804	1.243	1.078	0.984	0.919	0.681	0.734	0.828	0.904	0.864	0.893	0.871	0.700	0.685	0.620	0.601	0.608	0.640	0.666	0.813	0.751	1.008	1.019	0.954	0.797	0.688	0.735	0.635	0.711	0.533	0.600	0.733	0.789	1.059	0.995	1.060	1.272	1.591	2.422	4.207	5.904	5.142	3.392	2.541	3.455	4.788	5.500	7.556	12.64	33.11	78.72	121.0
305.0	305.3	336.0	303.6	222.5	164.6	169.9	181.0	224.0	289.4	405.2	830.6	1145	553.1	404.5	701.2	3148	9999.9	5480	82.74	13.52	6.330	4.490	3.538	2.323	2.036	1.879	1.407	1.182	1.249	1.060	0.786	0.711	0.756	0.837	0.928	0.980	0.869	0.834	0.743	0.634	0.643	0.636	0.587	0.822	0.748	0.866	0.909	1.229	0.991	0.985	0.804	0.791	0.845	0.942	0.704	0.806	0.960	0.891	1.169	1.249	1.358	1.564	1.712	2.093	2.718	4.270	6.192	6.253	4.090	2.847	2.491	2.587	3.081	3.972	8.225	19.30	42.36
310.0	325.3	366.7	333.3	252.1	191.3	196.2	223.9	265.5	330.2	420.9	603.7	956.0	1012	521.5	386.8	865.3	3174	8636	8477	1678	27.65	7.111	4.477	3.010	2.473	1.982	1.679	1.353	1.286	1.161	0.946	0.888	0.817	0.899	0.904	0.954	0.953	0.850	0.755	0.648	0.618	0.720	0.687	0.734	0.789	0.928	1.052	1.238	1.164	1.050	0.902	1.020	0.932	0.983	0.920	0.975	1.062	1.106	1.426	1.353	1.471	1.841	2.020	2.279	2.407	3.076	3.838	4.711	5.409	5.406	4.045	2.687	2.349	2.175	3.108	5.423	10.47
315.0	341.1	417.3	394.5	299.9	243.2	247.4	269.0	302.6	367.4	449.5	571.2	703.8	920.3	969.0	473.4	428.9	909.2	2137	6338	9999.9	528.6	28.13	6.882	4.347	3.259	2.393	1.902	1.612	1.477	1.340	1.085	1.116	1.012	0.781	0.789	0.901	0.914	0.724	0.803	0.711	0.744	0.756	0.715	0.812	0.886	1.177	1.305	1.327	1.322	1.271	1.118	1.218	1.321	1.334	1.224	1.277	1.463	1.363	1.667	1.558	1.719	2.122	2.146	2.510	2.624	2.980	3.275	3.462	3.827	4.294	5.619	5.952	4.262	2.689	2.542	3.062	3.878
320.0	397.7	477.5	474.9	369.9	305.8	304.5	312.8	342.8	396.8	492.7	605.4	677.9	759.6	1040	807.0	442.8	493.5	692.2	1780	8478	8654	417.7	14.42	6.131	3.852	2.795	2.250	1.928	1.529	1.321	1.143	1.144	0.819	0.901	1.100	0.923	0.869	0.797	0.725	0.742	0.775	0.730	0.809	0.876	0.980	1.188	1.413	1.500	1.735	1.559	1.278	1.554	1.608	1.559	1.716	1.708	1.678	1.750	1.893	2.026	2.163	2.147	2.708	2.748	3.233	3.383	3.690	3.551	4.077	3.901	4.602	6.360	6.838	5.371	3.969	2.991	3.361
325.0	442.2	573.8	590.9	463.3	374.7	350.3	336.8	365.7	416.8	516.4	624.6	696.2	732.1	840.8	1022	625.1	453.9	415.9	575.4	2567	8888	4031	61.90	8.799	5.157	3.840	2.650	1.952	1.786	1.461	1.287	1.102	1.109	0.916	1.052	0.869	0.983	0.822	0.677	0.856	0.699	0.874	0.851	1.093	1.168	1.360	1.458	1.989	1.887	1.969	1.589	1.921	1.929	1.768	1.925	1.825	1.962	2.095	2.138	2.205	2.402	2.537	3.017	3.071	3.219	3.680	3.910	3.737	4.061	4.235	4.536	4.978	6.212	7.109	6.318	4.666	3.931
330.0	504.1	699.4	761.1	621.8	489.4	416.9	380.6	385.8	444.5	535.8	642.4	722.1	745.4	752.8	853.1	886.7	627.1	412.0	347.7	738.9	2596	5588	5595	1236	20.76	5.742	3.587	2.592	2.027	1.705	1.444	1.245	1.245	1.040	0.976	1.003	0.926	0.875	0.811	0.821	0.844	0.870	1.000	1.103	1.269	1.611	1.734	2.356	2.347	2.359	2.274	2.405	2.462	2.353	2.140	2.179	2.242	2.164	2.369	2.200	2.421	2.612	3.033	3.261	3.419	3.831	3.837	3.814	4.176	4.531	4.720	4.826	5.192	5.715	6.066	6.643	6.193
335.0	549.4	792.7	898.8	802.0	654.0	519.4	437.9	428.2	488.6	568.7	679.4	758.0	795.1	781.3	783.4	826.2	923.1	576.8	369.3	379.2	694.1	1359	4119	7478	432.8	21.95	5.527	3.506	2.786	1.962	1.680	1.535	1.340	1.152	0.973	1.188	1.097	0.812	0.840	0.892	0.924	0.914	0.992	1.112	1.325	1.803	2.105	2.749	3.130	2.729	2.672	3.263	3.207	3.159	2.804	2.587	2.571	2.695	2.312	2.344	2.612	2.881	3.232	3.595	3.906	3.969	4.090	4.547	4.630	5.032	5.188	5.376	5.717	6.082	5.844	5.772	6.650
340.0	566.6	864.7	971.3	889.1	735.6	568.9	481.4	448.8	510.1	581.2	682.7	769.2	807.4	796.6	777.6	749.7	884.3	783.2	426.0	321.7	288.1	371.3	1120	5501	6496	357.9	10.64	4.675	3.216	2.243	1.766	1.796	1.323	1.196	1.156	1.055	1.138	0.842	0.851	0.807	0.971	0.950	1.049	1.250	1.469	1.821	2.130	2.602	3.238	3.337	3.159	3.655	3.614	3.473	3.197	2.874	2.892	2.596	2.478	2.473	2.784	2.956	3.343	3.466	3.952	4.084	4.320	4.649	4.687	5.106	5.319	5.747	5.537	6.055	6.212	5.956	6.178
345.0	584.7	869.6	974.7	915.7	754.3	613.9	497.0	470.5	510.4	592.1	674.1	744.6	786.0	783.2	756.0	701.1	724.9	809.1	556.5	323.9	209.6	165.5	308.4	1615	6357	3389	53.26	7.092	3.732	2.745	2.187	1.694	1.413	1.106	1.146	1.145	1.068	0.928	0.830	0.840	0.972	0.974	1.038	1.267	1.408	1.903	2.171	2.584	3.075	3.182	3.164	3.573	3.714	3.591	3.167	2.858	2.933	2.522	2.645	2.665	2.946	2.996	3.305	3.597	3.752	4.060	4.084	4.373	4.478	5.071	4.940	5.529	5.344	5.856	5.821	5.814	5.644
350.0	558.4	800.8	967.9	931.2	800.6	655.5	526.9	502.0	534.6	601.4	657.1	724.0	762.1	759.4	735.7	683.4	662.0	643.9	638.9	452.1	228.0	142.7	149.0	420.3	1833	4045	4044	1031	17.21	3.957	2.852	2.143	1.533	1.197	1.303	1.264	1.064	1.083	0.915	0.872	0.792	0.964	1.061	1.170	1.414	1.830	2.195	2.549	2.884	3.160	3.150	3.655	3.823	3.546	3.290	3.017	3.104	2.805	2.801	2.624	2.962	3.105	3.288	3.555	3.678	3.906	3.960	4.034	4.420	4.615	4.590	5.083	5.215	5.568	5.517	5.498	5.292
355.0	527.9	744.6	922.1	917.4	841.2	680.6	582.4	564.7	581.1	625.6	675.1	710.5	736.5	736.7	719.4	675.2	640.4	573.9	525.6	564.1	345.5	172.9	140.4	173.4	463.8	981.1	2791	5212	397.7	18.78	4.102	2.506	1.932	1.492	1.412	1.221	1.251	1.024	1.007	0.930	0.877	0.964	0.918	1.066	1.355	1.947	2.055	2.660	2.771	2.964	3.004	3.803	3.670	3.551	3.424	3.128	3.204	3.015	2.930	3.129	3.093	3.058	3.372	3.536	3.818	3.674	3.929	3.928	4.236	4.420	4.475	5.068	4.965	5.207	5.107	5.170	5.200
360.0	478.0	740.1	885.1	888.0	844.6	720.5	625.6	596.8	611.4	640.6	677.4	700.9	715.4	714.2	689.1	657.8	620.9	549.9	471.0	501.5	465.5	239.2	158.7	135.8	174.5	268.1	760.9	3731	3363	333.5	9.140	3.412	2.526	1.908	1.419	1.429	1.349	1.035	1.026	0.914	0.859	1.093	0.867	1.107	1.318	1.790	1.958	2.438	2.558	2.804	2.857	3.763	3.667	3.660	3.377	3.277	3.356	3.135	3.170	3.121	3.276	3.188	3.668	3.532	3.805	3.663	3.906	4.088	4.175	4.120	4.100	4.649	4.892	4.957	4.919	4.580	4.625
365.0	463.5	698.7	833.3	853.7	820.2	732.9	639.6	632.0	643.3	664.9	684.2	691.3	695.5	691.9	674.2	637.5	603.1	532.8	458.2	424.7	462.0	358.0	196.3	144.9	127.2	122.4	217.3	1101	4153	3117	50.18	5.899	3.202	2.207	1.743	1.343	1.387	1.255	0.873	0.929	1.005	0.860	1.013	1.195	1.274	1.644	1.843	2.247	2.499	2.595	2.710	3.543	3.455	3.646	3.151	3.225	3.275	3.254	3.084	3.163	3.207	3.491	3.537	3.592	3.481	3.673	3.776	4.068	3.865	4.453	4.183	4.246	4.309	4.407	4.781	4.517	4.403
370.0	442.9	646.6	774.4	832.5	810.3	735.8	667.5	651.1	665.6	689.2	694.5	686.8	678.3	668.1	645.6	616.0	583.0	527.4	461.1	409.7	383.8	404.8	327.3	197.8	146.8	117.5	115.7	295.5	1224	3277	3555	979.6	16.12	3.486	2.380	2.037	1.604	1.382	1.097	0.953	1.059	0.920	0.899	1.111	1.197	1.544	1.744	2.186	2.504	2.588	2.878	3.267	3.330	3.557	3.293	3.308	3.427	3.170	3.243	3.185	3.309	3.533	3.559	3.409	3.474	3.608	3.594	3.654	3.564	4.081	3.847	3.984	4.116	4.210	4.331	4.207	4.284
375.0	459.0	630.8	733.7	804.2	807.8	745.2	686.7	673.6	691.2	704.5	707.8	697.2	679.7	651.7	623.0	592.5	569.9	521.3	468.4	417.7	366.1	349.1	403.9	320.3	196.5	150.9	122.6	139.9	322.3	805.0	2460	4889	346.7	16.09	3.775	2.735	2.154	1.596	1.174	1.118	0.957	0.926	1.015	1.113	1.211	1.561	1.594	1.875	2.307	2.481	2.740	3.074	3.366	3.502	3.375	3.097	3.258	3.257	3.226	3.170	3.197	3.470	3.795	3.482	3.491	3.700	3.537	3.296	3.580	3.775	3.542	3.847	3.915	3.987	3.659	3.894	4.179
380.0	430.6	604.5	737.0	779.9	795.2	751.5	704.9	674.1	691.9	699.4	711.3	699.8	679.1	638.7	603.1	580.8	552.3	514.8	470.7	428.6	375.0	337.7	369.4	407.8	272.8	185.8	146.3	124.5	140.9	231.2	688.7	3582	2920	273.6	8.267	4.054	2.593	1.846	1.315	1.109	0.965	0.987	1.012	1.086	1.356	1.401	1.621	1.762	2.268	2.215	2.503	3.109	3.236	3.519	3.414	3.300	3.367	3.131	3.218	3.128	3.092	3.395	3.464	3.510	3.507	3.546	3.617	3.290	3.211	3.553	3.497	3.586	3.450	3.330	3.565	3.724	3.704
385.0	436.7	586.0	693.4	755.2	783.4	743.1	705.1	696.9	699.8	696.9	700.9	702.2	660.2	624.2	589.1	559.1	536.9	505.4	472.6	433.1	389.2	345.3	340.2	397.7	366.3	232.4	174.0	139.4	117.7	116.7	206.4	1072	3584	2585	41.46	6.492	3.407	2.145	1.490	1.263	0.960	0.985	1.023	1.161	1.135	1.418	1.734	1.832	2.172	2.178	2.527	2.888	3.301	3.498	3.431	3.078	3.294	3.295	2.897	3.236	3.183	3.313	3.304	3.277	3.550	3.501	3.319	3.266	3.163	3.395	3.563	3.555	3.519	3.470	3.196	3.497	3.831
390.0	430.1	567.5	675.7	727.9	753.0	734.2	702.8	702.7	702.3	707.0	699.0	688.9	652.8	615.8	574.2	540.0	521.9	495.0	464.7	439.6	400.4	369.4	348.1	352.6	382.4	336.6	227.3	171.5	137.7	114.0	113.1	288.6	1048	2581	3051	910.5	15.02	3.370	2.021	1.443	1.167	1.110	1.086	1.244	1.187	1.427	1.577	1.938	2.103	2.045	2.333	2.826	3.217	3.287	3.193	3.227	3.339	3.193	3.085	3.413	3.268	3.248	3.268	3.243	3.266	3.363	3.226	3.177	2.995	3.361	3.232	3.453	3.296	3.331	3.168	3.364	3.482
395.0	433.8	541.7	645.5	712.2	736.5	734.4	705.4	709.8	701.5	719.9	713.5	698.7	671.6	617.1	580.2	535.9	512.5	488.3	465.7	445.9	417.7	392.1	373.3	358.8	353.3	382.6	339.3	230.2	178.7	146.6	123.1	135.3	279.9	632.2	2033	4628	301.0	16.07	3.170	2.034	1.565	1.298	1.307	1.225	1.189	1.502	1.759	1.755	1.986	2.074	2.478	2.951	3.145	3.168	2.965	3.117	3.195	3.190	3.324	2.919	3.317	3.267	3.188	3.177	3.348	3.279	3.024	3.203	3.072	3.103	2.988	3.344	3.212	3.077	3.276	3.030	3.440
400.0	410.2	555.2	632.1	694.3	726.2	730.2	726.6	732.0	722.5	732.0	736.4	717.0	693.1	634.8	585.7	540.6	514.3	493.6	463.7	450.9	427.2	412.7	399.8	384.3	366.9	372.1	406.5	313.9	224.8	187.3	152.6	124.8	125.2	182.6	556.6	3194	3765	251.8	7.287	2.908	1.859	1.329	1.256	1.435	1.458	1.567	1.661	1.912	2.081	2.222	2.279	2.863	3.026	2.923	2.892	3.271	3.363	3.223	3.333	3.182	3.364	3.259	3.144	3.095	3.198	3.352	3.249	3.148	3.213	3.117	2.943	3.178	3.104	3.100	3.052	2.987	3.317
405.0	407.2	560.5	643.2	691.7	723.5	739.4	735.0	742.6	729.8	747.7	768.9	739.7	715.0	660.9	600.1	541.2	513.4	489.7	467.0	456.7	444.8	428.5	424.0	414.2	391.2	381.7	411.0	401.7	289.7	230.2	188.8	147.0	111.3	97.11	166.1	918.2	3362	2308	37.36	4.572	2.348	1.771	1.588	1.466	1.454	1.511	1.664	1.880	2.058	2.021	2.120	2.858	2.897	3.159	3.130	3.219	3.093	3.480	3.481	3.138	3.215	3.038	3.246	3.260	3.210	3.285	3.228	3.069	3.043	3.080	3.123	2.980	3.018	2.999	3.217	3.014	3.072
410.0	399.0	535.9	612.5	686.9	698.6	732.7	735.6	749.6	739.6	771.1	790.3	761.6	724.6	667.4	606.2	547.6	509.8	478.9	462.9	456.3	444.6	443.4	439.4	435.1	418.0	404.6	400.6	416.4	381.1	290.9	225.4	177.4	128.4	96.04	89.94	243.9	938.4	2210	2160	639.1	12.28	2.319	1.713	1.521	1.551	1.633	1.558	1.848	2.052	2.091	2.211	2.771	2.854	2.963	2.945	2.983	3.033	3.124	3.173	3.091	3.182	3.185	3.237	3.231	3.246	3.261	3.191	3.182	3.071	3.027	2.832	2.996	2.858	3.030	2.956	2.785	2.907
