Sample:	'1
File name:	三里河入淮口.FD3
Run date:	'12:41:29, 04/03/2024
Operator:	Administrator
Comment:	'

Instrument
Model:	F-2700 FL Spectrophotometer
Serial number:	23B8-004
ROM Version:	4J14000 07

Instrument parameters
Measurement type:	3-D scan
Data mode:	Fluorescence
EX  Start WL:	220.0 nm
EX  End WL:	600.0 nm
EX Sampling interval:	5.0 nm
EM  Start WL:	230.0 nm
EM  End WL:	650.0 nm
EM Sampling interval:	5.0 nm
Scan speed:	12000 nm/min
EX Slit:	5.0 nm
EM Slit:	5.0 nm
PMT Voltage:	700 V
Response:	Auto 
Corrected spectra:	Off
Contour interval:	50.000

Peak integration
Integration method:	Rectangular
Sensitivity:	1
Threshold:	1.000

Peaks
No.	ApexEX/EM(nm)	Height(Data)
1	225.0/305.0	1182
2	225.0/560.0	70.09
3	225.0/590.0	86.61
4	230.0/380.0	698.9
5	230.0/580.0	81.77
6	235.0/390.0	670.8
7	235.0/510.0	285.7
8	240.0/405.0	692.8
9	240.0/520.0	242.9
10	245.0/535.0	208.0
11	250.0/545.0	175.7
12	255.0/280.0	551.0
13	255.0/560.0	140.3
14	260.0/285.0	579.9
15	260.0/420.0	656.6
16	260.0/570.0	113.4
17	265.0/585.0	119.9
18	270.0/300.0	1253
19	270.0/405.0	644.2
20	270.0/595.0	117.4
21	275.0/305.0	1486
22	275.0/395.0	631.1
23	275.0/610.0	102.7
24	280.0/310.0	1312
25	280.0/625.0	82.64
26	285.0/635.0	56.13
27	305.0/340.0	381.7
28	310.0/350.0	336.6
29	315.0/355.0	338.0
30	320.0/360.0	343.1
31	325.0/370.0	337.0
32	330.0/375.0	346.6
33	335.0/380.0	359.5
34	340.0/390.0	344.9
35	345.0/395.0	331.3
36	350.0/400.0	327.6
37	430.0/505.0	46.54
38	445.0/525.0	29.43
39	455.0/315.0	4.805
40	520.0/285.0	3.778
41	530.0/290.0	4.339
42	540.0/295.0	6.215
43	545.0/300.0	7.359
44	555.0/305.0	7.788
45	560.0/310.0	7.061
46	570.0/315.0	6.312
47	580.0/320.0	5.542
48	585.0/325.0	5.066

Data points
	220.0	225.0	230.0	235.0	240.0	245.0	250.0	255.0	260.0	265.0	270.0	275.0	280.0	285.0	290.0	295.0	300.0	305.0	310.0	315.0	320.0	325.0	330.0	335.0	340.0	345.0	350.0	355.0	360.0	365.0	370.0	375.0	380.0	385.0	390.0	395.0	400.0	405.0	410.0	415.0	420.0	425.0	430.0	435.0	440.0	445.0	450.0	455.0	460.0	465.0	470.0	475.0	480.0	485.0	490.0	495.0	500.0	505.0	510.0	515.0	520.0	525.0	530.0	535.0	540.0	545.0	550.0	555.0	560.0	565.0	570.0	575.0	580.0	585.0	590.0	595.0	600.0
230.0	54.62	2429	8438	3308	125.2	11.62	8.355	7.493	6.264	6.131	5.742	6.041	5.816	5.093	4.282	3.705	3.413	3.301	2.941	2.561	2.452	2.276	2.095	2.264	2.029	1.620	1.604	1.501	1.463	1.365	1.285	1.252	1.266	1.314	1.188	0.999	0.894	0.790	0.755	0.698	0.737	0.806	0.872	0.672	0.607	0.607	2.952	17.53	33.35	24.42	9.689	1.819	0.505	0.403	0.382	0.326	0.370	0.332	0.261	0.270	0.253	0.249	0.213	0.232	0.185	0.185	0.155	0.179	0.147	0.159	0.115	0.129	0.114	0.107	0.104	0.086	0.093
235.0	121.9	624.5	4215	8893	3620	215.8	12.27	10.04	8.496	6.819	7.194	6.852	6.065	5.697	4.878	4.370	3.605	3.197	3.130	2.776	2.560	2.278	2.308	2.394	1.984	1.942	1.579	1.621	1.423	1.439	1.293	1.242	1.327	1.356	1.229	1.034	1.017	0.804	0.743	0.593	0.596	0.650	0.766	0.827	0.911	0.702	1.038	4.487	11.25	20.09	30.72	26.85	16.79	4.176	0.453	0.355	0.386	0.328	0.331	0.262	0.245	0.219	0.249	0.276	0.217	0.202	0.222	0.126	0.134	0.132	0.139	0.100	0.106	0.110	0.084	0.116	0.136
240.0	157.0	241.3	1112	6189	9999.9	2960	130.7	14.54	10.95	9.700	7.982	7.358	7.005	5.852	5.341	4.521	3.842	3.223	3.230	2.969	2.744	2.237	2.349	2.605	2.248	1.767	1.533	1.809	1.666	1.333	1.418	1.607	1.353	1.135	1.153	1.118	0.971	0.736	0.803	0.667	0.772	0.649	0.631	0.691	0.824	1.153	0.965	1.541	2.969	5.520	14.16	37.31	52.38	27.45	14.48	2.368	0.457	0.351	0.332	0.338	0.333	0.256	0.270	0.225	0.234	0.192	0.183	0.163	0.180	0.132	0.166	0.105	0.118	0.118	0.165	0.117	0.114
245.0	101.4	238.5	338.0	1820	9036	9999.9	2252	52.44	13.34	12.63	9.624	9.375	7.994	6.429	5.324	4.843	4.254	3.974	3.148	3.224	2.659	2.806	2.393	2.654	2.542	1.985	1.825	1.858	1.489	1.369	1.514	1.446	1.250	1.148	1.195	1.308	1.021	0.875	0.761	0.660	0.869	0.717	0.654	0.643	0.740	0.979	1.197	1.232	1.219	1.630	3.556	11.58	31.39	55.32	62.63	25.21	10.35	1.013	0.321	0.414	0.340	0.310	0.283	0.207	0.277	0.243	0.172	0.194	0.221	0.188	0.183	0.148	0.125	0.151	0.140	0.133	0.116
250.0	45.02	140.3	259.8	521.9	2563	8286	9999.9	5668	144.0	20.18	15.17	11.90	10.62	7.816	6.229	5.640	4.679	4.245	3.603	3.307	3.020	2.784	2.498	2.695	2.287	2.016	2.134	1.986	1.683	1.708	1.425	1.337	1.279	1.209	1.123	1.104	1.085	0.910	0.853	0.746	0.747	0.727	0.762	0.661	0.672	0.767	0.865	1.098	1.336	1.253	1.447	3.069	7.597	16.44	33.18	51.78	72.03	61.53	18.84	9.301	1.193	0.374	0.349	0.315	0.293	0.256	0.234	0.236	0.213	0.182	0.181	0.168	0.147	0.162	0.172	0.138	0.115
255.0	40.30	56.73	146.6	364.7	687.5	1960	7055	9999.9	9589	186.8	24.32	16.47	14.92	10.37	8.137	6.327	5.706	5.015	4.296	3.427	3.578	3.027	2.710	2.750	2.543	2.132	2.256	2.027	2.015	1.847	1.896	1.435	1.421	1.301	1.163	1.110	1.096	0.968	0.851	0.917	0.750	0.805	0.724	0.708	0.658	0.729	0.710	0.679	0.731	1.190	1.573	2.199	2.478	4.072	7.802	12.30	22.67	53.92	107.7	125.4	29.38	11.77	0.881	0.424	0.419	0.396	0.297	0.293	0.281	0.192	0.260	0.170	0.179	0.217	0.203	0.206	0.122
260.0	40.45	33.64	64.79	240.4	418.2	515.5	1891	9999.9	9999.9	2133	127.8	27.28	19.47	13.32	10.60	7.927	6.703	5.211	4.710	4.516	3.782	3.265	2.946	3.133	2.726	2.452	2.518	2.177	2.032	1.888	1.855	1.651	1.696	1.384	1.088	1.245	1.061	0.995	0.924	0.941	0.815	0.809	0.679	0.765	0.709	0.815	0.591	0.535	0.604	0.657	0.984	1.859	2.112	1.939	2.340	3.238	5.609	13.63	41.24	104.9	149.6	134.2	25.46	6.346	0.672	0.418	0.364	0.408	0.306	0.204	0.289	0.249	0.212	0.275	0.145	0.204	0.124
265.0	37.21	35.43	40.11	101.3	340.7	336.7	479.6	3082	9999.9	9999.9	1725	71.50	27.43	18.17	12.62	9.529	7.372	6.123	5.212	4.818	4.130	3.556	3.102	3.462	3.014	2.662	2.588	2.446	2.322	2.009	2.060	2.050	1.738	1.420	1.327	1.298	1.042	1.127	0.964	0.924	1.046	0.823	0.902	0.919	0.784	0.806	0.697	0.620	0.586	0.564	0.544	0.990	1.724	2.258	1.897	1.402	1.847	3.553	9.809	28.48	73.45	155.5	189.4	34.91	18.78	2.334	0.532	0.468	0.443	0.419	0.397	0.302	0.259	0.326	0.152	0.236	0.213
270.0	62.69	59.03	56.98	53.81	147.4	338.0	353.7	766.0	3412	9999.9	9999.9	6823	106.7	29.61	19.24	14.31	10.45	8.577	6.883	5.723	5.063	4.498	3.822	4.001	3.441	3.088	2.850	2.700	2.425	2.251	2.074	2.079	1.897	1.667	1.449	1.445	1.272	1.177	1.061	1.002	1.063	0.994	0.896	0.946	0.837	0.853	0.871	0.693	0.701	0.617	0.604	0.722	0.905	1.248	1.815	2.127	2.248	1.836	2.831	6.874	17.30	41.51	82.87	118.0	174.3	138.4	102.4	13.60	3.261	0.544	0.517	0.395	0.342	0.350	0.294	0.306	0.312
275.0	115.6	122.9	96.98	60.71	64.74	136.3	410.3	458.1	837.7	2454	9999.9	9999.9	9491	124.7	33.42	21.13	14.95	11.72	9.114	7.528	6.435	5.108	4.648	4.692	3.511	3.178	3.292	2.972	2.716	2.502	2.287	2.193	1.966	1.885	1.771	1.620	1.394	1.328	1.245	1.275	1.134	1.171	1.051	1.117	1.087	1.087	0.994	0.916	0.903	0.722	0.684	0.683	0.763	0.766	0.958	1.128	2.140	3.195	3.028	2.513	4.422	9.849	19.28	27.26	46.79	93.41	219.3	265.3	35.67	20.41	2.624	0.691	0.516	0.473	0.476	0.436	0.380
280.0	179.6	209.1	173.8	87.35	58.52	69.93	220.7	551.0	386.9	644.1	2759	9999.9	9999.9	6704	88.46	30.70	21.01	14.72	11.36	9.081	7.073	5.943	5.178	5.149	4.366	3.673	3.501	3.312	2.858	2.670	2.687	2.268	2.226	2.218	1.930	1.820	1.622	1.554	1.319	1.304	1.228	1.136	1.300	1.259	1.277	1.142	1.181	1.104	1.064	0.940	0.751	0.804	0.717	0.711	0.688	0.769	1.161	1.994	3.310	3.229	2.453	2.916	5.094	6.895	11.32	22.56	67.29	165.3	261.4	258.4	33.99	15.74	1.380	0.702	0.574	0.481	0.487
285.0	285.9	342.5	296.0	171.5	87.61	61.40	112.9	393.6	579.9	333.7	796.1	3579	9999.9	9999.9	962.7	62.94	29.82	19.52	14.20	10.97	8.325	6.774	6.136	6.657	4.988	4.108	3.907	3.600	3.095	3.141	2.850	2.408	2.374	2.491	2.381	2.174	1.890	1.937	1.399	1.377	1.248	1.501	1.389	1.403	1.715	1.647	1.560	1.550	1.677	1.153	1.113	0.995	0.928	0.886	0.704	0.781	0.911	1.163	1.826	3.007	3.778	3.160	2.631	2.477	3.604	6.276	16.36	40.75	93.64	217.9	318.0	238.4	29.16	9.783	1.052	0.760	0.732
290.0	486.4	628.8	577.0	341.0	163.5	101.0	113.5	222.7	536.5	706.0	609.2	1181	4092	9999.9	9999.9	9999.9	71.50	31.44	21.09	15.23	11.36	8.882	7.544	7.940	5.478	5.083	4.817	4.127	3.670	3.130	2.907	2.860	2.741	2.819	2.917	2.694	2.550	2.298	1.908	1.731	1.535	1.838	1.795	1.971	2.176	2.508	2.403	2.549	2.367	1.924	1.614	1.577	1.274	1.107	0.931	0.880	1.079	1.017	1.277	1.759	2.595	3.762	4.339	3.846	3.272	3.558	5.634	11.33	23.12	53.67	106.1	180.3	243.5	255.5	150.7	20.52	9.576
295.0	698.4	888.9	859.0	528.9	253.0	146.9	147.1	221.4	392.0	763.8	1111	883.4	1416	2669	9999.9	9999.9	5754	81.75	33.75	22.58	15.23	11.87	9.520	9.765	6.690	6.068	5.566	4.770	4.506	3.544	3.477	3.117	3.119	3.499	3.491	2.926	3.151	2.954	2.353	2.036	1.804	2.197	2.251	2.431	2.674	3.214	3.313	3.399	3.348	2.718	2.259	1.988	1.698	1.244	1.232	1.154	1.283	1.163	1.278	1.567	2.095	2.674	3.155	4.763	6.215	5.433	4.415	5.493	7.998	14.72	25.88	42.30	58.03	92.58	209.7	364.7	268.7
300.0	827.7	1074	1007	631.7	311.8	187.2	181.1	247.9	390.4	654.4	1253	1166	930.0	969.2	2776	9999.9	9999.9	4394	65.05	31.10	21.44	15.36	11.91	11.76	8.433	6.721	6.300	5.595	4.886	4.285	3.596	3.810	3.747	3.358	3.453	3.260	3.326	3.145	2.821	2.355	2.226	2.304	2.470	2.667	2.909	3.377	3.742	4.003	3.907	3.180	2.659	2.353	1.994	1.488	1.412	1.263	1.559	1.386	1.640	1.870	2.323	2.675	2.775	3.915	5.461	7.359	6.758	5.327	5.351	6.595	8.471	11.58	14.57	22.34	54.32	149.9	310.9
305.0	903.7	1182	1108	694.3	356.8	213.0	215.0	280.5	418.8	633.7	1048	1486	1011	638.7	819.7	3455	9999.9	9999.9	610.6	52.18	28.92	19.58	14.87	14.16	9.639	7.872	7.066	6.250	5.377	4.874	4.044	4.004	3.982	3.638	3.650	3.770	3.629	3.192	2.901	2.658	2.614	2.617	2.427	2.884	3.023	3.816	3.843	4.453	4.336	3.544	2.738	2.458	2.310	1.663	1.592	1.477	1.573	1.553	1.788	1.950	2.372	2.573	2.936	3.693	4.295	5.578	7.254	7.788	6.097	5.041	4.890	4.874	5.092	6.618	13.41	35.53	85.84
310.0	907.9	1156	1127	719.2	385.5	246.9	241.8	320.4	454.4	658.1	932.5	1260	1312	736.1	425.7	909.9	3924	9999.9	9999.9	9999.9	57.28	30.71	21.05	18.91	12.45	9.687	8.501	7.245	6.544	5.448	4.759	4.543	4.510	4.131	3.980	4.033	3.784	3.629	3.212	2.971	2.814	2.779	2.868	3.007	3.238	4.049	4.112	4.611	4.480	3.494	2.975	2.748	2.278	1.788	1.783	1.709	1.830	1.898	2.027	2.170	2.407	2.775	3.271	3.928	4.296	4.907	5.592	6.653	7.061	6.861	5.688	4.070	3.240	3.158	4.460	9.269	20.37
315.0	882.3	1131	1079	698.4	405.6	292.6	270.1	345.0	470.9	660.3	890.7	1053	1120	1022	460.8	354.7	973.6	2423	9999.9	9999.9	4211	64.38	31.53	27.10	16.18	12.82	10.11	8.823	8.020	6.018	5.382	5.084	4.539	4.395	4.449	4.329	4.262	3.904	3.325	3.284	2.888	3.014	3.150	3.103	3.415	3.941	4.201	4.805	4.221	3.572	3.040	2.777	2.338	2.107	1.975	1.953	1.863	2.222	2.164	2.274	2.490	2.911	3.241	3.934	4.296	5.010	5.275	5.563	5.333	5.730	6.312	5.997	4.441	3.005	2.491	3.233	5.831
320.0	855.6	1108	1060	710.5	405.2	299.7	298.0	353.0	474.9	666.6	869.8	988.2	970.7	949.0	682.4	278.2	321.4	624.6	2705	9999.9	9999.9	3539	56.13	37.05	21.97	15.04	12.56	10.61	9.073	7.294	6.638	5.626	4.794	5.009	4.640	4.551	4.213	3.827	3.349	3.124	3.191	3.105	3.107	3.184	3.224	3.795	4.047	4.653	4.253	3.645	2.996	2.911	2.613	2.191	1.926	1.855	2.084	2.244	2.110	2.366	2.699	3.010	3.477	3.780	4.125	4.746	4.861	5.297	5.063	4.727	5.132	5.507	5.542	4.539	2.725	2.161	2.511
325.0	833.6	1097	1050	710.8	424.0	318.1	309.3	368.8	485.5	653.5	840.1	960.6	919.5	785.3	757.7	400.6	192.5	224.2	679.5	3525	9999.9	9999.9	478.9	55.18	28.81	19.78	15.80	12.35	9.919	8.385	7.137	5.971	5.531	5.150	4.872	4.512	4.316	4.058	3.562	3.387	3.217	3.118	3.419	3.385	3.288	4.067	4.063	4.389	4.421	3.675	2.947	3.078	2.774	2.179	2.022	1.902	2.104	2.254	2.305	2.411	2.831	3.125	3.680	3.761	4.039	4.496	4.696	4.864	4.719	4.468	4.520	4.158	4.319	5.066	4.493	2.895	2.202
330.0	788.6	1028	1028	717.1	447.9	340.4	329.5	372.6	473.3	630.6	808.2	911.5	884.3	710.6	582.6	526.8	304.4	154.0	227.5	859.8	3980	9999.9	9999.9	9999.9	50.71	29.26	21.69	15.88	12.12	10.06	8.271	7.194	6.512	5.715	5.128	4.736	4.286	4.173	3.860	3.535	3.249	3.016	3.390	3.303	3.388	4.059	3.949	4.567	4.233	3.706	2.952	2.975	2.768	2.418	2.329	2.083	2.240	2.374	2.488	2.539	2.810	2.935	3.382	3.675	4.126	4.553	4.610	4.745	4.632	4.650	4.393	3.898	3.724	3.626	3.866	3.755	3.530
335.0	751.1	999.0	969.8	718.1	470.6	380.7	349.2	376.8	473.2	608.1	766.5	865.1	845.7	686.8	506.5	401.3	448.1	250.5	140.9	264.5	953.4	2430	9999.9	9999.9	9999.9	55.83	30.63	22.75	16.73	12.53	9.904	8.567	7.355	6.470	5.598	5.259	4.963	4.666	4.178	3.758	3.714	3.100	3.449	3.491	3.374	3.893	3.977	4.397	4.420	3.672	3.204	3.050	2.905	2.588	2.475	2.236	2.492	2.462	2.489	2.576	2.867	2.911	3.224	3.600	3.914	4.459	4.099	4.306	4.745	4.489	4.329	3.735	3.689	3.304	2.911	2.828	2.783
340.0	745.6	930.8	955.8	719.7	492.3	394.9	361.9	392.6	455.3	585.2	733.0	824.9	805.6	668.7	489.8	348.6	374.6	381.7	169.4	139.7	285.0	609.9	2828	9999.9	9999.9	3065	51.35	28.74	21.04	14.91	12.01	9.845	8.252	7.077	6.182	5.722	4.920	4.702	4.186	3.846	3.561	3.378	3.253	3.409	3.438	3.957	3.962	4.408	4.215	3.536	3.195	3.118	3.066	2.356	2.514	2.217	2.602	2.526	2.548	2.863	3.077	2.916	3.356	3.434	3.659	4.027	4.045	4.254	4.411	4.580	4.229	3.607	3.295	3.018	2.744	2.286	2.354
345.0	674.6	883.2	914.5	710.4	498.0	410.0	367.5	397.4	449.5	561.5	691.8	780.9	771.3	642.8	482.9	335.6	289.4	378.1	286.5	137.3	143.8	208.3	700.1	4183	9999.9	9999.9	423.5	42.71	26.10	18.00	13.29	10.44	9.106	7.052	6.581	5.794	4.946	4.833	3.977	3.727	3.283	3.336	3.377	3.177	3.341	3.951	3.889	4.135	3.861	3.378	3.128	3.248	2.769	2.474	2.370	2.419	2.718	2.466	2.460	2.858	2.811	2.969	3.341	3.328	3.611	4.099	3.837	4.020	4.468	4.137	4.035	3.864	3.427	3.128	2.764	2.344	2.151
350.0	627.8	802.4	835.2	684.8	515.9	429.0	396.9	412.4	453.6	549.4	653.4	722.5	722.3	613.1	477.8	345.0	273.4	281.9	336.6	254.6	146.7	133.1	232.9	1015	4392	9999.9	9999.9	9767	45.68	25.32	17.34	12.61	10.54	8.382	7.300	6.140	5.220	4.876	4.298	3.726	3.428	3.169	3.080	3.222	3.430	3.585	3.691	4.024	3.646	3.315	2.989	3.196	2.845	2.538	2.634	2.429	2.874	2.543	2.480	2.628	2.717	2.899	3.070	3.170	3.490	3.787	3.573	3.684	3.910	3.866	3.665	3.550	3.232	3.039	2.826	2.506	2.200
355.0	584.3	737.7	770.9	663.6	527.4	464.0	426.0	440.9	467.0	539.3	626.3	677.3	673.8	595.0	473.9	362.3	291.8	258.8	266.7	338.0	249.3	144.9	148.5	312.7	1049	2472	9999.9	9999.9	9999.9	50.46	24.68	17.31	13.17	9.867	8.017	6.467	5.767	5.005	4.521	3.950	3.473	3.163	3.229	2.954	3.404	3.246	3.352	3.764	3.650	3.204	2.804	3.274	2.974	2.694	2.584	2.506	2.601	2.538	2.526	2.768	2.686	2.896	2.896	3.197	3.273	3.457	3.455	3.458	3.788	3.408	3.496	3.482	3.224	3.034	2.797	2.533	2.296
360.0	563.7	706.0	753.1	658.3	542.1	485.6	459.7	462.9	493.8	551.1	615.0	652.1	659.7	577.5	474.3	372.1	315.8	277.4	255.4	296.5	343.1	204.1	147.3	168.1	313.5	621.5	2992	9999.9	9999.9	2904	43.76	24.00	16.51	12.14	9.141	7.431	6.160	5.520	4.759	4.186	3.649	3.594	3.389	2.890	3.232	3.389	3.219	3.630	3.549	3.118	2.683	3.373	2.835	2.759	2.640	2.563	2.823	2.774	2.759	2.780	2.833	2.695	3.056	3.135	3.133	3.432	3.231	3.375	3.388	3.449	3.356	3.106	3.217	3.051	2.705	2.594	2.478
365.0	543.4	668.1	724.7	650.0	573.7	509.2	483.5	487.9	510.6	559.0	610.8	638.4	638.0	572.4	478.2	389.5	337.2	295.7	269.8	267.8	338.1	303.3	176.8	153.6	162.6	215.0	741.5	4127	9999.9	9999.9	395.8	37.77	21.77	15.16	11.08	8.282	6.887	6.057	5.201	4.233	3.883	3.856	3.467	3.026	3.044	3.669	3.334	3.491	3.620	3.219	2.812	3.119	3.062	2.960	2.931	2.746	3.006	2.813	2.770	2.801	2.904	3.313	3.097	3.107	3.290	3.384	3.315	3.246	3.439	3.544	3.391	3.571	3.166	3.000	2.916	2.877	2.648
370.0	535.2	657.4	687.5	648.5	580.1	549.4	515.7	520.4	538.1	568.7	613.8	637.6	620.0	558.7	483.4	404.5	360.6	330.7	303.6	286.9	295.0	337.0	287.8	191.9	155.4	142.9	244.5	996.8	4630	9999.9	9999.9	8932	40.49	22.54	15.60	11.12	8.610	7.050	5.756	4.875	4.244	4.168	3.806	3.336	3.303	3.605	3.386	3.666	3.585	3.047	2.753	3.179	3.172	3.031	3.016	2.877	3.232	2.942	2.954	3.019	3.045	3.310	3.390	3.257	3.307	3.316	3.322	3.263	3.331	3.369	3.275	3.068	3.206	3.101	2.710	2.718	2.679
375.0	512.0	622.0	690.0	658.2	612.4	572.7	551.2	542.1	562.1	581.8	618.4	636.5	603.0	557.2	486.1	427.5	386.6	365.7	338.0	317.0	302.9	307.7	346.6	294.0	189.1	152.5	153.7	302.0	1098	2521	9999.9	9999.9	9999.9	43.97	22.42	15.44	11.10	8.632	6.497	5.483	4.800	4.618	3.819	3.913	3.224	3.684	3.531	3.648	3.520	3.173	2.819	3.389	3.204	3.178	3.092	3.103	3.232	3.200	3.152	3.119	3.174	3.208	3.445	3.311	3.393	3.305	3.367	3.216	3.499	3.350	3.228	3.131	3.436	3.173	2.952	2.984	2.880
380.0	507.7	618.3	698.9	658.9	630.2	604.0	586.2	564.8	580.6	599.4	623.6	636.5	609.6	554.2	489.0	434.1	405.4	388.3	365.9	347.7	327.8	312.4	324.3	359.5	250.6	177.5	148.2	158.3	318.7	625.3	3007	9999.9	9999.9	2470	37.99	20.06	13.91	10.94	7.669	5.888	5.047	5.078	4.334	3.879	3.670	3.610	3.584	3.754	3.565	3.252	3.025	3.328	3.352	3.309	3.336	3.044	3.218	3.323	3.150	3.413	3.230	3.299	3.558	3.479	3.287	3.345	3.330	3.393	3.565	3.475	3.167	3.285	3.517	3.142	2.933	2.949	3.044
385.0	489.4	610.7	671.6	670.4	649.1	619.1	607.9	587.5	588.7	605.6	623.6	627.1	609.1	550.9	496.8	447.3	418.2	402.5	388.3	368.6	346.9	330.6	316.2	353.5	328.1	214.9	163.5	140.1	155.7	207.3	733.3	4124	9999.9	9999.9	1855	30.02	16.94	12.70	8.910	6.921	5.897	5.119	4.403	3.962	3.843	4.002	3.701	3.850	3.435	3.169	3.161	3.538	3.348	3.415	3.436	3.299	3.530	3.395	3.148	3.366	3.429	3.226	3.364	3.306	3.394	3.365	3.133	3.364	3.489	3.152	3.191	3.267	3.288	3.183	2.961	3.095	2.889
390.0	496.5	626.2	666.4	670.8	652.5	646.1	625.5	622.5	609.1	615.6	628.1	628.6	603.1	557.1	501.2	459.7	438.2	422.0	409.5	394.6	372.9	356.4	334.6	328.1	344.9	298.6	206.4	158.4	138.4	128.6	228.9	983.1	4417	9999.9	9999.9	7240	32.18	17.67	11.81	8.810	6.713	5.607	5.001	4.511	3.948	4.203	3.803	3.811	3.538	3.333	3.094	3.481	3.254	3.516	3.366	3.243	3.561	3.655	3.428	3.231	3.401	3.406	3.547	3.397	3.513	3.370	3.276	3.248	3.430	3.240	3.305	3.300	3.206	3.154	3.237	3.220	3.003
395.0	523.4	644.3	660.0	656.6	672.2	671.1	650.1	634.3	628.3	629.3	629.0	631.1	595.0	557.1	509.9	468.4	451.2	440.2	427.1	410.3	397.5	379.5	359.2	340.2	321.4	331.3	285.5	195.8	159.4	130.8	130.0	280.9	1035	2496	9999.9	9999.9	9999.9	36.91	16.98	12.17	8.807	6.978	5.730	4.950	4.688	4.388	4.149	4.082	3.712	3.335	3.149	3.756	3.513	3.516	3.643	3.297	3.940	3.853	3.625	3.479	3.539	3.565	3.446	3.294	3.540	3.609	3.196	3.488	3.317	3.291	3.384	3.271	3.228	3.231	3.332	3.356	3.211
400.0	511.2	628.4	650.9	672.3	692.4	681.2	655.5	650.2	640.7	639.5	640.1	629.2	600.8	557.1	508.7	471.9	456.6	450.4	437.2	425.7	411.4	395.4	376.9	352.6	325.9	320.8	327.6	246.9	179.6	143.1	120.4	134.0	286.1	603.7	2889	9999.9	9999.9	2176	31.55	14.65	10.47	8.186	6.323	5.188	4.894	4.465	4.193	4.189	3.820	3.457	3.128	3.848	3.651	3.465	3.863	3.357	3.743	3.681	3.441	3.489	3.573	3.528	3.535	3.496	3.247	3.472	3.516	3.408	3.259	3.424	3.304	3.144	3.047	3.113	3.189	3.345	3.284
405.0	517.0	608.7	656.2	684.8	692.8	670.1	670.9	658.0	644.1	632.3	644.2	622.3	598.7	550.9	512.5	467.1	456.8	449.1	444.8	435.7	419.7	404.6	386.0	364.7	334.6	314.5	319.3	299.5	209.4	162.4	130.5	109.1	125.7	183.4	689.4	3512	9999.9	9999.9	1693	24.60	12.70	9.601	7.555	5.891	5.232	4.836	4.304	4.414	3.826	3.546	3.214	3.728	3.573	3.755	3.835	3.458	3.960	3.499	3.551	3.746	3.569	3.584	3.450	3.386	3.348	3.377	3.233	3.421	3.407	3.298	3.331	3.022	2.991	3.229	3.007	3.213	3.315
410.0	503.7	606.9	663.5	668.9	686.3	681.8	671.3	668.0	649.1	644.0	634.4	617.4	584.3	543.5	505.3	468.2	453.2	445.5	440.0	431.9	421.2	410.0	393.1	375.8	350.1	322.1	302.9	303.0	273.9	202.3	150.5	119.5	102.3	97.88	199.1	825.8	3523	9999.9	9999.9	6696	27.61	13.32	9.600	7.100	5.829	5.068	4.638	4.567	3.988	3.477	3.198	3.871	3.686	3.808	3.607	3.616	4.029	3.812	3.540	3.885	3.707	3.462	3.468	3.547	3.490	3.154	3.374	3.342	3.144	3.205	3.228	3.126	2.966	3.026	3.055	3.059	3.240
