Sample:	'1
File name:	9.2 4点进水商丘市示范区三污二期 30倍.FD3
Run date:	'09:41:05, 09/04/2024
Operator:	horiz
Comment:	'

Instrument
Model:	F-2700 FL Spectrophotometer
Serial number:	23B8-004
ROM Version:	4J14000 07

Instrument parameters
Measurement type:	3-D scan
Data mode:	Fluorescence
EX  Start WL:	220.0 nm
EX  End WL:	600.0 nm
EX Sampling interval:	5.0 nm
EM  Start WL:	230.0 nm
EM  End WL:	650.0 nm
EM Sampling interval:	5.0 nm
Scan speed:	12000 nm/min
EX Slit:	5.0 nm
EM Slit:	5.0 nm
PMT Voltage:	700 V
Response:	Auto 
Corrected spectra:	Off
Contour interval:	50.000

Peak integration
Integration method:	Rectangular
Sensitivity:	1
Threshold:	1.000

Peaks
No.	ApexEX/EM(nm)	Height(Data)
1	225.0/490.0	281.3
2	230.0/500.0	222.4
3	235.0/255.0	374.5
4	235.0/515.0	169.4
5	240.0/265.0	435.0
6	240.0/395.0	820.0
7	240.0/525.0	149.5
8	245.0/270.0	441.6
9	245.0/540.0	129.3
10	250.0/275.0	590.7
11	250.0/550.0	111.6
12	255.0/565.0	144.4
13	260.0/575.0	212.3
14	265.0/585.0	277.0
15	270.0/300.0	3623
16	270.0/595.0	273.5
17	275.0/610.0	192.8
18	295.0/330.0	462.2
19	300.0/335.0	410.4
20	305.0/340.0	340.4
21	305.0/395.0	469.7
22	310.0/350.0	278.4
23	315.0/355.0	272.8
24	320.0/365.0	273.2
25	325.0/370.0	281.5
26	330.0/375.0	290.8
27	335.0/380.0	279.5
28	350.0/400.0	170.5
29	360.0/415.0	108.6
30	365.0/420.0	110.1
31	370.0/425.0	90.25
32	380.0/440.0	65.08
33	385.0/300.0	6.509
34	385.0/445.0	57.74
35	395.0/460.0	40.75
36	400.0/465.0	36.81
37	410.0/480.0	24.23
38	415.0/485.0	22.30
39	420.0/490.0	17.57
40	425.0/500.0	16.02
41	430.0/505.0	14.46
42	435.0/300.0	5.574
43	440.0/520.0	10.29
44	445.0/525.0	8.674
45	455.0/540.0	6.471
46	460.0/545.0	5.354
47	470.0/560.0	3.206
48	480.0/260.0	2.096
49	480.0/575.0	1.838
50	485.0/265.0	2.514
51	485.0/395.0	3.494
52	485.0/580.0	1.601
53	495.0/270.0	2.474
54	505.0/275.0	3.813
55	510.0/280.0	5.081
56	540.0/295.0	18.73
57	545.0/300.0	18.97
58	585.0/325.0	4.303

Wavelength data
No.	EX/EM(nm)	Height(Data)	

Data points
	220.0	225.0	230.0	235.0	240.0	245.0	250.0	255.0	260.0	265.0	270.0	275.0	280.0	285.0	290.0	295.0	300.0	305.0	310.0	315.0	320.0	325.0	330.0	335.0	340.0	345.0	350.0	355.0	360.0	365.0	370.0	375.0	380.0	385.0	390.0	395.0	400.0	405.0	410.0	415.0	420.0	425.0	430.0	435.0	440.0	445.0	450.0	455.0	460.0	465.0	470.0	475.0	480.0	485.0	490.0	495.0	500.0	505.0	510.0	515.0	520.0	525.0	530.0	535.0	540.0	545.0	550.0	555.0	560.0	565.0	570.0	575.0	580.0	585.0	590.0	595.0	600.0
230.0	69.33	1068	2035	502.8	16.48	2.718	1.880	1.743	1.748	1.380	1.797	1.337	0.893	0.821	0.597	0.460	0.524	0.438	0.402	0.352	0.382	0.314	0.277	0.215	0.192	0.201	0.173	0.168	0.173	0.132	0.123	0.118	0.170	0.119	0.105	0.166	0.202	0.152	0.130	0.175	0.391	0.773	0.700	0.268	0.138	0.164	1.380	5.348	7.779	4.877	1.423	0.231	0.105	0.083	0.090	0.075	0.086	0.065	0.066	0.064	0.069	0.050	0.079	0.064	0.039	0.051	0.060	0.046	0.041	0.053	0.051	0.057	0.060	0.039	0.068	0.039	0.068
235.0	187.9	310.8	1294	1905	436.1	23.53	2.574	1.793	1.873	1.936	1.995	1.180	1.112	0.892	0.765	0.548	0.480	0.395	0.388	0.286	0.288	0.304	0.332	0.325	0.209	0.187	0.131	0.181	0.189	0.109	0.163	0.134	0.144	0.147	0.175	0.126	0.140	0.148	0.124	0.150	0.155	0.357	0.550	0.759	0.588	0.235	0.483	1.436	3.133	5.167	6.649	6.292	2.596	0.457	0.082	0.073	0.094	0.066	0.057	0.084	0.081	0.060	0.099	0.083	0.063	0.048	0.036	0.054	0.029	0.032	0.059	0.035	0.069	0.038	0.045	0.066	0.056
240.0	290.5	197.1	398.6	1688	1952	321.8	10.83	2.519	2.282	2.361	1.892	1.770	1.311	0.835	0.887	0.614	0.556	0.362	0.547	0.444	0.466	0.330	0.355	0.254	0.232	0.176	0.163	0.199	0.257	0.234	0.157	0.151	0.097	0.126	0.157	0.094	0.140	0.172	0.130	0.176	0.122	0.201	0.307	0.541	0.860	0.852	0.488	0.516	0.813	1.603	3.718	8.472	9.897	6.742	2.042	0.248	0.084	0.084	0.089	0.075	0.153	0.050	0.074	0.055	0.079	0.067	0.063	0.063	0.084	0.054	0.080	0.062	0.167	0.055	0.053	0.040	0.047
245.0	190.5	311.0	166.4	597.2	2126	1774	213.8	5.465	3.024	2.929	2.440	2.109	1.839	0.823	0.764	0.578	0.469	0.409	0.600	0.456	0.423	0.268	0.343	0.278	0.229	0.170	0.186	0.205	0.233	0.230	0.141	0.111	0.130	0.098	0.154	0.092	0.135	0.160	0.164	0.178	0.132	0.160	0.144	0.240	0.390	0.946	0.948	0.737	0.394	0.464	0.965	2.959	7.474	12.01	10.96	5.305	1.346	0.195	0.087	0.110	0.098	0.060	0.059	0.058	0.092	0.026	0.061	0.070	0.066	0.063	0.059	0.070	0.071	0.070	0.074	0.052	0.040
250.0	58.84	219.5	294.2	232.4	695.6	1830	2128	694.0	37.96	3.844	3.023	2.431	1.798	1.008	0.981	0.653	0.660	0.528	0.582	0.470	0.431	0.305	0.370	0.296	0.226	0.278	0.168	0.201	0.213	0.257	0.132	0.111	0.150	0.127	0.196	0.120	0.150	0.155	0.117	0.184	0.170	0.150	0.152	0.183	0.185	0.343	0.571	0.942	1.113	0.935	0.599	0.828	1.863	3.858	7.070	10.16	12.91	11.13	5.337	1.429	0.151	0.065	0.080	0.062	0.082	0.102	0.058	0.064	0.052	0.055	0.046	0.048	0.064	0.057	0.076	0.064	0.062
255.0	25.65	64.18	224.9	374.5	249.2	479.7	1714	3139	983.4	29.96	4.345	3.121	2.240	1.216	1.294	0.948	0.707	0.813	0.618	0.541	0.461	0.365	0.256	0.279	0.274	0.260	0.184	0.248	0.264	0.165	0.175	0.132	0.133	0.166	0.167	0.114	0.144	0.187	0.125	0.188	0.204	0.107	0.163	0.147	0.164	0.163	0.252	0.323	0.516	1.060	1.634	1.588	0.841	1.011	1.735	2.525	4.705	11.63	19.23	18.68	8.139	1.493	0.156	0.112	0.069	0.070	0.122	0.090	0.076	0.075	0.109	0.050	0.073	0.042	0.082	0.063	0.083
260.0	20.93	23.34	82.74	351.7	339.2	167.0	529.2	2615	3557	218.5	15.74	4.524	2.609	1.774	1.656	1.072	0.943	0.847	0.663	0.461	0.470	0.363	0.448	0.263	0.292	0.234	0.307	0.198	0.247	0.151	0.187	0.147	0.165	0.167	0.192	0.139	0.150	0.151	0.141	0.109	0.146	0.145	0.126	0.200	0.157	0.174	0.177	0.164	0.249	0.454	1.111	2.030	2.096	1.074	0.595	0.738	1.291	3.272	8.323	18.27	23.81	17.95	6.199	0.600	0.134	0.101	0.100	0.068	0.050	0.085	0.101	0.062	0.111	0.058	0.063	0.061	0.092
265.0	18.48	13.82	29.80	158.6	435.0	256.9	156.7	884.3	3787	1792	165.8	7.552	3.799	2.292	1.824	1.100	1.189	0.783	0.835	0.588	0.631	0.399	0.442	0.339	0.353	0.183	0.310	0.219	0.239	0.185	0.165	0.243	0.197	0.167	0.109	0.150	0.175	0.162	0.166	0.114	0.120	0.160	0.117	0.186	0.189	0.183	0.147	0.131	0.180	0.192	0.384	0.993	2.062	2.514	1.691	0.644	0.518	0.945	2.166	5.402	13.01	24.42	26.96	14.75	3.430	0.248	0.132	0.094	0.096	0.102	0.057	0.102	0.087	0.078	0.046	0.055	0.069
270.0	39.91	28.88	23.70	54.01	214.7	441.6	269.7	257.1	1192	2781	3147	668.4	34.62	4.329	2.661	1.679	1.328	1.007	0.986	0.688	0.704	0.506	0.398	0.364	0.392	0.271	0.276	0.331	0.234	0.209	0.288	0.224	0.244	0.218	0.257	0.229	0.216	0.182	0.175	0.152	0.171	0.175	0.197	0.209	0.179	0.222	0.222	0.170	0.200	0.172	0.195	0.355	0.732	1.316	2.126	2.474	1.983	1.182	0.862	1.445	3.218	7.008	13.13	20.07	23.28	20.13	11.43	3.384	0.353	0.140	0.109	0.131	0.084	0.108	0.057	0.067	0.087
275.0	192.5	122.5	64.40	44.19	88.03	234.8	590.7	320.8	416.8	850.3	2593	5342	922.5	33.62	4.838	2.347	1.807	1.440	1.057	0.846	0.764	0.631	0.490	0.403	0.361	0.434	0.354	0.306	0.267	0.323	0.220	0.340	0.490	0.722	0.646	0.551	0.462	0.502	0.488	0.448	0.393	0.581	0.496	0.546	0.557	0.526	0.400	0.409	0.295	0.345	0.231	0.241	0.326	0.495	0.757	1.308	2.788	3.813	2.930	1.336	1.425	2.319	3.843	5.641	7.661	15.28	29.81	31.37	17.63	3.279	0.290	0.128	0.113	0.176	0.055	0.111	0.102
280.0	556.3	329.1	157.6	85.51	93.15	169.7	483.8	841.0	620.6	754.1	1301	4249	5102	137.7	15.79	3.856	2.428	2.067	1.339	1.294	0.926	0.770	0.655	0.445	0.407	0.548	0.470	0.411	0.354	0.369	0.268	0.459	1.134	1.465	1.461	1.391	1.236	1.032	1.000	1.301	1.193	1.422	1.329	1.210	1.323	1.253	0.880	0.763	0.520	0.475	0.338	0.318	0.402	0.566	0.631	0.809	1.540	2.995	5.081	4.750	3.059	2.833	3.285	4.098	5.251	6.661	12.81	25.80	37.03	28.96	12.24	1.662	0.229	0.208	0.121	0.220	0.204
285.0	1116	641.3	276.5	133.5	128.4	206.0	404.3	1010	1341	1287	1473	2153	4995	3909	104.3	7.224	3.564	2.416	1.598	1.406	1.042	0.834	0.736	0.628	0.542	0.564	0.529	0.390	0.411	0.325	0.374	0.825	1.989	3.082	2.678	2.461	2.315	1.838	1.990	1.949	2.170	2.577	2.577	2.356	2.558	2.499	1.755	1.276	0.930	0.625	0.521	0.586	0.506	0.663	0.863	0.988	1.403	2.178	3.733	6.110	7.686	6.798	5.982	6.457	7.595	7.641	8.462	11.40	17.47	30.54	34.77	23.63	7.382	0.881	0.293	0.200	0.178
290.0	1860	1066	459.4	201.0	183.8	281.6	489.8	998.0	1873	2359	2314	2031	2051	3428	4176	407.7	25.20	3.425	2.262	1.906	1.244	1.009	0.891	0.795	0.744	0.530	0.505	0.490	0.465	0.371	0.534	1.132	3.088	5.067	4.661	4.132	3.430	3.131	3.280	3.348	3.708	4.025	4.242	4.037	4.070	3.700	2.730	2.215	1.426	1.010	0.698	0.785	0.756	0.913	1.130	1.324	1.977	2.676	3.886	5.428	7.774	10.19	12.33	12.36	12.79	11.48	10.67	10.91	9.746	10.63	14.59	21.87	25.68	25.96	16.08	6.338	0.996
295.0	2325	1340	575.5	259.4	220.1	332.5	582.2	1077	1894	2980	3322	2431	1351	1016	2542	4364	606.9	21.28	3.546	2.751	1.652	1.533	1.147	0.954	0.783	0.809	0.558	0.458	0.458	0.420	0.617	1.351	3.617	6.157	6.067	5.421	4.256	3.946	3.876	4.196	4.522	5.173	5.001	5.511	5.160	4.489	3.530	2.901	1.857	1.301	0.909	0.930	0.922	1.071	1.279	1.663	2.403	3.270	4.285	5.565	7.757	9.908	12.07	16.11	18.73	16.70	13.55	12.66	9.267	6.282	5.350	6.038	6.935	12.19	25.70	34.75	24.16
300.0	2382	1383	613.5	273.2	234.7	343.2	606.0	1097	1864	2787	3623	2793	1246	495.4	733.3	2914	4252	428.1	8.794	3.094	2.318	1.645	1.266	0.958	0.859	0.766	0.682	0.509	0.652	0.470	0.601	1.315	3.881	6.509	6.455	5.284	4.551	4.139	4.039	4.432	4.356	5.257	5.350	5.574	5.041	4.761	3.771	3.083	1.836	1.443	0.988	0.934	1.008	1.189	1.266	1.798	2.412	3.116	4.420	5.807	7.656	9.626	11.81	15.03	17.90	18.97	16.98	14.05	9.581	5.597	3.542	2.781	2.416	3.689	7.746	18.17	32.72
305.0	2195	1361	614.3	285.4	231.5	339.1	595.3	1054	1752	2527	3148	3055	1311	410.4	275.7	847.7	3687	3274	67.82	4.830	2.816	1.909	1.560	0.979	1.060	0.922	0.913	0.460	0.657	0.416	0.718	1.472	3.865	5.987	6.039	4.963	4.318	3.911	3.878	4.338	4.285	4.767	5.306	5.406	4.889	4.513	3.505	2.894	1.889	1.246	1.042	1.045	1.073	1.112	1.363	1.720	2.425	3.034	4.391	5.543	7.328	9.302	10.88	13.37	14.88	15.99	16.85	16.42	10.80	5.702	3.279	2.091	1.631	1.665	2.476	4.880	11.01
310.0	1904	1179	550.4	268.2	217.5	321.1	542.8	921.8	1506	2127	2497	2448	1550	525.5	199.2	259.1	1030	2603	3006	285.0	16.93	2.769	2.022	1.417	1.130	0.933	0.847	0.623	0.704	0.522	0.612	1.356	3.183	4.932	5.523	4.339	3.677	3.396	3.164	3.578	3.665	4.073	4.211	4.767	4.501	3.848	3.114	2.479	1.643	1.225	0.988	0.983	1.001	1.068	1.288	1.651	2.100	2.740	3.763	4.939	6.126	7.997	9.441	11.32	12.62	12.44	12.42	12.89	11.04	7.959	4.822	2.661	1.557	1.318	1.304	1.769	2.992
315.0	1515	973.6	472.2	254.2	218.2	293.8	468.2	757.4	1204	1682	1944	1783	1234	876.8	289.5	150.7	281.7	626.5	1739	3300	433.0	13.87	2.494	2.024	1.296	1.130	0.917	0.638	0.765	0.595	0.677	0.953	2.465	4.118	4.343	3.516	3.010	2.873	2.698	2.750	2.941	3.110	3.366	3.830	3.678	3.262	2.492	2.227	1.373	1.040	0.893	0.922	1.014	1.073	1.166	1.387	1.974	2.621	3.077	4.072	5.515	6.396	7.731	8.886	10.10	9.409	9.643	9.437	7.580	6.138	5.913	5.529	3.183	1.793	1.155	1.178	1.299
320.0	1302	877.0	444.0	248.0	206.3	271.9	414.9	661.5	1010	1383	1588	1433	927.4	800.1	541.2	160.6	123.7	177.6	460.8	2229	2967	326.3	6.215	2.386	1.758	1.327	0.916	0.678	0.783	0.616	0.656	0.825	2.127	3.401	3.808	2.986	2.466	2.286	2.241	2.376	2.411	2.902	2.829	3.086	2.811	2.860	2.314	2.129	1.489	1.068	0.860	0.899	0.943	0.994	1.189	1.366	1.776	2.158	2.766	3.475	4.435	5.560	6.349	7.202	8.322	7.731	7.842	7.498	6.219	4.752	4.282	4.781	5.178	3.364	1.797	1.212	0.943
325.0	1121	810.8	442.5	254.8	212.8	263.0	378.4	581.7	862.3	1159	1323	1202	777.4	564.6	647.7	305.5	104.1	84.47	136.6	641.1	2651	2433	52.18	3.876	2.052	1.270	1.070	0.901	0.796	0.588	0.739	0.834	1.625	2.811	3.278	2.653	2.081	1.970	1.912	1.977	2.069	2.519	2.361	2.590	2.637	2.757	2.133	1.956	1.520	1.106	0.803	0.869	0.882	0.951	1.032	1.309	1.804	1.954	2.562	2.948	3.813	4.416	5.294	6.154	6.768	6.695	6.445	6.111	5.063	3.976	3.222	3.203	3.824	4.303	3.416	1.968	1.020
330.0	965.2	730.1	448.3	283.8	229.2	258.1	340.5	493.5	707.9	937.5	1060	982.5	666.9	440.7	433.9	462.2	242.9	82.00	73.95	178.7	750.3	2006	2169	228.1	13.40	2.188	1.394	1.146	0.918	0.751	0.738	0.860	1.290	2.137	2.374	1.927	1.759	1.547	1.586	1.557	1.662	1.927	1.938	2.153	2.269	2.252	1.992	1.883	1.602	1.134	0.965	0.988	0.869	0.996	1.129	1.166	1.598	1.832	2.206	2.638	3.382	3.751	4.232	4.952	5.370	5.464	5.291	5.051	4.302	3.504	2.739	2.489	2.403	2.664	3.116	3.108	2.758
335.0	843.2	713.0	478.8	300.3	235.6	254.1	308.2	424.9	574.2	741.1	848.6	796.8	586.2	406.5	311.3	307.8	410.4	191.3	75.68	82.81	198.7	481.5	1355	2647	358.2	12.26	2.118	1.417	1.208	0.853	0.887	0.853	1.168	1.674	1.879	1.503	1.453	1.385	1.166	1.409	1.411	1.551	1.709	1.742	2.004	2.058	1.963	1.919	1.530	1.142	1.063	1.118	0.947	1.073	1.015	1.175	1.423	1.632	1.828	2.165	2.631	3.072	3.577	3.828	4.190	4.604	4.232	4.265	3.794	3.064	2.673	2.347	1.938	1.970	1.971	2.038	2.447
340.0	776.0	683.8	471.2	309.3	241.8	251.1	289.2	380.6	502.0	630.9	714.1	689.2	531.5	376.6	281.4	223.3	320.8	340.4	117.2	67.08	79.05	131.1	361.1	1883	2497	275.7	4.324	1.626	1.430	1.087	0.834	0.725	1.173	1.576	1.505	1.325	1.221	1.254	1.022	1.214	1.202	1.405	1.398	1.609	1.839	1.687	1.890	1.948	1.652	1.115	1.006	1.237	0.968	1.193	0.993	1.059	1.294	1.487	1.767	2.044	2.334	2.594	3.237	3.333	3.493	3.828	3.577	3.586	3.220	2.667	2.549	2.151	1.921	1.823	1.626	1.504	1.497
345.0	714.2	648.5	470.0	324.2	248.0	236.6	274.2	345.6	441.2	548.1	606.5	594.8	477.4	361.8	270.9	197.5	201.5	337.8	233.0	75.78	56.07	58.00	100.6	546.4	2358	2057	44.61	2.742	1.894	1.169	0.932	0.820	1.066	1.418	1.392	1.232	1.266	1.059	0.970	1.044	1.193	1.261	1.359	1.487	1.772	1.769	1.666	1.827	1.552	1.179	1.050	1.080	1.032	1.121	0.896	1.042	1.362	1.380	1.581	1.843	2.058	2.260	2.746	2.783	3.025	3.063	3.190	3.240	2.823	2.499	2.402	1.997	1.835	1.772	1.554	1.354	1.248
350.0	638.5	590.9	453.2	322.9	247.7	238.7	256.4	305.3	374.9	451.9	499.2	500.0	418.3	332.0	258.5	188.4	155.9	198.7	278.4	185.2	65.32	47.48	48.02	140.6	685.6	1769	1688	200.0	11.51	1.569	1.047	0.941	0.939	1.142	1.184	1.092	1.097	0.996	1.037	1.038	1.103	1.050	1.248	1.442	1.529	1.579	1.675	1.634	1.438	1.150	1.015	1.107	1.117	1.105	1.065	1.125	1.270	1.302	1.451	1.535	1.808	1.999	2.334	2.376	2.460	2.640	2.627	2.765	2.465	2.174	2.078	1.954	1.673	1.672	1.351	1.346	1.127
355.0	589.8	563.7	456.9	333.0	260.8	256.6	253.3	281.7	327.6	371.7	419.7	423.7	369.4	309.2	254.8	195.2	156.0	148.7	180.2	272.8	167.0	63.20	46.21	58.55	171.8	424.3	1135	2114	322.3	6.594	1.649	1.092	1.085	1.095	1.165	1.010	0.895	0.976	0.993	1.052	0.964	1.173	1.188	1.604	1.524	1.617	1.467	1.538	1.406	1.210	1.062	1.152	1.181	1.222	1.125	1.163	1.268	1.358	1.239	1.319	1.518	1.799	1.900	2.078	2.142	2.134	2.158	2.387	2.268	2.112	1.806	1.898	1.610	1.495	1.459	1.571	1.309
360.0	604.2	575.5	454.0	352.4	293.8	276.6	271.6	271.5	295.5	334.9	372.9	385.4	342.8	296.4	260.6	209.3	175.6	161.0	158.2	221.7	268.8	120.9	60.68	51.14	65.80	113.6	309.8	1618	2125	47.72	3.545	1.307	1.104	1.127	1.035	1.197	1.046	1.032	1.152	1.039	1.108	1.207	1.241	1.456	1.591	1.553	1.565	1.505	1.386	1.222	1.189	1.341	1.319	1.323	1.232	1.198	1.369	1.286	1.290	1.466	1.423	1.575	1.628	1.913	1.898	1.991	2.003	2.014	2.115	2.110	1.775	1.812	1.565	1.638	1.392	1.507	1.353
365.0	643.3	597.8	471.7	407.1	358.8	331.9	307.9	273.1	279.3	311.1	336.9	352.7	327.0	307.1	274.7	235.5	211.5	196.2	183.2	190.8	273.2	225.9	96.93	62.29	52.65	52.05	87.98	487.2	2126	1499	38.44	1.952	1.363	1.327	1.076	1.264	1.165	1.248	1.111	1.245	1.260	1.402	1.273	1.544	1.626	1.766	1.527	1.769	1.563	1.474	1.319	1.548	1.419	1.516	1.430	1.451	1.485	1.457	1.470	1.515	1.503	1.461	1.633	1.621	1.711	1.889	1.776	1.784	1.891	1.797	1.706	1.751	1.680	1.890	1.567	1.553	1.432
370.0	753.6	663.6	561.1	500.7	478.4	443.9	380.2	307.8	277.7	285.7	309.7	329.0	327.0	322.4	310.0	286.2	274.1	266.9	250.4	234.2	241.8	281.5	217.5	108.7	68.59	50.64	45.78	125.8	628.0	1456	1498	175.9	7.945	1.616	1.510	1.443	1.394	1.507	1.609	1.541	1.661	1.933	1.768	1.861	1.863	1.885	1.718	1.831	1.730	1.688	1.598	1.989	1.889	1.938	1.838	1.796	1.827	1.764	1.634	1.517	1.381	1.441	1.523	1.527	1.650	1.712	1.662	1.733	1.861	1.897	1.816	1.930	1.910	2.095	1.786	1.904	1.929
375.0	899.1	740.5	655.3	599.6	607.3	564.4	461.8	347.0	275.0	270.0	285.9	316.1	334.2	342.2	351.6	346.7	345.8	346.9	329.2	303.2	270.4	255.4	290.8	212.1	100.3	63.59	45.77	49.98	153.9	352.5	1102	1778	248.6	5.980	1.860	1.539	1.671	1.844	2.046	2.004	2.085	2.302	2.224	2.112	2.151	2.003	2.048	2.116	1.942	1.855	1.752	2.323	2.438	2.500	2.357	2.297	2.489	2.193	1.849	1.677	1.432	1.455	1.499	1.575	1.451	1.541	1.567	1.858	1.860	1.949	1.775	1.917	2.319	2.266	2.305	2.228	2.480
380.0	980.6	808.9	726.1	680.2	694.6	634.8	523.8	377.4	280.8	256.9	278.8	311.3	329.1	361.0	380.1	386.0	394.5	400.7	381.5	350.3	305.5	265.2	266.0	279.5	152.8	78.26	51.60	36.85	50.54	90.13	303.2	1420	1450	39.87	2.918	1.957	1.936	2.150	2.456	2.379	2.455	2.482	2.578	2.245	2.363	2.280	2.152	2.195	1.957	2.050	2.002	2.741	2.697	2.851	3.009	2.586	2.682	2.360	2.045	1.738	1.378	1.439	1.336	1.484	1.566	1.486	1.631	1.520	1.883	1.848	1.860	2.186	2.510	2.407	2.434	2.550	2.716
385.0	1085	865.3	777.2	741.8	751.3	706.5	560.6	402.4	283.5	249.9	270.1	300.7	333.0	366.3	400.6	414.4	426.6	436.4	416.2	387.1	337.4	284.3	246.6	264.6	225.0	105.1	58.09	38.08	30.59	33.39	78.05	435.4	1511	1104	30.53	2.773	2.284	2.585	2.700	2.636	2.492	2.974	2.812	2.497	2.763	2.461	2.160	2.471	2.293	2.074	2.106	2.847	2.978	2.948	3.054	2.997	2.915	2.498	2.052	1.977	1.496	1.390	1.386	1.383	1.336	1.392	1.493	1.575	1.754	1.866	2.165	2.253	2.325	2.382	2.540	2.731	2.872
390.0	1116	924.6	805.2	796.7	800.3	756.3	601.3	417.6	283.7	237.3	256.2	285.6	325.5	372.0	409.8	431.7	452.4	460.3	446.7	413.3	367.7	309.3	252.5	222.0	224.7	173.2	82.13	44.89	30.30	23.76	29.00	106.2	452.3	1100	818.3	140.9	8.779	2.680	2.784	2.998	2.787	2.853	3.033	2.825	2.838	2.599	2.326	2.536	2.383	2.259	2.378	3.142	3.129	3.331	3.194	3.118	3.025	2.548	2.264	1.840	1.561	1.320	1.384	1.308	1.367	1.384	1.538	1.516	1.662	1.860	2.110	2.266	2.256	2.429	2.825	2.818	2.995
395.0	1144	951.4	800.7	815.4	820.0	776.6	611.2	423.2	276.4	229.4	242.0	274.8	315.5	366.0	412.8	437.6	457.6	469.7	459.6	425.3	380.0	321.8	263.7	210.3	179.2	189.3	143.3	56.36	34.92	25.36	20.52	33.49	108.3	266.6	745.9	1379	220.8	6.282	3.055	3.202	2.921	3.095	2.848	2.867	2.742	2.554	2.312	2.337	2.439	2.205	2.492	3.047	3.219	3.494	3.358	3.119	3.145	2.532	2.279	1.772	1.658	1.310	1.510	1.291	1.269	1.482	1.411	1.515	1.595	1.772	2.074	2.246	2.276	2.818	2.762	2.905	3.086
400.0	1085	893.3	816.1	797.5	811.0	762.3	614.0	427.2	275.8	225.6	224.9	258.1	303.8	353.2	402.2	425.0	450.8	466.3	454.4	428.3	376.8	324.4	267.6	212.8	167.9	153.9	170.5	95.53	42.65	28.95	21.41	18.69	32.71	66.86	211.5	1102	1219	34.91	4.016	3.327	2.954	2.984	3.061	2.852	2.832	2.683	2.424	2.429	2.494	2.368	2.465	3.061	3.007	3.344	3.245	3.209	3.244	2.651	2.363	1.883	1.586	1.270	1.288	1.178	1.159	1.319	1.152	1.311	1.428	1.764	1.838	1.996	2.315	2.596	2.652	2.926	3.130
405.0	1086	872.9	784.2	772.3	790.2	752.4	604.7	408.4	267.6	214.0	218.3	245.5	291.9	333.4	381.3	409.9	439.1	450.8	441.6	419.5	375.0	324.6	266.8	215.1	167.5	132.5	148.2	139.2	55.84	32.23	23.79	17.97	17.43	22.44	53.44	337.8	1209	873.5	27.36	3.549	3.093	3.153	2.714	2.760	2.600	2.605	2.457	2.314	2.395	2.294	2.367	2.820	3.116	3.247	3.242	3.105	3.143	2.569	2.141	1.816	1.521	1.232	1.095	1.052	1.133	1.262	1.321	1.286	1.454	1.628	1.677	2.088	2.269	2.492	2.648	2.718	2.774
410.0	1017	825.9	740.5	725.7	749.7	709.0	574.0	386.0	252.8	206.2	203.5	231.5	265.4	309.9	353.5	382.7	409.1	421.6	415.7	396.8	358.8	314.6	262.5	212.5	166.3	129.0	112.5	126.2	107.4	51.82	28.52	19.90	15.68	13.70	18.51	81.20	354.4	848.2	631.0	124.9	6.857	3.092	2.825	2.654	2.604	2.503	2.090	2.250	2.342	2.028	2.188	2.839	3.055	3.092	3.199	2.960	2.825	2.369	2.089	1.715	1.514	1.177	1.042	1.029	1.050	1.124	1.262	1.267	1.323	1.505	1.697	1.866	2.163	2.165	2.400	2.707	2.763
