Sample:	'1
File name:	Default_20230210_163639.FD3
Run date:	'16:30:18, 02/10/2023
Operator:	user
Comment:	'

Instrument
Model:	F-2700 FL Spectrophotometer
Serial number:	2190-003
ROM Version:	4J14000 07

Instrument parameters
Measurement type:	3-D scan
Data mode:	Fluorescence
EX  Start WL:	220.0 nm
EX  End WL:	600.0 nm
EX Sampling interval:	5.0 nm
EM  Start WL:	230.0 nm
EM  End WL:	650.0 nm
EM Sampling interval:	5.0 nm
Scan speed:	12000 nm/min
EX Slit:	5.0 nm
EM Slit:	5.0 nm
PMT Voltage:	700 V
Response:	Auto 
Corrected spectra:	Off
Contour interval:	50.000

Peak integration
Integration method:	Rectangular
Sensitivity:	1
Threshold:	1.000

Peaks
No.	ApexEX/EM(nm)	Height(Data)
1	225.0/305.0	216.5
2	230.0/500.0	-53.73
3	235.0/505.0	-46.01
4	240.0/260.0	191.7
5	240.0/520.0	0.382
6	245.0/265.0	197.3
7	245.0/360.0	 2941
8	245.0/530.0	-6.252
9	250.0/270.0	215.9
10	250.0/545.0	18.64
11	255.0/280.0	448.3
12	255.0/555.0	38.60
13	260.0/565.0	52.30
14	265.0/290.0	 1345
15	265.0/580.0	121.2
16	270.0/295.0	 1967
17	270.0/485.0	-5.067
18	270.0/585.0	134.8
19	275.0/300.0	 1873
20	275.0/515.0	-18.25
21	275.0/600.0	102.9
22	280.0/615.0	58.19
23	285.0/625.0	18.08
24	290.0/320.0	525.5
25	290.0/640.0	4.778
26	295.0/395.0	236.1
27	300.0/335.0	323.9
28	300.0/560.0	-9.046
29	305.0/340.0	365.9
30	310.0/345.0	331.6
31	315.0/245.0	-7.855
32	320.0/355.0	221.1
33	320.0/485.0	8.551
34	325.0/255.0	-7.217
35	325.0/365.0	207.1
36	325.0/525.0	-2.374
37	330.0/370.0	163.6
38	335.0/285.0	-5.716
39	335.0/315.0	-4.597
40	335.0/375.0	163.2
41	340.0/385.0	160.0
42	340.0/540.0	-2.248
43	340.0/580.0	-5.175
44	345.0/390.0	125.7
45	345.0/510.0	1.378
46	350.0/395.0	122.5
47	355.0/405.0	113.3
48	360.0/410.0	98.89
49	365.0/415.0	92.09
50	365.0/520.0	0.036
51	370.0/425.0	83.28
52	375.0/430.0	67.43
53	380.0/435.0	65.15
54	385.0/445.0	54.05
55	390.0/295.0	-2.594
56	390.0/450.0	45.16
57	395.0/455.0	41.00
58	400.0/465.0	31.99
59	405.0/470.0	26.06
60	410.0/475.0	22.20
61	415.0/485.0	19.18
62	420.0/490.0	15.74
63	425.0/495.0	13.89
64	430.0/505.0	12.14
65	435.0/510.0	8.747
66	440.0/515.0	8.422
67	445.0/525.0	7.745
68	450.0/530.0	5.480
69	455.0/535.0	4.562
70	460.0/545.0	3.307
71	465.0/550.0	2.231
72	470.0/560.0	1.592
73	475.0/565.0	0.663
74	485.0/585.0	-1.127
75	495.0/355.0	4.901
76	495.0/595.0	-1.557
77	505.0/275.0	-1.290
78	535.0/295.0	1.718
79	550.0/305.0	0.960
80	580.0/325.0	-0.993

Data points
	220.0	225.0	230.0	235.0	240.0	245.0	250.0	255.0	260.0	265.0	270.0	275.0	280.0	285.0	290.0	295.0	300.0	305.0	310.0	315.0	320.0	325.0	330.0	335.0	340.0	345.0	350.0	355.0	360.0	365.0	370.0	375.0	380.0	385.0	390.0	395.0	400.0	405.0	410.0	415.0	420.0	425.0	430.0	435.0	440.0	445.0	450.0	455.0	460.0	465.0	470.0	475.0	480.0	485.0	490.0	495.0	500.0	505.0	510.0	515.0	520.0	525.0	530.0	535.0	540.0	545.0	550.0	555.0	560.0	565.0	570.0	575.0	580.0	585.0	590.0	595.0	600.0
230.0	-234.1	-14.44	 1481	 1053	-35.59	-81.16	-71.94	-63.69	-54.26	-46.09	-42.32	-37.69	-32.45	-25.32	-21.45	-18.20	-13.00	-12.99	-12.09	-9.445	-8.985	-7.411	-7.448	-6.850	-6.430	-6.648	-5.582	-5.752	-5.538	-5.191	-5.563	-4.913	-4.640	-4.343	-3.848	-3.559	-3.366	-3.260	-3.693	-3.314	-3.344	-3.433	-3.056	-2.902	-2.971	-2.874	-2.306	-1.369	0.525	0.588	-1.531	-2.724	-2.443	-2.574	-2.609	-2.457	-2.720	-2.762	-2.618	-2.879	-2.738	-2.868	-2.721	-2.752	-2.729	-2.950	-3.063	-2.933	-2.957	-3.100	-3.137	-2.989	-3.066	-3.228	-3.101	-3.097	-3.214
235.0	-227.3	-135.8	432.1	 1655	 1029	-0.542	-70.06	-68.50	-59.93	-48.05	-35.51	-34.45	-33.00	-22.24	-22.04	-18.53	-13.95	-14.41	-9.569	-10.53	-8.521	-7.535	-7.509	-8.518	-6.024	-5.498	-5.665	-5.458	-5.668	-5.217	-4.981	-5.535	-4.544	-4.117	-4.363	-3.858	-3.438	-2.909	-3.270	-3.613	-3.652	-3.270	-3.144	-3.078	-2.653	-2.497	-2.364	-2.254	-1.658	0.156	0.445	-0.289	-1.541	-2.565	-2.463	-2.507	-2.729	-2.870	-2.937	-2.773	-2.464	-2.690	-2.863	-2.913	-2.820	-2.855	-2.951	-2.687	-2.835	-2.738	-3.241	-2.979	-2.983	-3.004	-3.289	-2.930	-3.329
240.0	-194.4	-128.3	-7.835	725.6	 1970	833.9	-45.23	-73.30	-50.07	-51.66	-40.68	-30.49	-29.59	-24.11	-23.05	-18.20	-14.94	-13.98	-10.69	-9.728	-8.319	-7.647	-7.884	-8.260	-6.062	-5.765	-5.647	-5.043	-5.753	-5.172	-4.837	-5.343	-4.861	-4.781	-4.666	-4.063	-3.460	-3.180	-3.125	-3.443	-3.345	-3.817	-3.062	-2.599	-2.889	-2.554	-2.498	-2.615	-2.283	-0.937	-0.782	0.484	0.794	-0.583	-1.922	-2.681	-2.872	-2.638	-2.764	-2.912	-2.965	-3.045	-2.804	-2.778	-3.016	-3.229	-2.960	-3.066	-2.522	-2.864	-3.232	-2.955	-3.035	-3.023	-3.211	-3.098	-3.414
245.0	-253.3	-133.4	-80.89	85.74	 1127	 2152	561.9	-51.66	-45.20	-43.15	-42.63	-34.00	-34.57	-25.57	-19.17	-17.35	-14.86	-14.49	-10.85	-7.855	-8.946	-8.014	-9.024	-6.934	-5.436	-5.775	-5.735	-5.947	-5.885	-5.322	-4.857	-5.583	-4.980	-4.518	-4.266	-4.342	-3.660	-3.708	-3.446	-2.781	-3.095	-3.326	-3.438	-3.006	-3.081	-2.918	-1.985	-2.258	-2.610	-1.826	-1.942	-1.621	-0.186	1.503	0.953	-0.627	-2.984	-3.045	-2.644	-2.699	-2.774	-2.876	-2.771	-2.962	-2.887	-2.997	-2.744	-3.082	-3.103	-2.949	-3.181	-3.066	-3.055	-3.322	-3.023	-3.316	-2.975
250.0	-263.1	-158.2	-10.74	-2.617	221.7	 1095	 1971	 1077	88.08	-46.00	-42.17	-37.17	-33.66	-24.80	-19.68	-16.08	-16.90	-12.81	-12.18	-8.446	-8.791	-8.375	-6.858	-6.729	-6.333	-5.619	-5.988	-5.694	-5.649	-5.485	-5.156	-5.036	-4.588	-4.476	-4.413	-3.974	-3.535	-3.681	-3.617	-2.942	-3.015	-3.522	-3.180	-2.886	-3.193	-2.884	-2.313	-2.680	-2.092	-1.751	-1.885	-2.309	-1.860	-1.265	-0.275	0.528	0.888	0.214	-1.431	-2.322	-2.908	-2.913	-2.803	-2.852	-3.103	-2.947	-2.921	-2.897	-3.047	-3.209	-3.384	-3.268	-3.136	-3.128	-3.106	-3.147	-3.263
255.0	-253.9	-197.6	-112.2	77.14	113.2	209.1	699.6	 2350	 1518	88.34	-39.47	-34.42	-35.12	-25.17	-20.69	-17.77	-14.27	-12.35	-11.70	-9.158	-8.319	-7.217	-8.445	-5.476	-5.805	-6.474	-6.237	-6.227	-5.923	-6.021	-5.021	-4.998	-4.464	-4.327	-4.682	-3.636	-3.982	-3.672	-3.966	-2.851	-3.157	-3.019	-3.094	-3.351	-2.939	-3.312	-2.735	-2.507	-2.236	-1.705	-1.749	-1.953	-2.275	-2.547	-2.011	-1.914	-0.978	0.507	2.945	2.662	-0.912	-2.960	-2.232	-2.743	-3.132	-2.753	-2.922	-3.035	-2.925	-3.198	-3.214	-2.792	-3.408	-2.917	-2.987	-3.025	-3.072
260.0	-245.2	-189.3	-154.7	-22.32	191.7	65.73	109.6	 1052	 2784	 1243	26.54	-40.02	-28.19	-26.27	-21.75	-16.92	-15.23	-14.10	-12.06	-8.991	-8.165	-7.783	-8.390	-7.134	-6.203	-6.614	-5.521	-5.512	-6.102	-5.241	-5.228	-4.481	-4.109	-4.370	-3.945	-3.364	-3.531	-3.804	-3.887	-3.350	-3.470	-3.269	-3.473	-3.141	-2.727	-3.142	-2.711	-2.324	-2.287	-1.631	-2.071	-1.754	-1.804	-2.473	-2.510	-2.526	-2.139	-1.703	-0.278	2.993	3.602	1.702	-1.594	-2.677	-2.705	-3.155	-2.786	-3.226	-2.748	-3.081	-2.996	-2.570	-2.906	-3.003	-3.097	-2.989	-3.344
265.0	-277.0	-195.2	-142.2	-95.18	144.2	197.3	17.07	230.4	 1475	 3089	923.9	-7.805	-22.38	-25.19	-21.35	-18.40	-14.68	-12.06	-10.88	-9.146	-8.578	-9.140	-8.007	-7.501	-5.859	-5.834	-5.655	-5.188	-4.965	-5.108	-5.272	-4.420	-4.196	-4.891	-3.870	-3.439	-3.431	-3.435	-3.893	-3.723	-3.065	-3.269	-3.178	-2.895	-3.051	-2.614	-2.052	-2.645	-2.171	-2.100	-2.355	-2.327	-1.612	-2.171	-2.002	-2.441	-2.470	-2.584	-2.243	-1.106	1.442	4.675	4.244	0.430	-2.332	-2.946	-2.895	-2.931	-2.840	-3.073	-3.241	-3.062	-3.064	-2.971	-2.838	-2.918	-2.950
270.0	-234.6	-201.5	-137.1	-101.2	-25.42	155.7	215.9	61.48	341.8	 1451	 2737	 1869	176.6	-21.24	-21.62	-16.88	-13.20	-11.62	-11.74	-9.993	-8.402	-7.635	-7.445	-7.515	-6.658	-6.067	-5.633	-5.708	-5.500	-5.269	-5.566	-4.931	-4.584	-4.793	-4.522	-4.066	-3.865	-3.607	-3.351	-3.543	-3.414	-3.280	-3.226	-3.142	-3.061	-2.729	-2.437	-2.753	-2.283	-1.942	-2.328	-2.325	-1.776	-2.303	-2.260	-1.744	-2.066	-2.541	-2.541	-2.369	-1.768	-0.604	1.388	2.709	4.100	2.460	-0.971	-2.907	-3.007	-3.366	-3.037	-2.811	-3.293	-2.897	-3.228	-3.135	-3.313
275.0	-206.0	-178.8	-150.1	-113.4	-68.03	-5.143	191.1	331.1	153.1	403.6	 1035	 3306	 2765	161.0	-21.70	-18.52	-13.00	-12.98	-11.82	-9.076	-9.291	-8.899	-6.245	-6.694	-7.346	-5.519	-5.229	-5.186	-5.554	-4.684	-5.505	-4.923	-4.176	-4.676	-4.388	-3.522	-4.049	-3.444	-3.594	-3.521	-3.723	-3.023	-2.779	-2.721	-2.944	-2.844	-2.139	-2.702	-2.363	-1.918	-2.043	-2.574	-2.264	-2.905	-2.682	-2.460	-1.843	-1.290	-2.424	-2.449	-2.138	-2.078	-1.801	-0.920	0.430	4.118	7.221	5.250	-0.919	-3.029	-2.961	-3.025	-3.047	-2.972	-3.078	-2.864	-3.330
280.0	-139.6	-108.5	-133.7	-108.6	-78.71	-36.39	69.47	448.3	431.8	355.1	618.1	 1639	 4088	842.6	51.61	-16.39	-11.42	-13.13	-11.93	-10.16	-8.048	-8.000	-6.197	-7.344	-6.357	-5.636	-5.287	-6.015	-4.733	-5.380	-4.623	-5.452	-3.526	-4.714	-3.308	-3.481	-3.759	-3.909	-3.839	-3.012	-3.354	-3.337	-3.294	-2.771	-2.466	-2.604	-2.321	-2.587	-1.983	-1.987	-1.794	-2.472	-2.546	-2.721	-2.654	-2.376	-2.240	-1.705	-1.618	-1.657	-1.796	-2.161	-2.013	-1.510	-1.052	-0.340	2.709	6.397	7.598	2.728	-1.735	-2.999	-3.234	-3.142	-3.274	-2.915	-3.071
285.0	-31.94	-15.85	-84.23	-102.7	-72.40	-35.53	40.02	305.1	788.0	717.3	813.5	995.4	 2225	 3842	607.6	6.690	-9.305	-10.88	-11.42	-9.781	-8.021	-6.311	-7.062	-5.716	-6.209	-6.964	-5.676	-5.228	-5.338	-5.388	-5.555	-5.020	-4.106	-3.471	-3.655	-3.306	-3.296	-3.535	-3.612	-3.041	-2.868	-3.196	-3.124	-2.723	-2.241	-2.407	-2.215	-2.740	-2.113	-1.991	-1.969	-2.486	-2.224	-2.563	-2.545	-2.500	-2.022	-2.293	-2.132	-0.931	-0.673	-1.055	-1.767	-1.165	-0.981	-1.500	-0.363	0.952	4.918	8.102	6.145	0.535	-2.891	-3.153	-3.508	-3.282	-3.046
290.0	71.84	78.26	-26.29	-86.34	-45.59	-1.843	79.60	298.0	729.0	 1345	 1336	 1171	 1111	 1770	 2895	 1703	128.7	-9.773	-10.46	-8.219	-8.919	-6.703	-6.703	-6.063	-6.419	-5.763	-5.766	-5.376	-5.829	-5.055	-5.175	-4.865	-3.143	-3.177	-3.235	-3.515	-3.078	-3.698	-3.284	-2.740	-2.851	-2.990	-3.184	-2.583	-2.429	-2.110	-2.162	-2.656	-1.928	-1.937	-2.271	-2.545	-2.464	-2.379	-2.162	-2.478	-2.277	-2.118	-2.060	-1.382	-0.406	0.222	0.000	0.041	-0.098	-0.699	-0.742	-0.722	-0.377	1.031	3.368	5.023	4.856	2.408	-0.694	-3.175	-2.889
295.0	130.7	153.0	2.546	-38.84	-33.82	14.82	110.7	304.9	679.3	 1291	 1967	 1557	932.9	563.4	920.5	 2913	 2415	147.9	-9.203	-8.709	-8.655	-6.882	-6.852	-6.879	-6.202	-5.443	-6.195	-5.993	-5.757	-4.759	-5.137	-4.358	-3.825	-3.502	-2.594	-2.864	-3.917	-3.296	-2.861	-2.939	-2.710	-2.794	-2.841	-2.830	-2.202	-2.356	-2.066	-2.092	-2.139	-1.996	-1.964	-2.369	-1.898	-2.442	-2.149	-2.441	-2.079	-1.972	-1.966	-1.191	-0.954	-0.064	0.433	1.718	1.429	0.536	-0.141	-1.311	-1.169	-1.554	-0.795	-0.810	0.535	4.890	9.177	4.617	-0.649
300.0	125.3	203.3	60.85	-29.88	-40.85	7.796	130.3	300.2	667.1	 1187	 1842	 1873	926.9	295.6	245.0	 1121	 3438	 1739	58.53	-8.465	-7.860	-6.796	-7.095	-7.065	-6.088	-6.231	-5.631	-4.950	-5.324	-5.274	-5.456	-3.979	-3.513	-3.561	-2.989	-3.243	-3.941	-3.312	-3.433	-2.865	-2.677	-2.521	-2.914	-3.046	-2.541	-2.268	-2.193	-2.195	-2.191	-1.799	-2.204	-2.088	-1.948	-2.501	-2.411	-2.394	-1.996	-2.059	-1.810	-1.352	-1.008	-0.313	0.191	1.510	1.190	1.318	0.626	-0.958	-1.890	-2.202	-2.095	-2.181	-2.275	-0.369	2.989	8.383	9.434
305.0	78.87	216.5	56.27	-31.64	-29.36	9.465	111.3	284.2	618.7	 1055	 1483	 1776	 1162	254.3	101.4	280.2	 1594	 3460	355.3	11.39	-7.292	-7.104	-6.616	-6.397	-6.446	-5.764	-5.359	-5.988	-5.867	-5.383	-5.095	-4.579	-3.601	-3.689	-3.306	-2.761	-3.500	-3.423	-2.838	-3.061	-2.939	-2.973	-2.983	-2.681	-2.570	-2.448	-2.347	-2.429	-1.951	-1.622	-1.584	-1.960	-2.059	-2.222	-1.997	-2.287	-2.266	-2.202	-1.413	-1.810	-0.747	-0.750	-0.208	0.087	0.351	0.737	0.960	0.038	-2.336	-2.271	-2.671	-2.877	-3.026	-2.524	-1.545	1.356	6.173
310.0	67.17	131.7	25.20	-35.44	-15.26	15.48	92.60	249.0	496.2	865.4	 1142	 1258	 1132	493.0	87.30	82.19	388.1	 1476	 2355	 1307	96.15	-5.079	-5.674	-5.640	-6.193	-5.366	-5.979	-5.424	-5.648	-5.497	-4.669	-3.956	-3.239	-3.465	-3.266	-2.910	-3.722	-3.502	-3.145	-3.367	-2.943	-3.034	-2.960	-2.557	-2.528	-2.485	-2.282	-2.254	-2.277	-1.920	-1.697	-2.312	-2.159	-2.300	-2.310	-2.412	-2.337	-2.174	-1.722	-1.643	-1.285	-0.929	-0.817	-0.483	-0.038	-0.024	-0.262	-0.405	-1.021	-1.915	-2.533	-2.860	-2.924	-2.796	-2.689	-2.325	-0.896
315.0	19.47	81.55	18.76	-11.33	9.134	16.67	102.1	221.5	390.4	668.5	866.5	871.7	692.3	595.3	311.8	64.64	101.1	340.4	737.1	 2551	 1934	122.6	-6.062	-4.597	-5.143	-6.162	-5.577	-5.656	-5.471	-5.894	-4.881	-3.894	-3.833	-3.576	-3.519	-3.055	-3.448	-3.788	-3.957	-3.311	-2.559	-2.908	-2.852	-3.142	-2.639	-2.872	-2.418	-2.328	-2.166	-1.961	-2.005	-2.455	-2.321	-2.004	-2.257	-2.185	-2.337	-2.272	-1.526	-1.354	-1.488	-1.547	-1.461	-0.795	-0.743	-1.391	-0.816	-1.219	-2.132	-1.542	-1.765	-2.250	-2.392	-2.795	-3.071	-2.849	-3.281
320.0	-6.393	144.8	121.6	55.05	59.47	93.01	138.3	221.4	341.3	566.2	707.1	685.3	503.7	382.3	525.5	183.2	53.99	94.97	179.3	 1004	 2995	 1467	58.20	-5.764	-5.344	-5.114	-4.635	-4.926	-4.408	-5.606	-4.482	-3.697	-4.100	-3.405	-3.426	-3.621	-3.589	-3.412	-3.646	-3.179	-2.523	-3.444	-3.263	-2.677	-2.622	-2.492	-2.307	-1.994	-2.333	-1.749	-1.681	-2.234	-2.007	-1.732	-2.162	-2.253	-2.204	-2.192	-1.674	-1.777	-1.729	-1.750	-1.747	-1.237	-1.157	-1.542	-1.345	-1.438	-2.299	-2.091	-2.162	-1.311	-1.715	-2.719	-2.831	-3.453	-3.323
325.0	36.93	239.0	281.5	190.4	178.5	189.2	237.8	277.2	352.6	531.0	595.0	560.7	406.7	237.1	435.2	390.2	89.51	47.82	55.04	249.6	 1382	 2968	981.2	14.82	-5.312	-5.589	-4.661	-5.470	-5.063	-4.985	-4.393	-4.776	-4.304	-3.225	-4.108	-3.671	-3.301	-2.941	-3.709	-2.757	-2.550	-2.839	-3.365	-2.516	-2.080	-2.328	-2.080	-1.275	-2.037	-0.863	-1.486	-1.905	-1.688	-2.047	-1.849	-1.875	-2.050	-2.145	-1.493	-1.675	-1.698	-1.835	-1.765	-1.660	-1.943	-1.746	-1.303	-1.561	-2.372	-2.226	-2.379	-2.119	-0.993	-1.553	-2.079	-3.006	-2.472
330.0	89.18	405.5	570.7	502.8	532.3	552.5	571.0	528.9	510.6	571.0	549.7	463.0	345.7	207.8	231.2	355.0	310.7	93.04	39.64	70.54	341.4	 1268	 2277	980.9	77.29	-4.345	-4.931	-5.026	-5.022	-4.976	-4.612	-4.537	-4.120	-3.728	-3.880	-3.587	-3.379	-3.448	-3.374	-3.082	-3.095	-3.418	-2.766	-2.634	-2.102	-2.289	-1.826	-1.371	-1.543	-1.003	-1.076	-1.343	-1.386	-1.147	-0.788	-1.356	-0.953	-0.746	-1.054	-1.732	-1.407	-1.541	-1.848	-1.534	-1.755	-2.160	-1.760	-1.846	-2.564	-2.278	-2.729	-2.549	-1.941	-2.018	-1.715	-2.149	-2.636
335.0	260.8	706.5	 1026	 1028	 1061	 1132	 1109	952.7	787.7	765.6	570.0	398.7	318.1	218.4	181.1	196.0	323.9	293.6	70.64	41.36	93.59	297.4	715.7	 2260	 1535	103.5	-4.305	-3.837	-4.650	-4.884	-3.772	-4.730	-4.452	-3.619	-4.077	-3.719	-3.423	-2.483	-3.063	-3.010	-3.358	-3.022	-2.767	-2.088	-2.277	-2.255	-1.335	-0.624	-0.007	-0.857	-0.631	-0.221	0.141	0.046	0.666	0.029	-0.182	-0.320	-0.417	-0.593	-0.797	-0.956	-1.143	-1.779	-1.560	-2.430	-1.994	-1.843	-2.624	-2.357	-2.306	-2.404	-2.637	-2.652	-2.409	-2.351	-2.240
340.0	347.9	887.9	 1325	 1365	 1495	 1662	 1553	 1353	 1057	928.5	618.4	393.6	286.5	224.3	176.5	147.5	195.0	365.9	193.9	47.61	44.11	79.41	171.1	912.5	 2728	 1251	54.52	-2.995	-4.717	-3.719	-3.980	-4.133	-4.519	-4.127	-4.264	-3.789	-3.317	-3.293	-2.915	-3.290	-2.768	-3.389	-2.141	-2.266	-1.991	-1.309	-0.320	-0.107	0.189	-0.172	0.166	0.639	0.937	1.404	1.297	1.474	1.265	0.675	0.723	0.146	-0.564	-0.661	-0.621	-1.659	-1.350	-2.244	-2.119	-2.519	-2.668	-2.291	-2.329	-2.361	-2.889	-2.735	-2.766	-2.690	-3.084
345.0	454.2	 1068	 1666	 1748	 1907	 2070	 1976	 1653	 1298	 1061	663.6	396.2	279.0	204.5	173.8	144.4	133.7	242.0	331.6	102.3	32.82	30.16	46.54	219.3	 1334	 2797	897.7	14.73	-3.965	-4.099	-3.600	-3.848	-4.012	-4.331	-3.660	-3.662	-3.715	-2.853	-3.428	-3.287	-3.211	-2.836	-2.222	-2.346	-1.661	-1.260	-0.456	0.331	0.560	0.388	0.545	1.405	1.745	2.317	2.547	2.419	2.439	1.784	0.909	0.653	-0.012	-0.178	-0.621	-1.138	-1.458	-2.196	-2.167	-2.677	-2.612	-2.641	-2.341	-2.229	-3.005	-2.508	-2.706	-2.441	-2.779
350.0	540.9	 1259	 1866	 2143	 2370	 2514	 2389	 2028	 1532	 1248	711.8	348.4	250.5	203.5	178.2	156.8	125.5	141.3	238.7	236.2	87.90	24.77	19.50	55.42	321.1	 1245	 2177	804.7	65.11	-2.989	-3.723	-4.443	-4.133	-3.233	-3.222	-3.194	-3.284	-3.210	-3.337	-2.834	-2.783	-2.383	-2.605	-1.717	-1.492	-1.145	-0.458	0.649	0.577	0.951	1.602	2.356	2.884	3.219	3.418	3.768	3.509	2.475	1.341	1.011	0.525	-0.018	-0.158	-1.098	-1.623	-2.246	-2.367	-2.456	-2.472	-2.654	-2.372	-2.644	-2.473	-2.915	-2.846	-2.636	-2.662
355.0	679.1	 1328	 1989	 2366	 2656	 2849	 2699	 2228	 1701	 1351	759.3	340.3	231.3	210.0	184.9	157.5	127.5	117.7	132.3	195.8	221.1	59.93	14.87	21.19	78.79	283.1	715.4	 2171	 1290	84.15	-3.218	-3.640	-3.869	-3.894	-3.041	-3.544	-3.662	-3.140	-3.025	-3.046	-2.922	-2.438	-2.475	-1.688	-1.551	-0.724	-0.628	1.185	0.976	1.026	1.845	2.732	3.497	3.860	4.079	4.901	3.713	3.168	2.512	1.018	0.938	0.423	-0.519	-1.195	-1.689	-1.897	-2.338	-2.569	-2.447	-2.521	-1.954	-2.347	-2.561	-2.355	-2.612	-2.731	-2.919
360.0	710.1	 1399	 2060	 2491	 2737	 2941	 2836	 2320	 1760	 1379	745.5	323.5	219.3	187.6	189.3	159.9	134.6	116.4	107.3	116.3	219.0	150.7	28.42	14.17	25.42	68.73	166.7	933.2	 2602	 1062	39.58	-2.904	-3.402	-3.978	-3.071	-3.001	-3.251	-3.259	-3.308	-2.689	-2.824	-2.684	-2.309	-1.744	-1.301	-0.527	-0.118	1.041	1.385	1.236	1.594	3.944	3.581	4.764	4.586	4.812	4.674	3.315	2.937	1.739	0.870	1.167	-0.264	-1.418	-1.538	-1.984	-2.223	-2.363	-2.509	-2.081	-2.451	-2.502	-2.629	-2.494	-2.488	-2.601	-2.813
365.0	660.4	 1381	 2084	 2437	 2810	 2899	 2865	 2324	 1757	 1362	713.3	298.7	205.8	181.6	191.5	165.1	139.1	121.1	105.6	84.73	130.5	207.1	78.46	17.21	13.65	22.29	42.81	223.8	 1372	 2638	767.8	9.018	-3.588	-3.888	-2.733	-3.194	-3.752	-3.044	-3.150	-2.710	-2.611	-2.565	-2.230	-1.695	-1.263	-0.668	-0.069	0.977	0.697	1.485	1.968	3.072	4.144	4.567	4.308	4.250	4.484	3.809	2.366	1.778	1.301	1.285	-0.090	-0.365	-1.626	-2.157	-2.117	-1.940	-2.552	-2.533	-2.607	-2.668	-2.568	-2.701	-2.449	-2.943	-2.863
370.0	620.8	 1336	 2010	 2313	 2718	 2836	 2741	 2241	 1658	 1319	675.6	283.8	194.8	183.2	185.2	175.0	157.1	132.3	110.3	80.45	71.84	128.0	163.6	68.80	17.60	13.45	15.92	53.75	333.0	 1253	 2159	687.0	49.69	-2.778	-2.913	-3.045	-3.416	-3.135	-2.313	-2.942	-2.756	-3.007	-2.353	-1.903	-1.394	-0.641	-0.003	0.490	0.916	1.942	2.037	2.788	3.560	4.235	3.849	4.045	4.181	3.334	1.764	1.289	0.948	0.277	-0.467	-1.118	-1.776	-2.136	-2.080	-2.406	-2.238	-2.432	-2.647	-2.583	-2.681	-2.382	-2.486	-2.716	-2.781
375.0	618.9	 1161	 1836	 2114	 2445	 2633	 2533	 2029	 1517	 1187	632.7	261.6	204.2	187.1	198.8	190.5	176.0	149.4	123.8	81.73	60.17	62.18	113.5	163.2	59.74	14.23	13.13	17.91	79.24	283.2	766.7	 2217	 1065	61.47	-2.376	-2.735	-3.384	-2.281	-2.804	-2.909	-2.514	-3.187	-2.548	-2.327	-1.560	-1.238	0.056	0.498	0.555	1.339	1.855	2.707	2.737	3.443	3.582	3.857	2.686	2.318	1.910	0.825	0.839	0.178	-0.480	-1.470	-2.009	-2.221	-2.409	-2.354	-2.223	-2.267	-2.402	-2.455	-2.477	-2.338	-2.343	-2.762	-2.906
380.0	541.5	 1124	 1732	 2056	 2262	 2384	 2345	 1864	 1404	 1085	570.9	247.8	203.1	197.3	208.2	202.0	181.3	163.0	127.6	85.27	59.90	43.34	59.05	145.9	129.2	31.23	11.63	10.83	21.76	66.38	179.1	 1023	 2449	834.8	22.97	-2.273	-2.855	-2.381	-2.747	-2.969	-2.781	-3.099	-2.561	-2.202	-1.869	-1.380	-0.371	0.227	0.217	1.132	1.776	1.852	2.566	2.438	3.733	3.563	1.997	1.775	1.458	0.674	0.364	-0.434	-0.692	-1.359	-1.456	-2.193	-2.726	-2.614	-2.454	-2.001	-2.312	-2.338	-2.270	-2.196	-2.167	-2.571	-2.789
385.0	522.4	952.7	 1521	 1802	 2069	 2126	 2085	 1649	 1288	990.5	511.0	232.6	184.6	203.5	211.0	219.7	197.4	167.6	135.7	92.52	59.84	40.97	37.22	79.62	160.0	77.16	17.31	8.505	11.16	18.34	43.11	251.1	 1406	 2320	128.9	3.502	-2.414	-2.116	-2.961	-2.655	-3.000	-2.818	-2.993	-2.099	-1.533	-0.730	-0.625	-0.695	0.276	0.808	1.163	1.292	2.227	2.396	2.397	2.610	2.003	1.727	1.516	0.761	0.568	-0.537	-1.145	-1.788	-1.119	-2.418	-2.728	-2.640	-2.102	-2.016	-2.588	-2.629	-2.167	-1.804	-2.054	-2.552	-2.704
