Sample:	'1
File name:	t2025060606杏花河入小清河.FD3
Run date:	'14:57:42, 06/09/2025
Operator:	Administrator
Comment:	'

Instrument
Model:	F-2700 FL Spectrophotometer
Serial number:	23B8-004
ROM Version:	4J14000 07

Instrument parameters
Measurement type:	3-D scan
Data mode:	Fluorescence
EX  Start WL:	220.0 nm
EX  End WL:	600.0 nm
EX Sampling interval:	5.0 nm
EM  Start WL:	230.0 nm
EM  End WL:	650.0 nm
EM Sampling interval:	5.0 nm
Scan speed:	12000 nm/min
EX Slit:	5.0 nm
EM Slit:	5.0 nm
PMT Voltage:	700 V
Response:	Auto 
Corrected spectra:	Off
Contour interval:	50.000

Peak integration
Integration method:	Rectangular
Sensitivity:	1
Threshold:	1.000

Peaks
No.	ApexEX/EM(nm)	Height(Data)
1	225.0/555.0	59.28
2	225.0/570.0	57.54
3	225.0/590.0	47.58
4	225.0/630.0	36.26
5	230.0/345.0	1334
6	230.0/500.0	297.2
7	230.0/585.0	50.43
8	230.0/605.0	41.38
9	230.0/620.0	40.57
10	235.0/510.0	269.5
11	240.0/265.0	334.6
12	240.0/525.0	233.7
13	245.0/270.0	333.2
14	245.0/535.0	199.0
15	250.0/275.0	399.9
16	250.0/545.0	152.7
17	255.0/280.0	527.6
18	255.0/560.0	131.6
19	260.0/285.0	550.7
20	260.0/570.0	107.0
21	265.0/290.0	583.8
22	265.0/585.0	96.51
23	270.0/300.0	902.6
24	270.0/595.0	85.93
25	275.0/305.0	1192
26	275.0/610.0	86.35
27	280.0/310.0	1134
28	280.0/340.0	962.9
29	280.0/625.0	77.51
30	285.0/315.0	1081
31	285.0/635.0	60.45
32	290.0/325.0	1027
33	330.0/375.0	402.3
34	335.0/380.0	386.7
35	430.0/505.0	30.49
36	445.0/525.0	17.70
37	475.0/355.0	4.143
38	495.0/270.0	2.132
39	505.0/275.0	2.959
40	520.0/285.0	3.693
41	530.0/290.0	3.509
42	540.0/295.0	4.607
43	545.0/300.0	5.610
44	550.0/305.0	6.033
45	560.0/310.0	6.119
46	570.0/315.0	6.521
47	575.0/320.0	6.260
48	585.0/325.0	6.435

Data points
	220.0	225.0	230.0	235.0	240.0	245.0	250.0	255.0	260.0	265.0	270.0	275.0	280.0	285.0	290.0	295.0	300.0	305.0	310.0	315.0	320.0	325.0	330.0	335.0	340.0	345.0	350.0	355.0	360.0	365.0	370.0	375.0	380.0	385.0	390.0	395.0	400.0	405.0	410.0	415.0	420.0	425.0	430.0	435.0	440.0	445.0	450.0	455.0	460.0	465.0	470.0	475.0	480.0	485.0	490.0	495.0	500.0	505.0	510.0	515.0	520.0	525.0	530.0	535.0	540.0	545.0	550.0	555.0	560.0	565.0	570.0	575.0	580.0	585.0	590.0	595.0	600.0
230.0	38.43	454.2	1662	680.0	39.75	5.162	4.371	3.636	3.030	2.534	2.750	2.300	2.255	1.977	1.540	1.391	1.245	1.073	0.961	1.016	0.845	0.764	0.654	0.701	0.591	0.635	0.554	0.537	0.536	0.462	0.486	0.440	0.409	0.372	0.355	0.341	0.348	0.339	0.321	0.306	0.315	0.397	0.412	0.336	0.270	0.270	0.516	2.693	5.710	4.870	1.988	0.477	0.209	0.178	0.164	0.178	0.211	0.169	0.247	0.200	0.183	0.181	0.201	0.183	0.189	0.200	0.185	0.175	0.197	0.218	0.195	0.190	0.184	0.169	0.208	0.197	0.196
235.0	92.60	141.2	885.5	1962	571.3	68.17	6.016	3.852	4.122	3.234	2.991	2.683	2.418	2.086	1.484	1.306	1.339	1.117	0.876	0.799	0.895	0.638	0.689	0.790	0.682	0.687	0.575	0.698	0.518	0.449	0.488	0.464	0.363	0.343	0.344	0.320	0.317	0.397	0.290	0.316	0.299	0.262	0.320	0.419	0.493	0.305	0.297	0.788	1.984	3.960	6.409	7.388	4.145	0.908	0.237	0.186	0.209	0.227	0.215	0.166	0.215	0.180	0.224	0.197	0.245	0.165	0.192	0.192	0.233	0.224	0.158	0.243	0.203	0.203	0.202	0.196	0.164
240.0	132.0	122.4	253.7	1409	2313	456.4	35.39	5.555	3.779	3.895	3.024	2.473	2.598	1.855	1.819	1.329	1.492	1.099	0.926	0.932	0.751	0.643	0.675	0.729	0.745	0.662	0.634	0.673	0.514	0.473	0.545	0.389	0.385	0.350	0.347	0.323	0.399	0.375	0.280	0.357	0.294	0.307	0.295	0.355	0.545	0.537	0.462	0.439	0.650	1.193	3.058	7.986	11.30	8.442	3.611	0.601	0.227	0.169	0.264	0.197	0.181	0.214	0.196	0.206	0.210	0.228	0.228	0.225	0.187	0.231	0.166	0.221	0.177	0.177	0.175	0.211	0.181
245.0	91.70	184.3	129.8	443.5	2055	2600	352.6	18.09	4.649	4.645	3.152	2.810	2.693	2.172	2.130	1.569	1.237	1.272	0.938	0.976	0.889	0.818	0.606	0.749	0.730	0.577	0.575	0.619	0.449	0.598	0.410	0.534	0.411	0.381	0.321	0.287	0.434	0.254	0.265	0.365	0.347	0.343	0.401	0.263	0.369	0.495	0.765	0.719	0.518	0.481	0.884	2.495	6.561	12.93	14.43	8.797	2.607	0.410	0.286	0.227	0.188	0.184	0.175	0.176	0.214	0.210	0.211	0.222	0.201	0.215	0.164	0.233	0.180	0.182	0.197	0.256	0.224
250.0	39.88	120.4	218.1	207.9	616.1	1994	2950	1233	87.20	6.704	4.351	3.778	2.937	2.820	2.259	1.578	1.569	1.383	1.212	1.037	0.978	0.871	0.744	0.769	0.769	0.614	0.606	0.581	0.535	0.498	0.541	0.489	0.431	0.405	0.333	0.372	0.366	0.371	0.273	0.351	0.366	0.356	0.349	0.262	0.294	0.335	0.457	0.710	0.861	0.760	0.624	0.856	1.731	3.832	7.450	11.74	16.02	15.25	9.194	2.975	0.492	0.215	0.201	0.239	0.240	0.209	0.243	0.199	0.234	0.228	0.201	0.234	0.172	0.215	0.191	0.234	0.206
255.0	28.19	41.37	129.3	305.3	256.4	488.7	1754	4472	1792	105.0	6.299	5.975	3.964	3.157	2.396	2.069	1.648	1.350	1.203	1.133	0.831	0.809	0.887	0.756	0.645	0.679	0.676	0.597	0.539	0.436	0.546	0.512	0.383	0.394	0.451	0.290	0.364	0.335	0.329	0.309	0.335	0.409	0.342	0.297	0.348	0.296	0.286	0.384	0.438	0.699	1.155	1.444	1.026	1.049	1.920	2.942	5.286	12.29	23.62	26.91	15.38	3.545	0.342	0.228	0.221	0.225	0.234	0.222	0.189	0.209	0.273	0.203	0.185	0.194	0.221	0.264	0.221
260.0	26.12	28.02	49.42	230.3	325.7	180.0	493.7	2913	5386	1428	55.45	7.499	4.635	3.480	2.885	2.136	1.774	1.640	1.322	1.132	0.979	0.957	0.798	0.866	0.739	0.767	0.704	0.709	0.843	0.562	0.553	0.562	0.484	0.344	0.474	0.346	0.380	0.340	0.346	0.393	0.337	0.369	0.377	0.396	0.279	0.325	0.304	0.315	0.308	0.378	0.626	1.492	1.752	1.179	0.745	0.949	1.462	3.317	8.777	21.66	33.82	26.50	12.24	2.115	0.321	0.262	0.241	0.199	0.230	0.186	0.220	0.200	0.185	0.222	0.225	0.216	0.210
265.0	29.39	22.74	27.34	96.07	334.6	273.3	151.7	869.0	4358	6076	232.4	21.33	6.519	4.793	3.538	2.410	2.026	1.965	1.566	1.375	1.056	1.033	0.865	0.790	0.783	0.655	0.722	0.695	0.708	0.615	0.501	0.568	0.469	0.399	0.463	0.370	0.374	0.331	0.357	0.361	0.325	0.311	0.359	0.352	0.294	0.350	0.300	0.281	0.269	0.244	0.310	0.685	1.372	1.943	1.693	0.743	0.593	1.055	2.319	6.168	15.65	30.02	41.12	24.06	8.121	0.873	0.232	0.240	0.243	0.249	0.235	0.229	0.258	0.210	0.215	0.210	0.221
270.0	42.08	44.20	38.04	45.60	139.6	333.2	295.0	255.5	1244	4285	6224	2493	64.49	6.898	5.344	3.239	2.532	2.216	1.660	1.565	1.313	1.225	1.019	0.879	0.824	0.720	0.782	0.691	0.750	0.620	0.580	0.511	0.491	0.499	0.488	0.444	0.415	0.402	0.385	0.415	0.372	0.308	0.344	0.375	0.374	0.369	0.346	0.380	0.311	0.276	0.236	0.376	0.538	0.970	1.606	2.132	1.890	1.144	0.889	1.635	3.835	8.296	17.14	27.73	30.24	33.52	16.76	7.165	1.037	0.275	0.306	0.238	0.252	0.237	0.266	0.254	0.246
275.0	95.00	105.1	94.83	60.69	58.32	134.9	399.9	348.5	334.7	1034	3154	8882	1276	71.52	7.429	5.055	3.334	2.820	2.019	1.665	1.602	1.262	1.251	0.977	0.907	0.815	0.724	0.835	0.829	0.600	0.569	0.511	0.615	0.544	0.518	0.487	0.466	0.466	0.397	0.412	0.436	0.338	0.380	0.375	0.468	0.517	0.453	0.509	0.414	0.448	0.321	0.342	0.395	0.471	0.620	0.965	1.837	2.959	2.364	1.137	1.256	2.198	4.181	6.609	8.552	18.90	41.76	56.33	26.65	8.702	0.740	0.309	0.258	0.253	0.287	0.248	0.265
280.0	150.5	170.3	153.2	100.2	53.57	66.01	218.5	527.6	286.3	300.0	862.3	5069	9079	974.4	33.97	6.719	4.488	3.451	2.603	1.808	1.627	1.360	1.240	1.143	1.102	0.931	0.788	0.888	0.709	0.696	0.702	0.662	0.738	0.643	0.581	0.683	0.647	0.623	0.444	0.487	0.508	0.435	0.491	0.471	0.565	0.614	0.684	0.755	0.745	0.502	0.484	0.381	0.375	0.395	0.382	0.443	0.857	1.761	2.835	3.005	1.660	1.016	1.392	1.933	2.452	4.897	12.95	32.83	54.46	34.41	21.79	4.340	0.484	0.280	0.297	0.286	0.246
285.0	207.7	236.4	220.9	145.6	69.33	54.12	97.27	388.1	550.7	227.4	290.8	1443	6816	7977	641.1	14.22	5.811	4.280	3.261	2.535	1.796	1.391	1.721	1.235	1.127	1.170	0.958	0.836	0.789	0.709	0.679	0.634	0.714	0.770	0.684	0.787	0.678	0.710	0.537	0.548	0.458	0.462	0.566	0.598	0.582	0.755	0.829	0.891	0.874	0.707	0.578	0.548	0.438	0.467	0.407	0.431	0.512	0.767	1.456	3.033	3.693	2.497	1.231	1.006	1.301	1.811	3.512	8.510	19.49	38.46	61.05	31.94	15.51	1.890	0.373	0.366	0.333
290.0	272.1	336.8	322.2	204.0	107.5	73.25	90.47	188.8	468.2	583.8	318.7	480.5	1897	5470	6884	2089	35.41	6.008	3.882	3.157	2.368	1.659	1.786	1.423	1.196	1.197	0.931	0.937	0.793	0.836	0.777	0.708	0.724	0.794	0.709	0.742	0.726	0.763	0.666	0.591	0.564	0.564	0.619	0.710	0.769	0.829	0.908	1.071	1.043	1.006	0.691	0.706	0.574	0.498	0.465	0.545	0.569	0.636	0.889	1.374	2.099	3.103	3.509	2.844	1.912	1.353	1.623	2.706	5.277	10.03	20.66	30.51	43.52	40.13	32.28	11.21	2.300
295.0	319.9	412.7	393.2	259.6	148.1	118.9	130.1	169.9	272.7	566.8	763.2	413.5	636.3	1392	3333	8474	713.3	37.12	5.999	3.920	3.070	2.230	1.740	1.684	1.330	1.391	1.010	1.013	0.935	0.828	0.859	0.713	0.752	0.772	0.791	0.917	0.839	0.754	0.757	0.654	0.632	0.678	0.691	0.680	0.813	0.987	1.192	1.157	1.223	1.273	0.845	0.899	0.851	0.632	0.624	0.651	0.762	0.839	1.017	1.026	1.412	1.635	2.308	3.770	4.607	3.751	2.042	1.952	2.515	3.379	5.596	7.806	11.18	16.58	38.64	60.63	33.43
300.0	353.3	438.7	448.5	305.8	198.6	162.2	188.3	225.6	291.4	451.0	902.6	763.3	475.2	541.1	969.5	4929	5906	561.9	19.05	5.159	3.646	2.474	2.053	2.038	1.528	1.321	1.240	1.076	0.910	0.911	0.948	0.959	0.799	0.814	0.814	0.988	0.892	0.833	0.771	0.766	0.742	0.677	0.726	0.770	0.912	1.108	1.228	1.379	1.214	1.283	1.126	1.074	0.946	0.908	0.817	0.931	1.071	1.094	1.208	1.117	1.486	1.590	1.846	2.777	4.010	5.610	4.571	2.987	2.488	2.401	2.825	2.944	3.713	4.703	10.98	26.86	49.97
305.0	370.9	482.3	500.8	362.5	251.4	236.8	262.5	322.1	396.8	513.3	801.5	1192	725.6	492.5	480.2	1454	5839	5113	78.71	9.139	4.562	3.139	2.265	2.244	1.663	1.436	1.240	1.204	1.176	0.976	0.874	1.013	0.925	0.775	0.889	0.986	0.858	0.808	0.835	0.786	0.756	0.793	0.830	0.805	0.990	1.118	1.423	1.397	1.533	1.470	1.235	1.312	1.094	1.097	1.144	1.165	1.386	1.667	1.689	1.759	2.086	2.125	2.352	3.039	3.424	4.522	6.033	5.813	4.418	3.150	2.733	2.510	2.564	2.590	3.833	7.140	15.79
310.0	377.2	532.5	552.1	402.8	305.5	292.5	330.8	407.4	482.3	595.6	753.9	1050	1134	708.1	458.1	550.4	1724	4600	5230	1434	23.36	4.689	3.185	2.670	2.004	1.693	1.490	1.383	1.258	1.194	0.954	0.882	0.845	0.931	0.874	1.002	0.896	0.866	0.825	0.869	0.812	0.775	0.867	0.855	1.026	1.218	1.333	1.555	1.702	1.575	1.370	1.446	1.349	1.289	1.373	1.391	1.693	1.817	2.093	2.027	2.394	2.452	2.740	3.189	3.493	3.718	4.431	5.362	6.119	5.995	4.641	3.521	2.796	2.719	2.609	3.104	4.757
315.0	398.3	556.1	602.5	473.2	363.7	346.6	392.7	469.2	536.4	649.2	775.9	908.1	1039	1081	610.1	406.9	603.0	1191	3046	6798	507.5	21.94	4.567	3.437	2.469	2.192	1.735	1.392	1.212	1.307	0.993	0.935	0.925	0.872	0.836	0.850	0.869	0.848	0.838	0.763	0.783	0.851	0.954	0.906	1.123	1.225	1.282	1.911	1.751	1.728	1.367	1.642	1.485	1.401	1.682	1.586	1.859	1.940	2.249	2.370	2.721	2.749	2.948	3.333	3.485	3.760	4.237	4.316	4.947	5.304	6.521	6.108	4.359	3.286	2.593	2.403	2.748
320.0	427.8	629.9	679.4	544.3	422.1	390.4	429.9	506.4	577.9	688.0	810.3	920.9	953.8	1078	896.0	462.3	405.5	440.4	849.3	4485	4255	399.5	9.890	4.184	3.093	2.534	1.957	1.539	1.322	1.436	1.082	1.057	1.104	0.977	0.876	0.856	1.130	0.912	0.882	0.897	0.874	0.886	0.954	0.985	1.142	1.497	1.362	1.933	2.089	1.807	1.589	1.903	1.702	1.606	1.776	1.835	1.995	2.139	2.297	2.726	2.656	2.857	3.040	3.671	3.859	4.187	4.496	4.369	4.775	4.733	5.088	6.260	6.229	5.282	3.365	2.690	2.597
325.0	477.4	731.5	841.3	660.1	493.9	433.1	459.9	524.5	598.9	710.4	830.0	932.4	948.0	934.0	1027	631.2	400.1	305.1	300.4	1301	4959	3756	57.75	6.538	4.061	3.019	2.306	1.816	1.517	1.317	1.280	1.148	1.001	0.973	0.907	0.846	0.947	0.923	0.767	0.930	0.873	0.966	0.834	1.090	1.177	1.566	1.839	2.184	2.297	2.259	2.001	2.198	1.953	1.823	1.850	1.974	2.209	2.337	2.468	2.744	3.040	3.230	3.334	3.741	3.856	4.028	4.367	4.725	4.574	4.545	4.750	4.939	5.606	6.435	5.136	3.840	2.788
330.0	557.2	858.3	1056	912.7	643.8	513.2	490.5	540.5	609.9	713.4	830.6	942.4	948.9	890.9	884.9	811.3	552.7	320.8	213.5	391.8	1449	3815	4154	1072	17.49	3.839	2.830	2.370	1.728	1.614	1.326	1.124	1.199	0.929	0.957	0.964	0.989	0.939	0.920	0.895	0.897	0.900	0.995	1.101	1.386	1.792	2.171	2.818	2.897	3.026	2.655	2.698	2.610	2.312	2.189	2.069	2.442	2.435	2.529	2.692	2.874	3.047	3.302	3.562	3.929	4.064	4.302	4.664	4.607	4.515	4.621	4.857	4.842	4.976	5.136	5.210	4.517
335.0	596.4	981.6	1241	1116	833.3	612.8	538.1	563.6	613.7	712.4	831.1	945.5	962.3	911.8	830.8	739.0	764.7	468.1	252.3	232.5	409.7	934.4	2835	5580	412.0	17.14	3.686	2.850	2.125	1.740	1.494	1.142	1.385	1.086	0.972	0.973	1.105	0.901	0.977	0.951	0.788	0.864	1.157	1.193	1.501	2.081	2.488	3.062	3.390	3.441	3.340	3.339	3.198	2.842	2.499	2.400	2.579	2.609	2.461	2.772	2.712	3.213	3.298	3.618	3.861	4.011	4.398	4.394	4.751	4.690	4.851	4.693	4.770	4.594	4.361	4.427	4.723
340.0	615.1	1014	1302	1221	906.2	678.4	569.9	576.6	625.5	709.7	824.3	925.0	962.9	909.5	824.4	696.0	716.6	637.2	318.0	220.8	199.0	276.0	776.4	4032	3481	333.3	8.063	3.290	2.721	2.124	1.576	1.431	1.331	1.065	1.098	1.026	0.904	1.081	0.810	0.926	0.867	0.964	0.872	1.111	1.475	1.992	2.472	2.993	3.802	3.777	3.512	3.706	3.423	3.165	2.860	2.544	2.618	2.560	2.669	2.954	2.815	3.201	3.372	3.546	3.989	4.024	4.301	4.405	4.599	4.992	4.824	4.439	4.854	4.520	4.374	4.280	4.174
345.0	608.8	1014	1334	1269	966.3	708.3	587.8	582.3	622.8	704.0	805.8	896.2	933.1	897.7	810.2	680.6	619.3	647.4	443.5	244.1	171.4	147.2	232.0	1196	4427	3113	49.81	5.464	3.325	2.414	1.930	1.579	1.322	1.132	1.152	0.990	0.978	0.996	0.860	0.870	0.886	0.847	1.025	1.126	1.527	1.942	2.438	3.115	3.908	3.683	3.701	4.029	3.737	3.364	2.877	2.727	2.755	2.661	2.715	2.872	2.925	2.784	3.089	3.490	3.707	3.880	3.924	4.342	4.438	4.660	4.678	4.374	4.893	4.575	4.249	4.418	4.002
350.0	589.5	972.3	1291	1281	1007	754.7	611.6	591.5	625.7	692.9	778.0	851.2	888.2	867.5	795.3	680.1	594.9	547.0	522.5	377.5	209.3	151.2	136.2	324.5	1321	3301	3444	887.3	15.26	3.415	2.294	1.879	1.509	1.223	1.201	1.071	1.034	0.901	0.886	0.850	0.798	0.932	1.012	1.207	1.361	1.966	2.298	3.087	3.579	3.600	3.520	4.068	3.901	3.539	3.175	2.842	2.890	2.785	2.767	2.883	2.955	2.956	3.128	3.413	3.665	3.956	3.851	4.179	4.133	4.354	4.514	4.353	4.625	4.486	4.264	4.250	3.710
355.0	569.6	885.0	1203	1208	1014	800.8	664.7	631.8	654.5	690.4	760.3	833.9	850.4	839.3	787.0	687.5	605.6	524.9	465.8	490.0	328.8	191.2	147.1	154.9	349.5	802.2	2399	4516	374.7	15.78	3.346	2.384	1.740	1.326	1.309	1.070	1.061	0.985	0.905	0.911	0.933	0.923	0.955	1.152	1.317	1.723	2.111	2.926	3.187	3.425	3.372	4.143	3.969	3.498	3.405	3.003	3.136	2.862	2.933	3.037	3.231	3.171	3.203	3.499	3.680	3.884	3.887	4.290	3.986	4.227	4.359	4.384	4.236	4.255	4.216	4.356	3.923
360.0	516.5	833.4	1130	1196	1005	828.8	702.0	664.4	666.0	713.8	762.3	816.1	829.3	814.9	769.1	685.3	614.2	531.6	455.8	457.3	434.0	263.3	176.1	139.5	149.9	226.8	655.7	3334	3182	313.0	7.446	2.868	2.136	1.542	1.256	1.360	1.019	0.928	0.961	0.949	0.855	0.965	1.013	1.072	1.362	1.864	1.932	2.737	3.102	3.286	3.328	4.112	3.921	3.504	3.541	2.908	3.147	3.125	3.012	3.016	3.330	3.204	3.206	3.401	3.674	3.714	3.806	4.192	3.974	4.317	4.565	4.366	4.165	4.273	4.173	4.249	4.088
365.0	497.3	815.0	1095	1172	1007	845.6	738.3	685.4	681.4	726.5	775.4	789.9	818.0	800.0	751.9	681.4	621.0	546.3	466.5	423.2	443.8	371.9	218.1	159.2	124.4	114.8	190.6	998.0	3837	2915	47.01	4.845	2.800	1.963	1.562	1.354	1.083	0.921	0.979	0.964	0.822	0.833	0.933	1.106	1.303	1.771	1.730	2.607	3.004	3.266	3.280	3.953	3.871	3.523	3.442	3.031	3.074	3.065	3.126	2.848	3.514	3.255	3.341	3.484	3.618	3.735	3.743	4.097	3.783	4.116	4.054	4.282	4.279	4.235	4.363	4.254	3.981
370.0	498.2	770.8	1019	1087	999.2	864.4	759.8	706.6	707.9	743.5	770.9	777.7	792.3	773.0	737.9	679.2	625.3	563.8	499.5	438.4	406.9	416.3	335.6	213.8	151.6	116.0	108.5	269.8	1145	3017	3198	837.9	14.13	2.839	1.950	1.418	1.299	1.108	1.048	0.949	0.922	0.936	1.054	1.086	1.271	1.551	1.863	2.461	2.815	2.949	2.993	3.778	3.813	3.742	3.384	3.213	3.397	3.122	3.232	3.043	3.269	3.537	3.556	3.591	3.658	3.622	3.739	3.650	3.814	3.971	3.993	4.121	4.092	4.090	4.238	4.198	4.211
375.0	463.7	718.6	943.8	1004	973.9	861.0	777.4	721.0	720.6	745.7	759.6	769.4	761.6	756.8	711.0	666.1	626.1	577.4	519.3	466.7	413.2	385.3	402.3	317.8	198.9	146.6	115.7	126.4	299.8	734.5	2224	4069	329.8	14.57	2.730	1.879	1.577	1.368	1.118	0.931	0.955	0.973	1.045	1.189	1.232	1.592	1.877	2.326	2.672	2.764	2.701	3.575	3.670	3.632	3.561	3.225	3.323	3.431	3.147	3.357	3.306	3.536	3.482	3.453	3.676	3.704	3.893	3.785	3.785	3.873	4.130	3.856	4.035	3.924	4.022	4.313	4.132
380.0	443.9	696.2	897.8	983.0	970.3	863.0	793.2	733.7	732.3	748.6	756.9	750.6	762.6	741.1	699.3	655.9	621.7	578.0	531.6	486.5	431.9	382.3	384.1	386.7	260.7	174.5	137.1	112.3	126.7	206.4	610.5	2991	2763	266.5	6.672	2.382	1.781	1.515	1.146	1.167	0.986	0.965	1.069	1.066	1.174	1.497	1.598	2.230	2.639	2.575	2.541	3.323	3.594	3.502	3.360	3.216	3.385	3.529	3.319	3.360	3.404	3.441	3.339	3.574	3.498	3.745	3.762	3.568	3.933	3.848	4.012	3.881	3.800	3.920	4.215	4.331	3.973
385.0	443.4	671.2	867.1	952.4	965.4	862.3	806.1	752.4	757.1	752.2	752.7	750.5	744.4	726.8	685.5	647.5	611.9	576.4	534.1	490.0	445.4	396.3	365.6	381.4	339.1	215.2	160.4	125.2	102.3	100.9	176.2	884.1	3140	2443	38.95	3.703	2.324	1.687	1.175	1.177	1.085	1.066	0.980	1.065	1.319	1.458	1.602	2.123	2.513	2.499	2.616	3.312	3.595	3.337	3.441	3.164	3.350	3.552	3.344	3.221	3.425	3.576	3.521	3.455	3.690	3.683	3.913	3.460	3.585	3.914	3.911	3.782	3.659	3.762	4.029	3.903	3.819
390.0	423.7	632.6	834.1	913.5	922.1	863.7	800.3	754.6	749.3	739.5	740.8	727.5	719.3	696.4	664.4	626.6	599.0	565.2	534.5	497.5	453.0	413.8	376.5	356.5	357.1	302.8	206.9	154.8	120.7	95.95	93.59	236.3	907.4	2275	2446	703.7	12.83	2.417	1.611	1.370	1.174	1.024	1.147	1.180	1.251	1.510	1.648	2.170	2.273	2.403	2.558	3.109	3.470	3.350	3.408	3.323	3.341	3.496	3.480	3.515	3.397	3.517	3.508	3.447	3.623	3.514	3.609	3.486	3.535	3.545	3.777	3.776	3.884	3.656	3.797	3.861	3.812
395.0	427.6	616.3	798.8	868.0	905.2	866.7	806.2	752.1	742.2	721.8	722.4	718.0	698.2	675.4	640.7	609.4	584.1	557.4	530.0	498.1	465.8	427.4	393.0	357.8	336.1	336.3	290.8	199.6	151.1	119.7	95.52	105.4	236.8	547.1	1543	3030	279.7	15.22	2.370	1.780	1.374	1.211	1.187	1.200	1.287	1.518	1.631	2.054	2.432	2.310	2.498	3.181	3.416	3.347	3.225	3.104	3.454	3.482	3.471	3.393	3.385	3.345	3.438	3.281	3.436	3.520	3.496	3.609	3.565	3.239	3.692	3.834	3.757	3.663	3.491	3.702	3.794
400.0	412.4	603.9	819.0	873.0	871.9	842.4	800.1	758.0	733.0	722.2	714.8	702.4	696.0	659.1	625.7	591.4	560.9	545.3	516.3	493.2	464.6	433.0	400.4	371.4	340.2	323.2	331.9	253.6	176.6	141.2	110.5	88.64	94.48	152.0	409.2	2010	2304	243.4	7.897	2.124	1.492	1.392	1.294	1.129	1.205	1.535	1.731	1.921	2.114	2.247	2.495	3.122	3.367	3.416	3.350	3.295	3.344	3.387	3.611	3.378	3.215	3.539	3.502	3.318	3.437	3.365	3.285	3.329	3.448	3.313	3.446	3.739	3.389	3.693	3.553	3.818	3.697
405.0	390.9	576.6	782.0	847.1	869.2	830.3	794.4	756.7	737.7	717.1	706.0	699.0	677.1	651.3	609.3	575.4	546.1	527.4	508.1	484.0	460.3	433.2	410.7	384.1	347.8	319.7	319.5	305.8	214.5	161.5	127.3	97.72	73.91	70.14	116.5	559.3	2151	2096	36.16	4.186	2.002	1.517	1.319	1.173	1.278	1.548	1.522	1.828	2.212	2.215	2.313	2.928	3.217	3.303	3.399	3.293	3.415	3.311	3.496	3.259	3.217	3.494	3.458	3.382	3.347	3.477	3.285	3.181	3.199	3.293	3.432	3.445	3.472	3.574	3.487	3.636	3.443
410.0	400.4	571.5	737.1	810.8	824.6	810.2	770.0	752.8	720.8	709.2	697.7	682.3	659.9	627.4	587.1	551.7	523.8	505.7	485.7	469.1	450.2	430.3	410.0	389.0	357.6	327.0	305.7	305.4	278.0	202.3	149.5	115.2	82.82	62.78	58.77	148.2	589.2	1613	1928	649.9	13.12	1.982	1.440	1.303	1.355	1.452	1.561	1.879	2.178	2.089	2.245	2.906	3.149	3.209	3.530	3.183	3.307	3.246	3.295	3.421	3.299	3.388	3.565	3.324	3.341	3.306	3.111	3.206	3.152	3.172	3.312	3.324	3.264	3.442	3.423	3.574	3.294
415.0	392.3	549.8	694.7	760.2	775.4	784.3	751.8	739.8	699.1	689.9	685.0	651.5	634.1	601.8	562.0	521.4	495.8	477.2	459.7	444.6	428.1	419.1	404.3	381.3	358.4	333.4	307.4	282.0	287.5	256.2	178.2	128.5	94.61	70.46	51.55	61.20	151.2	379.1	1014	2259	262.7	16.72	2.047	1.589	1.375	1.412	1.678	1.843	2.005	2.108	2.284	2.874	3.009	3.118	3.316	3.215	3.382	3.421	3.235	3.325	3.110	3.214	3.503	3.328	3.119	2.965	3.099	3.155	3.004	2.881	3.134	3.007	3.225	3.297	3.435	3.449	3.197
