Sample:	'1
File name:	t2025022714Ò»²ã³Ø3  2000±¶.FD3
Run date:	'13:26:48, 02/28/2025
Operator:	Administrator
Comment:	'

Instrument
Model:	F-2700 FL Spectrophotometer
Serial number:	23B8-004
ROM Version:	4J14000 07

Instrument parameters
Measurement type:	3-D scan
Data mode:	Fluorescence
EX  Start WL:	220.0 nm
EX  End WL:	600.0 nm
EX Sampling interval:	5.0 nm
EM  Start WL:	230.0 nm
EM  End WL:	650.0 nm
EM Sampling interval:	5.0 nm
Scan speed:	12000 nm/min
EX Slit:	5.0 nm
EM Slit:	5.0 nm
PMT Voltage:	700 V
Response:	Auto 
Corrected spectra:	Off
Contour interval:	50.000

Peak integration
Integration method:	Rectangular
Sensitivity:	1
Threshold:	1.000

Peaks
No.	ApexEX/EM(nm)	Height(Data)
1	225.0/490.0	199.5
2	230.0/505.0	161.7
3	235.0/515.0	135.1
4	240.0/265.0	411.3
5	240.0/525.0	120.6
6	245.0/270.0	400.7
7	245.0/540.0	116.5
8	250.0/550.0	101.1
9	265.0/585.0	463.5
10	270.0/300.0	6153
11	270.0/595.0	463.0
12	300.0/335.0	293.3
13	305.0/345.0	248.3
14	310.0/350.0	188.1
15	315.0/355.0	175.2
16	320.0/360.0	160.1
17	325.0/370.0	128.5
18	330.0/375.0	118.6
19	335.0/380.0	128.8
20	340.0/385.0	104.3
21	345.0/395.0	76.08
22	350.0/400.0	86.49
23	355.0/405.0	77.76
24	360.0/410.0	58.10
25	365.0/420.0	58.08
26	370.0/425.0	56.01
27	375.0/430.0	42.86
28	380.0/440.0	39.12
29	385.0/445.0	37.65
30	390.0/300.0	14.67
31	390.0/450.0	28.29
32	395.0/455.0	25.71
33	400.0/465.0	23.35
34	405.0/470.0	17.40
35	410.0/480.0	15.99
36	415.0/485.0	14.52
37	420.0/490.0	11.63
38	425.0/500.0	10.78
39	430.0/505.0	10.06
40	435.0/300.0	10.58
41	435.0/510.0	7.816
42	440.0/520.0	7.680
43	445.0/525.0	6.356
44	455.0/540.0	5.116
45	460.0/545.0	4.044
46	465.0/555.0	2.915
47	470.0/560.0	2.629
48	480.0/575.0	1.966
49	495.0/270.0	2.348
50	530.0/585.0	2.648
51	540.0/590.0	2.882
52	545.0/300.0	28.51
53	550.0/305.0	26.17
54	575.0/290.0	29.80

Data points
	220.0	225.0	230.0	235.0	240.0	245.0	250.0	255.0	260.0	265.0	270.0	275.0	280.0	285.0	290.0	295.0	300.0	305.0	310.0	315.0	320.0	325.0	330.0	335.0	340.0	345.0	350.0	355.0	360.0	365.0	370.0	375.0	380.0	385.0	390.0	395.0	400.0	405.0	410.0	415.0	420.0	425.0	430.0	435.0	440.0	445.0	450.0	455.0	460.0	465.0	470.0	475.0	480.0	485.0	490.0	495.0	500.0	505.0	510.0	515.0	520.0	525.0	530.0	535.0	540.0	545.0	550.0	555.0	560.0	565.0	570.0	575.0	580.0	585.0	590.0	595.0	600.0
230.0	118.5	1223	3093	701.9	35.75	10.34	9.027	7.615	6.915	6.007	5.857	5.042	3.909	3.001	2.436	2.103	1.897	1.555	1.452	1.355	1.266	1.161	1.159	1.074	1.008	0.964	0.925	0.908	0.863	0.912	0.842	0.738	0.745	0.729	0.649	0.650	0.609	0.612	0.634	0.602	0.770	1.157	1.130	0.712	0.591	0.577	1.743	6.791	9.375	5.597	2.260	0.700	0.461	0.489	0.437	0.450	0.474	0.477	0.490	0.458	0.496	0.521	0.485	0.499	0.499	0.512	0.519	0.507	0.509	0.506	0.526	0.533	0.532	0.534	0.564	0.530	0.550
235.0	236.5	357.7	1879	2544	513.1	44.64	9.934	8.245	6.889	6.201	5.084	4.747	3.646	2.986	2.503	1.878	1.814	1.791	1.572	1.369	1.191	1.289	1.247	1.204	0.968	0.945	0.914	0.912	0.802	0.826	0.874	0.815	0.706	0.748	0.638	0.602	0.651	0.579	0.599	0.622	0.682	0.799	0.997	1.074	0.968	0.680	0.850	2.072	4.025	6.584	8.915	8.133	3.375	0.990	0.485	0.490	0.456	0.543	0.487	0.429	0.491	0.524	0.463	0.472	0.476	0.485	0.507	0.485	0.521	0.513	0.497	0.550	0.537	0.532	0.602	0.531	0.554
240.0	322.7	247.1	559.8	2227	2493	384.3	24.84	8.480	6.975	7.447	6.155	5.482	3.916	2.875	2.792	2.255	2.005	1.731	1.538	1.267	1.264	1.229	1.193	1.157	0.996	0.969	0.974	0.928	0.942	0.794	0.780	0.791	0.750	0.675	0.668	0.601	0.626	0.567	0.704	0.618	0.667	0.652	0.668	0.861	1.118	1.207	0.909	0.937	1.303	2.208	5.482	12.41	12.37	7.752	2.518	0.689	0.478	0.524	0.503	0.484	0.520	0.589	0.452	0.493	0.488	0.488	0.474	0.489	0.496	0.556	0.504	0.551	0.559	0.572	0.521	0.546	0.573
245.0	229.2	343.4	219.8	778.4	2931	2476	278.1	12.40	8.023	7.665	6.575	6.177	3.894	3.229	2.605	2.531	2.124	1.705	1.673	1.481	1.275	1.320	1.235	1.085	0.985	0.993	0.870	0.911	0.988	0.924	0.840	0.756	0.769	0.704	0.648	0.592	0.617	0.617	0.667	0.670	0.638	0.593	0.579	0.609	0.753	1.255	1.374	1.204	0.776	0.810	1.621	4.675	10.08	15.80	13.78	7.113	1.803	0.565	0.529	0.512	0.499	0.547	0.491	0.504	0.502	0.503	0.536	0.475	0.519	0.566	0.501	0.502	0.582	0.514	0.515	0.560	0.576
250.0	104.6	240.8	325.5	286.5	975.2	2728	3301	897.0	46.77	8.487	7.111	6.842	4.178	3.489	2.986	2.393	1.989	1.646	1.552	1.506	1.290	1.308	1.218	1.076	1.049	1.022	0.914	0.897	0.975	0.905	0.824	0.803	0.810	0.730	0.663	0.618	0.645	0.649	0.661	0.643	0.566	0.568	0.576	0.542	0.562	0.741	0.886	1.238	1.258	1.086	0.976	1.566	2.777	5.811	10.24	15.21	16.50	13.32	6.636	1.822	0.579	0.537	0.550	0.529	0.538	0.525	0.527	0.521	0.550	0.582	0.519	0.547	0.551	0.553	0.548	0.560	0.559
255.0	62.22	85.53	239.0	372.9	311.8	720.7	3041	4610	1139	39.91	9.277	7.310	4.619	3.771	3.234	2.553	2.082	1.779	1.730	1.414	1.373	1.311	1.188	1.133	1.090	1.048	0.996	1.080	0.966	0.899	0.823	0.839	0.801	0.892	0.691	0.685	0.682	0.670	0.634	0.592	0.676	0.585	0.613	0.581	0.593	0.598	0.598	0.705	0.831	1.147	1.722	1.501	1.181	1.708	2.717	4.081	7.639	17.17	26.88	21.42	8.657	2.273	0.545	0.540	0.544	0.571	0.479	0.523	0.549	0.581	0.526	0.569	0.547	0.525	0.527	0.588	0.510
260.0	60.67	53.39	98.99	344.7	330.2	214.9	979.0	4366	4585	233.9	18.59	8.361	5.722	4.201	3.115	2.657	2.218	1.915	1.820	1.576	1.357	1.287	1.220	1.131	1.070	1.102	1.007	1.027	1.019	0.869	0.841	0.792	0.776	0.841	0.719	0.699	0.637	0.684	0.635	0.630	0.629	0.601	0.590	0.674	0.568	0.574	0.520	0.559	0.547	0.642	1.208	2.171	1.817	1.198	1.065	1.389	2.174	5.173	13.79	26.56	29.47	22.15	6.649	1.056	0.619	0.570	0.580	0.533	0.624	0.546	0.524	0.627	0.561	0.558	0.526	0.581	0.548
265.0	64.30	40.89	46.32	165.9	411.3	229.4	257.7	1611	5652	4198	173.1	12.10	7.114	4.870	3.962	3.184	2.414	2.214	1.874	1.567	1.453	1.237	1.380	1.202	1.148	1.110	0.957	1.034	0.940	0.965	0.827	0.926	0.841	0.873	0.765	0.704	0.624	0.713	0.644	0.619	0.608	0.620	0.594	0.589	0.507	0.525	0.502	0.477	0.492	0.486	0.639	1.314	2.078	2.181	1.470	0.891	0.962	1.671	3.732	9.087	20.15	40.00	29.23	16.23	3.455	0.685	0.555	0.541	0.570	0.549	0.529	0.592	0.524	0.570	0.672	0.563	0.563
270.0	77.47	48.74	39.52	60.82	207.4	400.7	266.7	415.6	1938	5255	4182	681.4	34.74	7.433	4.880	3.623	2.737	2.264	2.113	1.700	1.565	1.438	1.400	1.264	1.098	1.153	1.134	1.038	1.025	0.958	0.915	0.935	0.898	0.915	0.827	0.773	0.723	0.764	0.690	0.681	0.643	0.651	0.612	0.678	0.590	0.631	0.521	0.517	0.476	0.468	0.462	0.689	0.996	1.514	2.132	2.348	1.887	1.248	1.413	2.533	5.297	12.78	18.96	28.74	29.44	25.43	11.50	3.110	0.787	0.585	0.574	0.615	0.589	0.525	0.601	0.566	0.577
275.0	307.2	178.4	99.30	69.49	93.77	228.2	561.6	352.4	622.3	1612	4585	7641	890.9	30.46	6.996	4.311	2.971	2.699	2.095	1.971	1.733	1.411	1.540	1.466	1.207	1.263	1.002	1.180	1.057	0.949	0.934	1.204	1.380	1.537	1.362	1.137	1.049	1.021	1.039	1.032	1.040	1.089	1.052	1.099	0.981	0.916	0.823	0.808	0.649	0.625	0.509	0.604	0.702	0.799	1.001	1.587	2.984	3.619	2.513	1.740	2.303	4.233	5.789	8.278	11.82	24.85	42.42	29.82	17.68	3.079	0.768	0.661	0.609	0.585	0.606	0.536	0.602
280.0	1003	588.2	323.5	214.3	158.6	195.2	558.7	914.5	868.2	1279	2364	7832	6104	135.8	14.20	6.290	4.288	3.019	2.490	2.202	1.657	1.541	1.719	1.546	1.297	1.289	1.074	1.281	1.173	0.986	1.148	1.644	2.678	3.339	2.964	2.539	2.113	1.951	1.827	2.042	2.161	2.527	2.386	2.183	2.277	1.969	1.738	1.488	1.309	1.107	0.975	0.986	0.882	0.962	1.002	1.182	2.194	3.601	5.205	4.466	3.788	4.307	5.225	6.625	8.043	10.96	21.22	35.98	51.64	26.73	10.35	1.673	0.775	0.742	0.767	0.688	0.656
285.0	2105	1334	757.8	519.0	331.3	308.9	599.8	1371	1859	2023	2559	4155	8192	4158	94.43	8.457	5.627	3.711	3.333	2.430	1.931	2.005	1.828	1.572	1.264	1.380	1.167	1.145	1.276	1.123	1.315	2.467	5.241	6.397	5.842	4.921	3.704	3.675	3.562	3.642	3.995	4.268	4.298	4.258	4.145	3.934	3.377	2.828	2.434	1.947	1.637	1.671	1.701	1.494	1.362	1.592	2.457	3.371	5.534	7.877	8.518	8.951	8.740	10.30	11.54	11.73	13.58	17.63	29.63	41.16	33.51	21.93	5.469	1.128	0.872	0.937	0.803
290.0	3687	2317	1430	969.9	623.4	520.4	857.6	1700	3015	3944	4067	3669	3654	5531	3740	368.8	15.70	5.345	4.035	3.128	2.562	2.174	2.260	1.691	1.484	1.589	1.264	1.302	1.257	1.310	1.609	3.691	7.630	10.42	10.28	8.087	6.840	6.204	6.024	6.370	6.504	6.802	7.141	7.415	7.261	6.656	5.494	4.829	4.088	3.344	3.022	3.072	2.686	2.292	2.130	2.430	3.313	4.528	6.352	8.523	11.54	15.53	16.83	18.52	19.14	18.12	17.40	17.29	16.05	16.27	19.86	29.80	29.02	28.62	16.10	5.476	1.297
295.0	4877	3288	2021	1361	866.9	691.4	1065	1992	3443	5169	5566	4293	2271	1721	4106	5542	464.3	11.67	5.411	3.748	3.256	2.336	2.591	1.853	1.539	1.663	1.449	1.342	1.388	1.276	1.775	4.617	9.614	13.82	13.72	11.21	9.691	8.259	7.881	7.525	8.342	8.663	9.197	9.635	9.532	8.901	7.303	6.504	5.663	4.512	4.168	4.295	3.484	2.988	2.744	2.978	4.108	5.709	7.535	9.716	13.11	16.93	20.19	25.01	27.33	24.61	22.01	20.31	15.80	10.53	8.233	9.237	9.749	18.67	38.27	33.96	21.49
300.0	5151	3459	2254	1530	961.0	746.3	1132	2070	3487	5149	6153	4712	2067	811.2	1315	5450	4210	75.42	7.069	4.497	3.812	2.971	2.733	1.933	1.831	1.758	1.476	1.515	1.422	1.295	1.903	5.054	10.22	14.41	14.67	11.73	10.44	8.563	8.518	8.267	8.814	9.657	9.870	10.58	10.39	9.647	8.142	6.907	6.035	5.171	4.668	5.058	4.000	3.161	2.994	3.421	4.277	5.547	7.718	10.05	13.07	17.27	20.33	24.42	28.42	28.51	25.20	21.58	16.16	9.886	6.154	4.904	4.332	6.089	13.01	27.51	41.56
305.0	4884	3481	2308	1533	954.9	736.1	1071	1979	3292	4787	5706	4930	2065	649.5	441.9	1829	5526	3167	52.71	6.285	3.982	3.325	3.043	2.037	1.945	1.815	1.422	1.587	1.458	1.408	1.906	4.681	10.32	14.49	14.66	11.70	10.48	9.130	8.294	8.132	8.467	9.329	9.807	10.39	10.16	9.385	8.093	6.838	6.143	5.277	4.561	4.775	3.867	3.264	2.986	3.239	4.160	5.313	7.502	9.536	12.97	16.01	18.89	22.56	25.47	25.82	26.17	23.52	16.45	9.605	5.726	4.300	3.081	3.224	4.090	7.822	15.86
310.0	4246	3093	2041	1379	844.3	641.7	907.3	1649	2759	3983	4593	4174	2192	680.9	256.5	470.6	1754	4124	2502	256.6	10.47	3.683	3.602	2.156	2.075	1.991	1.522	1.641	1.479	1.435	1.814	4.182	8.838	12.91	12.77	10.42	9.403	8.339	7.453	7.133	7.456	7.835	8.717	8.816	8.747	8.212	7.105	6.252	5.540	4.725	4.168	4.367	3.552	2.936	2.709	2.872	3.592	4.604	6.395	8.218	10.75	13.40	15.85	18.88	21.09	20.68	20.53	20.42	16.17	11.20	6.649	4.231	3.004	2.437	2.232	2.935	4.615
315.0	3454	2478	1673	1122	689.9	507.6	701.9	1249	2103	3033	3487	3066	1815	933.7	256.4	164.4	419.2	1016	2724	3996	333.9	7.612	4.906	2.569	2.388	2.165	1.748	1.662	1.628	1.470	1.745	3.518	7.186	10.14	10.45	8.726	7.607	7.025	6.038	5.937	5.867	6.521	6.757	7.047	6.978	6.692	5.679	5.307	4.508	4.057	3.409	3.585	3.073	2.457	2.262	2.337	2.846	3.834	5.008	6.359	8.346	10.44	12.39	14.67	16.51	15.51	15.74	14.69	11.82	9.291	7.656	6.367	3.654	2.183	1.729	1.671	2.066
320.0	2742	2028	1367	930.8	565.6	409.0	561.3	978.4	1660	2385	2730	2365	1356	897.1	412.7	104.1	121.0	245.0	778.8	3797	3047	56.01	6.449	3.077	2.544	2.424	1.822	1.729	1.603	1.424	1.695	3.050	5.828	8.406	8.849	7.191	6.479	5.817	5.132	5.062	4.858	5.352	5.346	5.704	5.793	5.693	4.640	4.217	3.978	3.204	3.043	2.920	2.486	2.283	1.935	2.051	2.452	3.162	3.996	5.039	6.670	8.325	10.12	11.70	12.89	12.58	12.42	11.54	9.377	6.909	5.458	5.646	5.426	3.263	1.928	1.455	1.394
325.0	2161	1621	1102	767.5	474.6	334.6	454.4	759.9	1282	1862	2138	1868	1053	627.1	557.7	120.4	55.84	71.73	190.0	1207	3727	2270	44.37	4.065	2.962	2.820	1.991	1.784	1.667	1.486	1.670	2.608	4.838	7.044	7.200	6.464	5.437	5.067	4.259	4.007	3.952	4.424	4.408	4.700	4.807	4.758	3.894	3.668	3.519	2.915	2.473	2.572	2.066	1.908	1.639	1.739	2.012	2.639	3.096	4.108	5.154	6.423	7.848	9.180	10.15	9.894	9.394	9.359	7.576	5.158	4.367	3.738	4.169	4.278	3.297	2.033	1.262
330.0	1615	1257	854.0	587.1	369.0	253.9	333.9	554.8	917.8	1328	1537	1363	781.0	405.5	346.2	323.4	127.2	35.87	54.91	284.2	1140	2672	3852	209.3	10.07	3.181	2.278	2.020	1.842	1.539	1.527	2.260	3.832	5.377	5.455	5.146	4.482	3.909	3.517	3.009	3.166	3.453	3.481	3.497	3.756	3.654	3.080	3.014	2.638	2.362	2.006	2.126	1.705	1.564	1.435	1.456	1.575	2.073	2.350	3.158	3.901	4.964	5.806	6.714	7.387	7.456	6.919	7.006	5.696	4.084	3.339	2.854	2.439	2.647	2.956	3.160	2.672
335.0	1185	935.7	641.3	436.6	277.6	193.1	231.3	382.6	628.7	911.0	1052	966.2	577.2	293.1	178.5	204.2	293.3	75.78	24.88	74.69	264.9	646.2	3421	3012	312.8	8.515	2.609	2.312	2.087	1.685	1.435	1.842	2.922	3.979	4.147	3.583	3.593	2.973	2.876	2.404	2.522	2.567	2.733	2.732	2.996	2.804	2.413	2.364	2.037	1.836	1.653	1.750	1.427	1.347	1.114	1.251	1.407	1.630	1.868	2.360	2.740	3.538	4.030	4.599	5.326	5.217	5.221	4.983	4.079	2.999	2.766	2.258	1.847	1.632	1.652	1.754	2.195
340.0	914.3	755.9	533.1	353.9	225.0	156.1	180.3	283.1	472.2	669.3	795.1	726.0	457.2	239.1	129.0	101.5	234.9	214.3	39.37	27.23	69.34	154.2	931.3	2552	2693	50.91	3.985	2.852	2.045	1.639	1.550	1.717	2.558	3.516	3.532	3.178	3.008	2.723	2.333	2.099	2.095	2.143	2.257	2.355	2.427	2.360	2.014	1.889	1.710	1.596	1.419	1.351	1.222	1.092	0.991	1.005	1.166	1.427	1.709	1.866	2.348	2.699	3.176	3.779	3.910	3.905	3.960	4.069	3.521	2.559	2.322	1.897	1.537	1.316	1.283	1.196	1.363
345.0	766.2	606.4	430.0	292.0	190.5	128.5	142.6	220.4	360.0	508.6	601.2	560.0	363.5	199.1	105.6	64.27	107.2	248.3	128.3	22.26	25.09	43.48	220.2	771.7	2945	2477	39.98	3.432	2.440	1.704	1.640	1.705	2.252	2.811	3.105	2.658	2.506	2.352	1.944	1.641	1.999	1.855	1.896	1.973	1.845	2.050	1.804	1.663	1.539	1.271	1.275	1.232	1.234	1.070	0.964	0.915	1.017	1.084	1.431	1.548	1.847	2.212	2.456	2.839	3.159	3.311	3.242	3.139	2.773	2.083	1.960	1.625	1.424	1.119	1.187	0.984	1.066
350.0	575.4	475.3	343.2	239.4	152.9	101.0	109.7	159.9	256.0	364.2	427.8	405.6	275.0	160.0	86.92	49.13	48.31	112.8	188.1	101.6	23.38	19.02	58.99	181.2	862.9	2483	1836	199.6	11.54	2.220	1.712	1.647	1.998	2.420	2.507	2.246	2.242	2.017	1.739	1.410	1.494	1.393	1.513	1.608	1.592	1.602	1.556	1.388	1.301	1.129	0.971	1.156	0.992	0.851	0.814	0.795	0.932	0.939	1.143	1.237	1.529	1.709	1.986	2.141	2.405	2.334	2.528	2.350	2.070	1.683	1.552	1.419	1.291	1.069	0.999	0.950	0.888
355.0	436.3	377.6	274.0	195.7	123.8	82.53	82.56	115.8	179.7	254.8	298.0	288.8	204.9	129.0	73.75	42.22	32.71	43.75	86.00	175.2	66.04	18.73	22.91	48.31	199.7	579.6	1235	2622	321.9	9.372	2.220	1.810	1.861	2.044	2.078	1.942	1.978	1.616	1.430	1.443	1.262	1.257	1.262	1.405	1.450	1.317	1.263	1.295	1.132	0.970	0.896	0.931	0.858	0.790	0.708	0.729	0.816	0.860	0.996	1.046	1.261	1.340	1.464	1.711	1.860	1.844	1.851	1.931	1.637	1.498	1.308	1.156	1.106	0.969	1.030	0.900	0.747
360.0	377.2	317.8	231.4	164.5	107.8	76.57	72.12	95.65	136.7	194.2	231.7	226.3	166.0	110.8	65.06	40.78	29.64	28.61	38.25	114.3	160.1	49.32	15.83	18.94	51.80	136.2	319.6	1868	2455	49.36	4.747	1.843	1.949	2.103	1.856	1.723	1.683	1.601	1.357	1.254	1.139	1.178	1.123	1.379	1.148	1.153	0.997	1.130	1.064	0.816	0.729	0.902	0.862	0.759	0.730	0.734	0.810	0.828	0.797	0.871	0.979	1.166	1.236	1.417	1.552	1.672	1.523	1.597	1.500	1.298	1.278	1.059	1.146	0.902	0.943	0.827	0.761
365.0	344.8	277.8	204.3	144.1	90.98	69.77	67.64	82.61	111.7	150.8	186.1	188.9	141.4	97.08	62.20	38.79	30.18	27.11	26.24	52.32	145.6	123.4	26.55	12.55	19.35	37.30	78.00	519.1	2236	1581	42.57	2.674	1.990	2.043	1.846	1.691	1.742	1.482	1.285	1.236	1.152	1.130	1.041	1.176	1.019	1.133	0.991	1.028	0.919	0.839	0.716	0.847	0.853	0.696	0.675	0.688	0.776	0.752	0.824	0.762	0.998	1.017	1.011	1.269	1.367	1.467	1.313	1.525	1.303	1.139	1.116	1.043	1.005	0.943	0.776	0.851	0.846
370.0	286.6	235.1	185.6	135.8	88.50	68.72	61.20	70.06	92.87	121.4	146.4	147.4	115.6	84.76	57.04	39.89	33.46	29.68	27.17	31.98	66.52	128.5	93.04	27.59	12.77	15.37	23.26	122.1	615.4	1291	1491	180.8	10.96	2.292	1.817	1.543	1.599	1.368	1.311	1.153	1.027	1.083	1.045	1.075	1.008	1.033	0.963	0.945	0.878	0.776	0.691	0.780	0.745	0.638	0.675	0.704	0.731	0.738	0.792	0.758	0.903	0.891	0.952	1.060	1.181	1.184	1.210	1.227	1.127	1.054	1.032	1.038	0.913	0.883	0.836	0.821	0.817
375.0	250.7	204.3	163.0	123.3	83.92	67.48	60.76	59.91	73.21	95.48	111.3	118.9	94.14	74.69	54.12	41.46	37.62	33.94	32.10	30.22	35.68	58.36	118.6	94.78	20.61	11.05	11.11	32.66	141.4	299.1	834.0	1480	280.3	12.60	1.997	1.678	1.442	1.335	1.195	1.238	1.047	1.053	0.960	0.976	1.050	1.010	0.872	0.944	0.793	0.673	0.670	0.764	0.826	0.732	0.735	0.682	0.698	0.761	0.780	0.724	0.869	0.789	0.863	0.970	0.933	1.110	1.066	1.077	1.109	0.950	0.948	0.972	0.923	0.866	0.917	0.860	0.809
380.0	217.0	204.3	160.3	116.2	84.56	68.40	59.58	55.70	64.93	79.43	95.11	97.53	84.56	70.26	51.98	43.72	39.76	37.16	35.13	31.58	30.19	33.31	70.96	128.8	50.68	12.31	8.621	12.39	36.02	71.14	209.7	961.0	1450	230.6	4.636	1.702	1.570	1.464	1.313	1.211	1.026	1.063	0.967	0.975	0.944	1.006	0.789	0.882	0.750	0.653	0.692	0.740	0.712	0.737	0.729	0.742	0.745	0.770	0.711	0.711	0.762	0.770	0.739	0.798	0.857	0.976	0.978	1.010	1.018	0.898	0.976	0.840	0.889	0.834	0.840	0.835	0.776
385.0	210.3	203.8	151.2	115.7	89.38	69.47	58.30	53.84	57.62	69.59	80.81	86.88	73.53	65.83	52.31	44.40	41.99	39.18	36.75	33.63	29.99	27.50	37.74	94.06	104.3	28.38	8.506	7.819	12.73	19.80	50.74	257.8	1167	1444	36.23	2.236	1.754	1.484	1.310	1.063	1.044	1.000	0.955	0.987	0.903	0.912	0.765	0.854	0.805	0.704	0.692	0.757	0.768	0.686	0.688	0.744	0.740	0.697	0.685	0.706	0.786	0.690	0.737	0.746	0.798	0.842	0.877	0.936	0.940	0.800	0.853	0.850	0.924	0.901	0.906	0.869	0.900
390.0	207.8	186.5	146.5	111.5	88.65	69.43	55.49	50.89	50.65	58.30	69.13	74.19	65.54	59.03	50.65	44.95	43.58	41.67	39.41	35.37	31.07	27.22	26.40	42.55	85.98	74.40	24.48	7.118	6.866	7.894	15.01	60.95	309.8	1027	983.5	147.8	11.25	1.594	1.509	1.248	1.006	1.097	1.108	0.948	0.951	0.812	0.865	0.839	0.817	0.717	0.634	0.772	0.763	0.723	0.700	0.674	0.720	0.756	0.709	0.656	0.700	0.725	0.776	0.806	0.787	0.813	0.836	0.892	0.831	0.830	0.909	0.799	0.859	0.917	0.937	0.874	0.860
395.0	206.4	162.2	138.8	111.5	87.32	65.96	55.96	47.92	46.37	49.03	59.79	62.57	57.82	54.00	49.66	46.58	44.95	42.25	41.10	36.48	31.34	28.34	23.93	24.62	35.73	76.08	72.58	17.42	5.031	5.011	6.671	16.76	71.78	236.6	512.6	1087	254.6	11.25	1.722	1.293	1.059	0.987	1.041	0.998	0.942	0.827	0.812	0.857	0.773	0.669	0.656	0.742	0.725	0.740	0.678	0.664	0.824	0.678	0.704	0.665	0.678	0.735	0.759	0.757	0.790	0.834	0.783	0.813	0.734	0.804	0.822	0.847	0.800	0.868	0.874	0.904	0.967
400.0	187.2	156.7	138.2	112.1	88.86	65.51	54.40	44.90	44.78	45.23	51.48	57.76	54.44	50.11	47.22	44.80	44.79	42.72	41.32	37.31	31.48	27.27	22.79	19.85	19.73	40.38	86.49	44.58	8.167	4.041	4.307	6.691	18.68	55.58	127.3	660.9	1109	198.4	6.001	1.438	1.121	1.005	1.049	0.970	0.884	0.900	0.828	0.801	0.773	0.763	0.675	0.809	0.769	0.775	0.735	0.692	0.719	0.694	0.734	0.633	0.648	0.678	0.698	0.791	0.780	0.884	0.737	0.746	0.767	0.789	0.788	0.769	0.872	0.838	0.870	0.901	0.996
405.0	183.0	164.3	134.7	115.1	83.27	64.92	52.01	41.90	41.38	42.42	47.86	51.65	51.84	49.53	45.05	43.36	43.61	41.36	39.48	36.20	31.12	26.80	22.13	17.70	15.60	19.46	56.20	77.76	23.86	4.673	3.556	4.009	6.878	14.93	31.14	174.0	787.2	1030	34.60	2.173	1.205	1.130	1.027	1.001	0.970	0.922	0.728	0.875	0.713	0.754	0.685	0.801	0.719	0.707	0.658	0.639	0.688	0.709	0.648	0.654	0.640	0.689	0.696	0.786	0.697	0.708	0.743	0.727	0.818	0.827	0.808	0.822	0.806	0.791	0.866	0.822	1.105
410.0	182.2	155.8	136.6	105.9	79.22	61.19	48.35	41.01	37.58	39.59	44.52	46.16	45.76	45.86	42.67	41.19	41.66	39.19	37.97	34.33	30.22	25.41	21.28	16.51	13.63	12.26	22.55	55.04	58.10	21.46	4.139	3.213	3.825	5.843	9.073	41.16	203.1	686.2	980.5	141.8	8.815	1.232	1.055	1.043	0.924	0.913	0.801	0.792	0.753	0.677	0.686	0.748	0.692	0.681	0.645	0.710	0.728	0.690	0.640	0.636	0.679	0.629	0.644	0.722	0.761	0.640	0.672	0.763	0.774	0.756	0.763	0.795	0.799	0.858	0.817	0.763	0.917
