Sample:	'1
File name:	W102402西王处理厂COD高 30倍.FD3
Run date:	'11:28:39, 10/25/2024
Operator:	horiz
Comment:	'

Instrument
Model:	F-2700 FL Spectrophotometer
Serial number:	23B8-004
ROM Version:	4J14000 07

Instrument parameters
Measurement type:	3-D scan
Data mode:	Fluorescence
EX  Start WL:	220.0 nm
EX  End WL:	600.0 nm
EX Sampling interval:	5.0 nm
EM  Start WL:	230.0 nm
EM  End WL:	650.0 nm
EM Sampling interval:	5.0 nm
Scan speed:	12000 nm/min
EX Slit:	5.0 nm
EM Slit:	5.0 nm
PMT Voltage:	700 V
Response:	Auto 
Corrected spectra:	Off
Contour interval:	50.000

Peak integration
Integration method:	Rectangular
Sensitivity:	1
Threshold:	1.000

Peaks
No.	ApexEX/EM(nm)	Height(Data)
1	225.0/490.0	215.3
2	230.0/500.0	191.9
3	235.0/510.0	154.7
4	240.0/265.0	441.6
5	240.0/525.0	155.3
6	245.0/270.0	455.6
7	245.0/540.0	134.3
8	250.0/275.0	594.0
9	250.0/550.0	126.6
10	255.0/280.0	723.6
11	255.0/560.0	128.6
12	260.0/575.0	149.2
13	270.0/600.0	257.2
14	275.0/310.0	4003
15	275.0/335.0	4105
16	275.0/610.0	251.7
17	315.0/355.0	255.9
18	320.0/360.0	244.1
19	325.0/370.0	199.6
20	330.0/375.0	193.2
21	335.0/380.0	198.0
22	340.0/385.0	161.8
23	345.0/395.0	134.7
24	350.0/400.0	146.2
25	355.0/405.0	133.0
26	360.0/410.0	114.9
27	365.0/420.0	122.5
28	370.0/425.0	112.8
29	380.0/440.0	86.28
30	385.0/445.0	75.64
31	390.0/305.0	5.325
32	395.0/460.0	51.22
33	400.0/465.0	45.62
34	410.0/480.0	29.61
35	415.0/485.0	26.75
36	420.0/490.0	22.23
37	425.0/500.0	19.82
38	430.0/505.0	16.87
39	440.0/520.0	12.31
40	445.0/335.0	9.012
41	445.0/525.0	10.71
42	455.0/540.0	7.165
43	465.0/555.0	4.149
44	470.0/560.0	3.624
45	480.0/575.0	2.175
46	485.0/580.0	1.879
47	495.0/270.0	2.230
48	505.0/275.0	3.240
49	510.0/280.0	3.664
50	550.0/305.0	15.19
51	550.0/330.0	14.81

Wavelength data
No.	EX/EM(nm)	Height(Data)	

Data points
	220.0	225.0	230.0	235.0	240.0	245.0	250.0	255.0	260.0	265.0	270.0	275.0	280.0	285.0	290.0	295.0	300.0	305.0	310.0	315.0	320.0	325.0	330.0	335.0	340.0	345.0	350.0	355.0	360.0	365.0	370.0	375.0	380.0	385.0	390.0	395.0	400.0	405.0	410.0	415.0	420.0	425.0	430.0	435.0	440.0	445.0	450.0	455.0	460.0	465.0	470.0	475.0	480.0	485.0	490.0	495.0	500.0	505.0	510.0	515.0	520.0	525.0	530.0	535.0	540.0	545.0	550.0	555.0	560.0	565.0	570.0	575.0	580.0	585.0	590.0	595.0	600.0
230.0	79.84	1121	3686	1289	50.89	7.955	6.290	5.205	4.600	4.944	4.605	4.286	3.698	3.060	2.796	1.949	1.338	1.230	1.199	0.978	0.915	0.780	0.786	0.707	0.670	0.653	0.605	0.567	0.581	0.549	0.534	0.476	0.452	0.489	0.474	0.456	0.447	0.403	0.358	0.392	0.531	0.812	0.788	0.559	0.376	0.356	1.385	7.103	11.17	7.409	2.426	0.542	0.261	0.287	0.263	0.262	0.274	0.271	0.268	0.263	0.258	0.242	0.249	0.246	0.280	0.252	0.268	0.255	0.261	0.238	0.248	0.274	0.236	0.251	0.258	0.252	0.270
235.0	193.9	333.2	1886	3235	711.4	62.39	8.304	7.189	4.547	5.865	5.283	4.185	3.987	2.943	2.466	1.815	1.594	1.380	1.165	1.024	1.035	0.893	0.764	0.859	0.619	0.665	0.626	0.615	0.635	0.411	0.496	0.438	0.436	0.478	0.435	0.438	0.428	0.422	0.361	0.347	0.480	0.475	0.739	0.893	0.757	0.494	0.603	1.965	4.321	7.242	9.853	9.669	3.575	0.794	0.263	0.264	0.287	0.285	0.258	0.258	0.324	0.256	0.247	0.281	0.264	0.260	0.258	0.308	0.242	0.216	0.251	0.300	0.282	0.220	0.254	0.252	0.237
240.0	253.7	222.8	536.4	2441	3448	538.8	30.23	8.715	5.606	6.229	5.605	4.312	3.957	3.177	2.844	1.861	1.664	1.250	1.282	1.078	0.968	0.924	0.708	0.733	0.720	0.590	0.531	0.609	0.623	0.509	0.573	0.456	0.534	0.458	0.395	0.398	0.394	0.433	0.360	0.414	0.385	0.348	0.467	0.705	0.798	0.860	0.657	0.710	1.210	2.226	5.321	12.26	13.70	9.930	2.564	0.455	0.269	0.280	0.301	0.276	0.261	0.255	0.239	0.254	0.269	0.234	0.237	0.258	0.284	0.249	0.254	0.255	0.246	0.261	0.232	0.272	0.283
245.0	164.6	308.0	219.2	780.7	3354	3386	385.4	13.27	7.086	6.562	5.658	5.033	4.677	3.524	2.719	1.914	1.589	1.389	1.071	1.084	1.014	0.956	0.828	0.777	0.692	0.746	0.671	0.608	0.602	0.546	0.567	0.499	0.562	0.505	0.439	0.409	0.380	0.453	0.435	0.383	0.323	0.332	0.374	0.472	0.462	0.860	1.096	0.887	0.658	0.776	1.461	4.340	9.939	20.12	14.45	6.456	1.598	0.349	0.315	0.268	0.266	0.245	0.222	0.286	0.287	0.285	0.252	0.233	0.253	0.308	0.297	0.302	0.286	0.261	0.302	0.271	0.259
250.0	66.36	197.4	311.1	297.5	1048	3191	3927	1271	64.25	9.406	7.444	5.772	4.831	4.184	3.092	2.179	1.745	1.517	1.137	1.074	1.009	0.934	0.828	0.709	0.700	0.752	0.627	0.667	0.592	0.571	0.606	0.539	0.542	0.566	0.488	0.420	0.408	0.423	0.414	0.384	0.370	0.359	0.371	0.386	0.364	0.515	0.650	1.001	1.140	0.964	0.792	1.304	2.581	6.868	9.688	14.09	16.62	14.40	6.462	1.554	0.378	0.285	0.275	0.315	0.275	0.311	0.261	0.265	0.271	0.255	0.280	0.286	0.287	0.271	0.278	0.240	0.271
255.0	45.25	64.34	214.2	393.6	352.5	808.1	3007	5636	1621	62.25	9.046	7.068	5.795	5.115	3.847	2.226	1.835	1.726	1.462	1.450	1.051	0.985	0.909	0.791	0.731	0.699	0.620	0.694	0.564	0.644	0.588	0.641	0.543	0.550	0.477	0.482	0.431	0.453	0.430	0.406	0.412	0.390	0.399	0.379	0.299	0.406	0.348	0.470	0.666	1.089	1.290	1.440	1.022	1.853	2.412	3.688	7.088	17.55	25.36	22.23	9.910	1.940	0.336	0.314	0.309	0.311	0.264	0.264	0.276	0.277	0.294	0.245	0.240	0.254	0.270	0.270	0.314
260.0	39.56	35.71	82.56	328.6	390.8	249.5	908.8	4614	5779	318.4	26.24	9.672	7.095	5.639	4.170	2.606	2.291	1.781	1.472	1.485	1.032	1.057	0.983	0.769	0.766	0.685	0.677	0.702	0.643	0.614	0.682	0.561	0.652	0.536	0.522	0.411	0.512	0.525	0.437	0.418	0.404	0.376	0.411	0.303	0.299	0.401	0.336	0.386	0.358	0.553	0.925	1.817	1.761	1.269	0.840	1.097	1.917	5.027	12.45	25.24	32.03	21.69	6.687	0.834	0.337	0.279	0.300	0.293	0.321	0.276	0.309	0.291	0.281	0.278	0.262	0.301	0.255
265.0	42.51	28.77	39.28	149.8	441.6	286.7	251.6	1583	6295	6352	237.5	14.63	8.508	6.517	4.496	3.308	2.247	1.814	1.676	1.557	1.046	1.049	1.042	0.874	0.835	0.762	0.597	0.721	0.641	0.503	0.672	0.613	0.628	0.495	0.598	0.497	0.501	0.535	0.507	0.423	0.408	0.397	0.454	0.371	0.340	0.387	0.340	0.325	0.318	0.357	0.481	1.023	1.867	2.077	1.369	0.703	0.765	1.402	3.238	7.977	20.91	35.76	30.87	16.62	3.357	0.487	0.351	0.285	0.319	0.320	0.289	0.289	0.320	0.283	0.242	0.302	0.264
270.0	109.4	43.43	31.78	54.50	211.6	455.6	339.0	440.6	2067	7052	5258	931.8	46.87	8.825	6.286	4.225	2.519	2.244	2.147	1.548	1.335	1.290	1.038	0.925	0.912	0.820	0.771	0.709	0.747	0.709	0.662	0.676	0.819	0.884	0.819	0.727	0.701	0.821	0.727	0.712	0.666	0.691	0.726	0.596	0.517	0.384	0.360	0.350	0.307	0.316	0.326	0.475	0.801	1.308	1.883	2.230	1.893	1.156	1.232	2.215	5.423	10.93	18.43	27.46	29.85	21.23	12.24	3.226	0.488	0.312	0.324	0.318	0.329	0.287	0.311	0.324	0.310
275.0	202.4	63.27	42.04	37.99	82.38	226.8	594.0	416.5	562.5	1824	4980	8853	1213	42.08	9.636	5.680	3.348	2.674	2.487	1.816	1.331	1.406	1.013	1.123	1.061	0.973	0.767	0.928	0.860	0.725	0.747	0.805	1.211	1.055	1.165	1.075	1.031	1.102	1.147	1.075	1.288	1.215	1.010	1.001	0.705	0.562	0.415	0.453	0.414	0.333	0.302	0.388	0.502	0.663	0.824	1.306	2.635	3.240	1.992	1.220	1.770	2.966	4.661	6.920	10.34	21.39	39.85	31.95	17.35	3.182	0.507	0.390	0.337	0.333	0.345	0.342	0.334
280.0	331.3	152.0	79.31	47.41	60.55	115.4	394.9	723.6	369.4	569.7	1618	7833	7602	181.2	22.10	6.641	4.690	3.326	2.708	2.036	1.552	1.551	1.268	1.162	1.074	1.090	0.848	0.831	0.754	0.777	0.759	0.797	1.239	1.343	1.585	1.194	1.361	1.386	1.356	1.403	1.541	1.543	1.270	1.272	0.951	0.719	0.635	0.524	0.540	0.468	0.366	0.420	0.409	0.521	0.638	0.823	1.259	2.469	3.664	2.876	1.719	1.413	1.837	2.287	3.163	6.115	15.86	34.09	46.71	28.61	11.50	1.439	0.419	0.360	0.421	0.339	0.384
285.0	602.5	393.7	235.0	94.66	70.14	103.8	231.3	714.8	753.3	421.5	761.3	2965	9167	7069	134.3	11.05	5.913	4.329	2.766	2.252	1.965	1.744	1.348	1.358	1.079	1.152	0.932	0.918	0.869	0.760	0.758	0.878	1.345	1.720	2.041	1.759	1.674	1.649	1.782	1.859	1.720	1.940	1.691	1.755	1.553	1.498	1.169	0.991	0.832	0.596	0.447	0.524	0.478	0.511	0.621	0.647	0.837	1.304	2.424	3.770	4.056	2.664	1.677	1.950	2.330	2.917	5.387	10.73	23.37	41.03	35.86	24.09	8.500	0.834	0.456	0.470	0.419
290.0	1361	1151	651.7	229.7	120.6	143.1	241.0	539.1	1142	1358	1314	1799	3734	8468	7375	500.5	24.45	5.891	4.053	3.037	2.305	2.085	1.538	1.410	1.322	1.196	1.036	0.916	0.913	0.901	0.814	1.105	1.630	2.848	3.029	2.778	2.510	2.142	2.112	2.313	2.331	2.608	2.684	2.894	2.808	3.045	2.858	2.503	1.874	1.168	0.781	0.789	0.557	0.609	0.719	0.773	1.100	1.285	1.818	2.605	4.063	5.030	5.723	5.206	4.852	4.916	5.724	6.582	9.330	14.44	20.14	32.47	37.29	32.44	16.36	5.397	0.899
295.0	2314	1982	1130	383.9	180.3	201.6	333.1	630.3	1154	2137	2384	2232	2313	2755	6855	7248	641.8	18.29	6.080	4.047	3.098	2.108	2.030	1.741	1.422	1.343	1.201	1.071	1.022	0.918	0.877	1.217	2.105	3.634	4.312	3.693	3.000	2.762	2.759	2.903	3.010	3.443	3.963	4.399	4.660	5.079	4.505	4.018	2.851	1.675	1.138	1.024	0.869	0.868	0.966	1.001	1.353	1.619	2.301	2.810	3.597	5.124	6.715	9.497	10.63	9.342	8.522	8.626	8.695	8.796	9.050	10.37	12.30	21.41	41.18	35.71	23.20
300.0	2782	2577	1375	500.3	234.7	256.6	413.6	755.3	1312	2241	3419	3089	2368	1512	2277	7367	5592	97.30	9.958	5.004	3.668	2.718	2.275	1.857	1.636	1.534	1.217	1.180	1.184	1.017	1.054	1.323	2.240	4.013	5.153	4.645	3.687	3.107	2.951	3.489	3.695	4.049	4.704	5.225	5.755	6.277	5.696	5.305	3.587	2.136	1.467	1.238	0.964	1.044	1.058	1.249	1.655	2.051	2.643	3.290	4.569	5.534	7.129	9.187	12.00	13.82	12.80	11.47	10.15	9.226	7.807	6.312	4.991	6.414	14.51	28.91	45.66
305.0	3089	2855	1553	576.3	288.8	311.7	489.9	869.0	1499	2373	3542	3904	2717	1441	945.3	2701	7455	4296	72.15	7.308	4.536	3.295	2.807	1.950	2.010	1.580	1.342	1.254	1.310	1.045	1.058	1.385	2.454	4.334	5.325	4.879	3.854	3.255	3.287	3.582	3.734	4.310	4.797	5.843	6.484	7.543	6.433	5.951	4.096	2.533	1.578	1.277	0.954	1.089	1.162	1.392	1.794	2.258	3.087	4.009	4.794	6.380	7.550	9.840	11.65	13.58	15.19	15.10	11.79	10.24	8.531	5.958	4.041	3.484	4.849	8.406	18.80
310.0	3274	3047	1641	648.2	345.2	385.9	590.8	1011	1685	2567	3473	4003	3388	1774	855.1	910.4	2529	5866	4744	322.1	15.75	4.630	3.384	2.624	2.292	1.876	1.535	1.495	1.354	1.208	1.166	1.379	2.210	4.098	5.227	4.477	3.734	3.342	3.478	3.411	3.831	4.519	5.165	6.279	7.130	7.689	6.909	6.132	4.367	2.633	1.775	1.454	1.214	1.314	1.382	1.551	1.981	2.708	3.588	4.479	5.744	7.082	8.571	10.58	11.84	13.03	13.91	14.91	14.71	13.33	10.47	7.347	4.901	3.853	3.233	3.744	5.770
315.0	3457	3143	1748	699.0	400.9	463.1	699.0	1165	1876	2741	3554	3858	3538	2468	1148	643.9	737.8	1508	4416	4955	449.7	10.95	4.662	3.312	2.506	2.077	1.836	1.705	1.319	1.595	1.160	1.459	2.155	3.705	4.847	4.390	3.644	3.425	3.391	3.489	4.048	4.574	5.344	6.523	7.505	8.025	7.143	6.327	4.609	2.897	1.865	1.677	1.517	1.401	1.706	2.037	2.378	3.251	3.983	5.093	6.400	7.578	9.447	11.15	12.39	13.60	13.76	14.16	13.54	13.66	12.88	10.44	6.861	5.119	4.093	3.351	3.155
320.0	3495	3184	1765	729.3	459.4	510.3	793.6	1297	2027	2871	3651	3873	3431	2732	1580	690.5	376.1	400.3	1314	5062	4150	69.95	7.593	4.083	3.380	2.196	1.843	1.793	1.677	1.476	1.308	1.460	2.091	3.301	4.403	3.926	3.413	3.148	3.308	3.563	4.090	4.759	5.946	6.595	7.560	8.291	7.315	6.599	4.370	2.922	2.047	1.811	1.690	1.656	1.802	2.259	2.722	3.447	4.458	5.540	6.994	7.808	9.660	11.38	12.59	13.46	13.91	13.88	13.67	13.36	11.91	11.18	9.715	7.070	4.946	3.593	2.844
325.0	3671	3297	1793	776.0	519.8	583.2	866.6	1407	2158	3008	3746	3942	3468	2701	1944	883.4	326.5	162.2	326.9	1724	5480	3148	55.52	5.741	4.217	2.884	2.456	1.735	1.768	1.489	1.538	1.376	1.933	3.224	3.963	3.524	3.159	3.214	3.152	3.409	3.929	4.923	5.924	6.673	7.839	8.522	7.356	6.654	4.681	2.876	2.012	1.925	1.835	1.902	2.004	2.606	3.034	3.792	4.810	5.442	7.026	8.517	9.967	11.55	13.05	13.49	14.18	13.99	14.06	13.24	11.69	10.28	9.834	8.730	6.596	4.654	3.212
330.0	3819	3353	1869	826.3	579.2	659.8	965.5	1539	2290	3152	3869	4060	3591	2780	1932	1176	461.9	122.9	109.6	413.7	1766	3946	3585	258.1	14.98	3.724	2.873	2.303	1.884	1.652	1.555	1.489	1.971	2.805	3.324	3.360	2.987	3.136	3.256	3.561	4.012	5.135	6.142	6.749	7.780	8.739	7.416	6.629	4.653	3.094	2.175	2.068	1.905	2.066	2.185	2.777	3.245	4.313	5.043	5.954	7.500	9.298	10.69	11.97	13.35	14.31	14.81	14.32	14.20	13.58	12.38	11.09	9.760	8.357	6.988	6.191	4.705
335.0	3920	3430	1913	905.4	632.8	708.6	1064	1633	2388	3234	3924	4105	3673	2884	1917	1119	695.9	205.6	69.36	120.4	414.5	986.3	3146	3926	394.6	11.25	3.737	2.764	2.316	1.916	1.513	1.765	1.852	2.420	2.924	2.980	2.939	3.276	3.241	3.647	4.306	5.280	6.391	7.135	8.107	9.012	7.529	6.834	4.814	3.167	2.440	2.431	2.078	2.220	2.509	2.767	3.556	4.364	5.387	6.312	7.743	9.515	10.96	12.13	13.35	14.08	14.62	14.20	14.47	14.02	12.82	11.16	10.29	7.972	6.195	5.561	4.823
340.0	3915	3422	1888	907.6	657.4	743.5	1074	1636	2380	3221	3872	4061	3639	2907	1920	1031	641.8	371.8	87.28	57.22	116.4	239.9	916.1	3853	3503	60.15	6.319	3.301	2.666	2.141	1.844	1.653	1.934	2.499	2.615	2.730	3.063	3.122	3.330	3.454	4.113	4.943	6.508	7.251	8.535	8.684	7.321	6.730	4.735	3.299	2.366	2.494	2.189	2.284	2.664	2.908	3.569	4.562	5.088	6.578	8.139	9.189	10.98	12.10	14.03	14.08	14.48	14.30	14.01	13.33	12.41	11.62	10.57	8.413	6.264	5.129	3.988
345.0	3841	3393	1861	881.7	670.0	748.8	1074	1624	2351	3126	3728	3893	3541	2857	1884	975.2	492.2	413.3	202.7	53.68	53.02	77.07	225.4	1258	4335	2775	50.03	4.874	3.305	2.472	1.989	2.061	1.994	2.283	2.455	2.820	2.726	3.266	3.134	3.239	4.048	4.955	6.308	6.926	8.140	8.571	7.277	6.650	4.640	3.211	2.315	2.498	2.133	2.227	2.539	2.893	3.529	4.427	5.197	6.456	8.018	9.312	10.72	11.33	13.25	13.49	13.92	13.75	13.17	12.70	11.75	11.75	10.79	8.514	6.383	4.708	3.702
350.0	3573	3152	1760	838.7	628.1	713.0	1013	1524	2190	2883	3430	3572	3271	2666	1779	908.5	409.4	255.9	285.8	153.8	56.22	45.31	73.48	302.4	1347	3002	2755	233.7	15.30	3.244	2.372	2.416	1.980	2.287	2.269	2.403	2.708	2.935	2.846	3.307	3.662	4.811	5.643	6.576	7.714	8.206	7.040	6.119	4.328	2.981	2.296	2.275	2.156	2.177	2.397	2.689	3.483	4.189	4.932	6.127	7.321	8.577	9.846	10.97	12.35	12.86	12.83	12.53	12.45	12.07	11.18	10.45	9.859	7.826	5.800	4.650	3.472
355.0	3249	2857	1613	785.7	601.9	667.5	939.4	1402	1986	2582	3063	3197	2920	2419	1613	828.2	367.7	174.8	168.6	255.9	149.1	49.00	44.82	91.00	318.3	728.9	2094	3477	380.3	15.05	3.207	2.929	2.276	2.174	2.227	2.383	2.527	2.649	2.491	3.136	3.645	4.497	5.093	5.958	6.679	7.576	6.426	5.498	3.868	2.685	2.162	2.088	2.175	2.065	2.284	2.660	2.976	3.875	4.476	5.582	6.794	7.556	8.859	10.09	11.11	11.17	11.16	11.69	11.12	10.65	9.704	9.300	8.858	7.109	5.323	4.062	3.192
360.0	2979	2650	1472	723.6	571.9	624.4	866.4	1270	1791	2371	2765	2903	2649	2201	1476	755.9	339.2	155.2	115.7	190.1	244.1	78.75	43.20	47.22	91.70	180.1	572.3	2918	3213	306.4	7.641	3.370	2.508	2.459	2.296	2.238	2.223	2.568	2.589	2.940	3.430	4.166	4.924	5.280	6.130	6.874	5.851	5.145	3.746	2.416	1.943	1.948	1.923	2.065	2.054	2.490	2.899	3.419	4.390	5.021	6.288	6.932	7.960	8.972	9.438	10.04	10.05	10.84	10.29	10.09	9.079	8.778	7.666	6.513	4.906	3.716	3.007
365.0	2719	2418	1369	662.9	521.2	584.8	795.3	1160	1635	2131	2516	2606	2410	1998	1347	700.3	322.3	152.3	106.4	117.6	226.2	187.6	61.62	39.92	44.52	58.73	143.6	869.3	3364	2695	50.77	5.448	3.019	2.586	2.335	2.392	2.159	2.257	2.505	2.640	3.107	3.734	4.526	5.059	5.598	6.235	5.515	4.641	3.291	2.379	1.669	1.942	1.790	1.941	1.827	2.332	2.607	3.421	3.793	4.599	5.704	6.180	7.169	8.078	8.544	9.028	9.018	9.501	9.319	9.117	8.215	7.776	7.223	5.863	4.732	3.480	2.673
370.0	2398	2089	1200	611.2	477.4	529.9	703.9	1016	1416	1853	2169	2249	2085	1729	1169	619.3	294.6	149.4	105.0	95.32	129.9	199.6	158.7	56.90	37.71	35.32	49.00	207.8	975.9	2421	2685	984.7	16.16	3.261	2.636	2.396	2.300	2.287	2.247	2.456	2.842	3.265	4.033	4.421	5.054	5.571	4.759	4.249	2.967	2.012	1.613	1.628	1.649	1.729	1.678	2.061	2.352	2.845	3.416	4.129	5.021	5.652	6.439	7.189	7.817	7.862	8.020	8.112	8.336	7.883	7.117	7.007	6.229	5.114	4.117	3.123	2.490
375.0	2005	1782	1049	535.1	416.5	456.0	603.1	850.4	1187	1548	1816	1891	1747	1452	986.6	530.8	267.0	144.6	109.5	95.49	92.40	117.8	193.2	145.7	50.81	33.37	30.05	60.94	227.8	571.0	1703	4434	359.2	17.43	3.170	2.476	2.349	2.152	2.234	2.073	2.477	2.974	3.407	3.982	4.470	4.499	4.061	4.060	2.538	1.797	1.523	1.495	1.528	1.632	1.579	1.808	2.161	2.477	2.917	3.250	4.209	4.788	5.564	5.906	6.165	6.723	6.755	6.955	7.063	6.533	6.155	5.991	5.517	4.060	3.601	2.871	2.017
380.0	1732	1540	903.9	485.7	390.3	406.3	542.2	742.4	1035	1341	1573	1630	1515	1260	860.5	465.8	246.9	142.6	111.0	96.41	88.16	87.39	135.1	198.0	96.47	38.24	28.05	29.13	62.18	137.3	444.9	3056	2982	293.6	8.105	2.927	2.486	2.421	2.021	2.094	2.297	2.710	2.891	3.550	3.970	4.173	3.473	3.407	2.329	1.623	1.320	1.444	1.362	1.352	1.618	1.651	1.874	2.268	2.807	2.887	3.456	4.046	4.849	5.117	5.514	6.071	5.797	5.886	6.094	5.604	5.382	5.075	5.035	3.633	2.858	2.307	2.025
385.0	1571	1352	807.2	436.1	352.3	377.6	477.0	653.6	912.7	1169	1360	1421	1306	1101	757.5	409.8	227.0	138.1	112.2	98.01	89.55	81.16	90.60	159.6	161.8	57.78	30.49	23.34	27.78	41.54	109.1	858.9	3095	2651	42.68	4.376	2.511	2.263	2.066	2.086	2.135	2.278	2.750	2.963	3.654	3.727	3.046	2.845	2.098	1.510	1.296	1.395	1.305	1.309	1.513	1.486	1.682	1.861	2.407	2.853	2.927	3.545	3.993	4.441	4.766	4.978	5.167	5.146	5.428	4.993	4.498	4.707	4.071	3.376	2.730	2.123	1.960
390.0	1283	1171	682.0	381.3	313.7	323.6	403.4	553.8	758.1	962.8	1123	1175	1079	908.1	636.0	357.4	209.3	136.5	111.8	100.3	91.28	82.86	79.67	95.51	145.9	130.9	50.73	28.01	22.83	23.26	35.91	202.6	846.5	2308	2269	639.7	14.52	2.744	2.198	2.011	1.873	2.265	2.419	2.686	3.111	3.152	2.770	2.384	1.907	1.321	1.135	1.294	1.161	1.205	1.324	1.326	1.492	1.641	2.057	2.500	2.579	3.218	3.507	3.697	3.930	4.088	4.521	4.324	4.412	4.183	3.950	3.938	3.455	2.874	2.377	2.027	1.704
395.0	1067	940.3	575.3	337.1	272.0	290.3	348.0	463.7	620.2	792.7	910.3	956.1	873.7	741.2	525.5	309.3	189.8	135.7	114.8	102.8	94.03	86.23	80.46	76.79	88.02	134.7	122.2	45.38	27.36	23.83	23.98	57.42	198.7	535.6	1304	2492	293.6	18.86	2.634	2.015	1.935	2.095	2.289	2.384	2.522	2.845	2.487	2.050	1.652	1.179	1.086	1.169	1.038	1.186	1.000	1.187	1.361	1.475	1.703	2.120	2.251	2.656	2.935	3.051	3.395	3.602	3.458	3.606	3.551	3.434	3.170	3.200	2.912	2.512	2.065	1.914	1.535
400.0	884.4	807.1	489.4	297.2	250.0	261.6	304.3	408.0	536.7	681.7	785.6	814.6	752.2	630.2	450.3	277.8	180.1	133.2	112.7	103.0	96.01	86.91	81.38	74.34	70.20	92.58	146.2	87.97	36.16	27.73	23.83	28.18	55.40	128.7	331.1	1586	2119	263.3	7.330	2.144	1.943	2.262	2.038	2.114	2.385	2.655	2.082	1.822	1.416	1.126	1.001	1.101	1.034	1.017	0.985	0.995	1.242	1.389	1.510	1.771	1.995	2.259	2.407	2.630	3.081	3.151	3.012	3.005	3.157	3.014	2.681	2.690	2.589	2.277	1.735	1.583	1.423
405.0	792.6	693.9	449.4	272.9	224.7	234.0	274.8	358.5	472.0	602.2	682.8	697.6	649.5	552.0	400.8	253.4	172.9	133.4	116.4	103.9	97.67	86.78	82.50	75.82	67.14	69.88	114.0	133.0	58.28	32.53	27.27	23.68	25.77	38.90	82.61	428.5	1739	2065	38.08	3.768	2.092	2.198	1.971	1.962	2.194	2.307	2.056	1.753	1.367	1.050	0.905	0.992	0.921	1.015	0.926	1.019	1.334	1.328	1.403	1.631	1.841	1.931	2.213	2.340	2.622	2.700	2.683	2.728	2.741	2.566	2.575	2.419	2.160	1.831	1.559	1.417	1.240
410.0	633.8	575.7	385.1	244.7	207.6	212.8	244.9	312.4	408.3	507.3	584.4	591.0	538.9	460.4	340.5	224.3	162.9	130.2	115.4	104.8	97.29	91.19	84.30	77.27	69.86	65.90	75.95	110.8	114.9	60.45	33.39	26.72	22.82	21.54	27.90	103.0	464.5	1497	1447	472.6	12.29	2.464	1.963	1.844	1.954	1.916	1.691	1.630	1.203	0.957	0.864	0.911	0.884	1.053	0.905	0.975	1.065	1.159	1.231	1.455	1.620	1.806	1.982	2.142	2.209	2.236	2.365	2.362	2.291	2.217	2.086	2.054	1.968	1.669	1.429	1.281	1.166
415.0	493.9	498.3	334.7	218.4	196.1	192.3	216.8	271.5	343.8	433.2	499.8	503.5	450.8	382.7	291.1	201.4	152.3	124.9	113.3	104.0	96.55	91.98	86.56	78.12	72.18	67.91	66.04	74.41	109.6	112.5	52.42	32.43	24.76	19.59	17.51	31.03	109.5	346.9	771.1	1734	261.4	15.19	2.354	1.786	1.826	1.766	1.528	1.405	1.112	0.831	0.788	0.818	0.868	1.030	0.863	0.839	0.913	1.115	1.200	1.305	1.553	1.550	1.724	1.682	1.922	1.913	1.890	1.915	2.044	1.986	1.785	1.808	1.626	1.508	1.241	1.170	1.042
