Sample:	'1
File name:	Default_20230920_165623.FD3
Run date:	'16:50:02, 09/20/2023
Operator:	user
Comment:	'

Instrument
Model:	F-2700 FL Spectrophotometer
Serial number:	2190-003
ROM Version:	4J14000 07

Instrument parameters
Measurement type:	3-D scan
Data mode:	Fluorescence
EX  Start WL:	220.0 nm
EX  End WL:	600.0 nm
EX Sampling interval:	5.0 nm
EM  Start WL:	230.0 nm
EM  End WL:	650.0 nm
EM Sampling interval:	5.0 nm
Scan speed:	12000 nm/min
EX Slit:	5.0 nm
EM Slit:	5.0 nm
PMT Voltage:	700 V
Response:	Auto 
Corrected spectra:	Off
Contour interval:	50.000

Peak integration
Integration method:	Rectangular
Sensitivity:	1
Threshold:	1.000

Peaks
No.	ApexEX/EM(nm)	Height(Data)
1	245.0/265.0	-15.21
2	250.0/270.0	46.86
3	255.0/275.0	140.7
4	260.0/285.0	223.1
5	260.0/565.0	28.93
6	265.0/290.0	276.1
7	265.0/395.0	 1043
8	265.0/575.0	20.55
9	270.0/295.0	454.0
10	270.0/440.0	736.9
11	270.0/590.0	12.81
12	275.0/305.0	567.0
13	275.0/600.0	15.98
14	280.0/310.0	556.7
15	280.0/615.0	12.49
16	285.0/315.0	537.6
17	285.0/625.0	3.167
18	290.0/320.0	526.8
19	290.0/640.0	3.206
20	295.0/330.0	411.9
21	300.0/335.0	385.3
22	305.0/340.0	418.9
23	310.0/345.0	369.9
24	315.0/355.0	377.8
25	320.0/360.0	414.9
26	325.0/365.0	414.5
27	335.0/280.0	-10.65
28	335.0/380.0	500.9
29	340.0/385.0	522.0
30	345.0/615.0	-5.469
31	350.0/400.0	501.6
32	355.0/235.0	-9.046
33	355.0/405.0	507.7
34	365.0/265.0	-8.168
35	370.0/425.0	340.8
36	375.0/265.0	-7.381
37	385.0/260.0	-6.831
38	415.0/485.0	84.29
39	430.0/505.0	53.27
40	440.0/515.0	39.91
41	445.0/525.0	32.72
42	450.0/530.0	26.24
43	490.0/385.0	-1.368
44	495.0/375.0	-1.359
45	495.0/425.0	-1.847
46	520.0/380.0	-1.461
47	525.0/390.0	-1.482
48	530.0/385.0	-1.184
49	545.0/300.0	-2.701
50	545.0/415.0	-1.807
51	550.0/305.0	-2.421
52	565.0/315.0	-2.563
53	580.0/435.0	-1.897
54	585.0/465.0	-2.744

Data points
	220.0	225.0	230.0	235.0	240.0	245.0	250.0	255.0	260.0	265.0	270.0	275.0	280.0	285.0	290.0	295.0	300.0	305.0	310.0	315.0	320.0	325.0	330.0	335.0	340.0	345.0	350.0	355.0	360.0	365.0	370.0	375.0	380.0	385.0	390.0	395.0	400.0	405.0	410.0	415.0	420.0	425.0	430.0	435.0	440.0	445.0	450.0	455.0	460.0	465.0	470.0	475.0	480.0	485.0	490.0	495.0	500.0	505.0	510.0	515.0	520.0	525.0	530.0	535.0	540.0	545.0	550.0	555.0	560.0	565.0	570.0	575.0	580.0	585.0	590.0	595.0	600.0
230.0	-322.8	-304.5	-186.4	-123.3	-148.2	-135.9	-110.2	-93.17	-83.25	-71.34	-65.64	-57.31	-46.07	-41.84	-33.40	-27.29	-24.44	-19.94	-17.84	-16.57	-15.31	-14.27	-13.70	-11.87	-11.37	-10.79	-9.539	-9.523	-9.239	-9.440	-8.656	-8.599	-8.026	-7.069	-6.643	-6.301	-6.222	-6.089	-6.142	-5.717	-5.471	-5.632	-5.511	-5.341	-5.006	-5.130	-4.176	-4.622	-3.887	-3.343	-3.219	-4.038	-4.238	-4.192	-4.360	-4.177	-4.429	-4.367	-4.148	-4.429	-4.350	-4.595	-4.467	-4.574	-4.608	-4.715	-4.681	-4.828	-4.508	-4.869	-4.820	-4.754	-4.855	-4.654	-4.595	-4.846	-5.117
235.0	-347.8	-291.3	-239.7	-15.21	121.2	-64.78	-120.7	-95.54	-82.40	-76.71	-66.65	-56.23	-51.84	-42.61	-38.58	-26.00	-22.87	-20.36	-18.65	-16.31	-15.20	-13.20	-11.90	-12.75	-11.06	-11.21	-9.513	-9.046	-9.970	-10.29	-9.015	-7.970	-6.999	-6.454	-6.495	-6.039	-6.095	-5.784	-6.100	-5.608	-5.195	-5.873	-5.648	-5.179	-5.418	-5.052	-4.606	-4.538	-4.338	-3.666	-3.105	-3.191	-3.765	-4.296	-4.033	-4.463	-4.415	-4.689	-4.387	-4.144	-4.399	-4.910	-4.384	-4.506	-4.610	-4.789	-4.669	-4.651	-4.545	-4.461	-4.816	-4.241	-4.689	-4.744	-4.266	-4.589	-4.695
240.0	-338.4	-293.1	-234.9	-95.99	422.9	368.2	-78.32	-84.34	-90.88	-79.77	-70.96	-52.93	-47.97	-42.93	-36.68	-25.47	-24.54	-18.40	-20.16	-16.27	-14.23	-15.04	-13.59	-10.82	-10.17	-11.14	-9.730	-9.474	-10.05	-9.802	-8.483	-8.146	-7.687	-7.429	-6.525	-6.368	-6.035	-6.308	-5.725	-5.504	-5.641	-6.060	-6.058	-5.235	-5.450	-5.410	-4.605	-4.806	-3.774	-3.547	-3.112	-3.722	-3.276	-2.965	-3.381	-4.274	-4.782	-4.431	-4.783	-4.119	-4.829	-4.288	-4.662	-4.393	-4.568	-4.502	-4.796	-4.413	-4.714	-4.692	-4.707	-4.951	-4.497	-4.860	-4.486	-4.638	-5.002
245.0	-331.3	-316.4	-236.5	-184.5	175.3	989.8	465.1	-60.03	-84.30	-73.42	-68.25	-54.94	-46.11	-41.79	-33.79	-26.70	-22.36	-19.00	-20.38	-16.50	-14.79	-12.53	-11.86	-10.87	-11.28	-10.48	-11.51	-10.57	-9.772	-8.972	-8.780	-9.404	-6.838	-7.204	-7.303	-6.120	-6.449	-6.069	-5.969	-5.707	-5.385	-6.080	-5.203	-5.412	-5.110	-5.400	-4.310	-5.159	-3.932	-3.086	-3.206	-4.358	-3.378	-2.542	-1.498	-2.439	-4.060	-4.602	-4.330	-3.962	-4.504	-4.314	-4.317	-4.622	-4.631	-4.215	-4.635	-3.992	-4.567	-4.250	-4.594	-5.076	-4.664	-4.617	-4.785	-4.870	-5.062
250.0	-306.3	-318.2	-236.9	-183.1	-76.68	369.7	 1148	 1015	115.3	-67.50	-59.89	-55.15	-48.27	-37.66	-34.08	-24.66	-23.36	-20.76	-18.95	-17.11	-14.97	-12.69	-11.66	-11.30	-11.34	-10.07	-9.517	-9.604	-9.900	-9.230	-9.426	-8.784	-7.926	-7.505	-6.990	-5.984	-6.493	-6.267	-5.956	-5.580	-5.825	-5.634	-5.363	-5.293	-4.824	-4.961	-4.339	-4.329	-3.815	-3.401	-3.276	-4.107	-3.787	-3.988	-3.057	-2.123	-2.197	-1.668	-3.088	-4.199	-4.641	-4.584	-4.782	-4.569	-4.496	-4.474	-4.584	-4.518	-5.001	-4.395	-4.715	-4.795	-4.709	-4.596	-4.778	-4.908	-5.349
255.0	-328.4	-277.4	-250.7	-168.2	-107.2	-0.681	285.1	 1632	 1739	144.0	-55.45	-56.71	-46.61	-38.90	-31.83	-26.09	-24.07	-23.22	-17.45	-18.38	-13.52	-13.79	-11.74	-11.86	-11.66	-9.730	-9.931	-10.01	-9.967	-9.387	-9.265	-9.783	-8.281	-8.005	-7.350	-6.214	-6.009	-6.171	-6.317	-6.525	-5.895	-5.768	-5.467	-5.495	-5.272	-4.912	-4.626	-4.524	-3.780	-3.503	-3.461	-3.869	-3.819	-4.295	-4.366	-3.641	-3.435	-2.123	0.411	0.208	-3.111	-4.535	-4.924	-4.384	-4.258	-4.366	-4.893	-4.572	-4.846	-4.640	-4.641	-4.361	-4.697	-5.028	-4.822	-5.000	-5.162
260.0	-318.7	-291.3	-259.4	-167.4	-71.27	-85.87	-14.26	592.5	 2324	 1454	48.05	-59.55	-45.38	-37.66	-33.10	-30.18	-23.61	-21.72	-18.04	-17.09	-14.77	-14.24	-12.35	-12.16	-10.97	-11.12	-10.04	-9.561	-10.00	-9.013	-8.893	-8.215	-7.970	-6.831	-7.836	-6.643	-6.365	-6.157	-5.721	-6.175	-5.636	-5.596	-5.880	-4.933	-5.145	-4.912	-4.304	-4.615	-4.085	-3.720	-3.599	-3.350	-3.691	-4.084	-4.389	-4.413	-3.833	-4.032	-2.253	0.743	-0.027	-0.645	-3.822	-4.495	-3.875	-4.171	-4.788	-4.823	-4.238	-4.637	-4.507	-4.742	-4.586	-4.473	-4.501	-5.315	-5.362
265.0	-292.9	-267.3	-227.8	-191.2	-94.66	-15.21	-60.58	66.85	 1019	 2732	 1158	-19.76	-51.26	-39.75	-27.54	-29.02	-22.26	-19.44	-17.92	-16.13	-15.43	-13.64	-11.76	-12.44	-11.61	-10.75	-10.34	-9.987	-10.22	-8.168	-9.191	-7.381	-8.440	-7.653	-7.469	-6.025	-5.720	-6.192	-6.242	-5.409	-5.784	-5.484	-5.528	-5.277	-5.171	-5.252	-4.358	-4.191	-3.822	-3.404	-3.483	-3.907	-4.078	-3.953	-3.722	-4.135	-4.517	-4.953	-3.830	-3.467	-1.519	1.132	0.815	-1.823	-3.416	-4.409	-4.621	-4.688	-4.703	-4.676	-4.431	-4.527	-4.157	-4.536	-4.909	-4.771	-5.081
270.0	-310.8	-286.7	-236.4	-187.4	-133.1	-47.59	46.86	-4.096	185.4	 1048	 2333	 1729	192.1	-38.93	-27.72	-27.87	-22.50	-20.21	-18.15	-16.22	-14.96	-13.92	-12.25	-12.33	-10.90	-10.62	-9.975	-9.746	-9.878	-9.319	-9.457	-7.774	-7.951	-7.775	-7.310	-6.370	-6.212	-6.156	-5.927	-5.549	-5.471	-5.602	-5.909	-5.153	-5.477	-5.194	-4.290	-4.382	-4.276	-3.464	-3.696	-4.053	-3.989	-4.379	-3.707	-3.998	-3.985	-4.512	-3.845	-4.465	-3.780	-2.782	-1.304	-0.055	1.924	0.184	-2.630	-4.282	-4.764	-4.595	-4.298	-4.663	-4.498	-4.298	-4.897	-5.124	-5.222
275.0	-334.4	-266.3	-224.6	-196.6	-162.4	-101.7	25.97	140.7	28.27	198.3	633.3	 2368	 2522	179.7	-31.07	-27.62	-20.51	-17.88	-17.31	-16.03	-15.19	-13.63	-11.98	-11.11	-11.67	-10.10	-10.57	-10.41	-8.826	-9.609	-8.730	-7.557	-7.552	-8.374	-7.158	-5.660	-5.835	-5.985	-5.929	-5.931	-5.564	-5.541	-4.997	-5.099	-5.195	-5.412	-4.450	-4.002	-4.301	-3.442	-3.420	-4.239	-4.124	-4.204	-4.309	-4.054	-4.005	-3.477	-3.592	-4.188	-4.228	-3.772	-3.655	-3.388	-2.193	0.142	4.413	1.814	-2.078	-4.401	-4.536	-4.678	-4.653	-4.540	-5.099	-5.117	-5.121
280.0	-329.9	-280.4	-237.0	-198.6	-167.3	-113.8	-77.70	121.1	147.0	29.23	130.7	802.6	 3178	 1009	50.45	-25.58	-21.97	-18.27	-16.93	-17.49	-16.20	-13.25	-13.49	-10.65	-12.21	-10.69	-10.98	-10.07	-9.865	-9.581	-8.987	-8.782	-8.613	-7.828	-6.872	-5.928	-6.003	-6.606	-6.142	-6.049	-5.671	-5.426	-5.608	-4.518	-4.473	-4.794	-4.067	-4.249	-4.121	-2.869	-3.541	-4.078	-4.316	-4.306	-4.200	-4.252	-4.081	-4.335	-3.812	-3.707	-3.861	-3.756	-4.165	-3.834	-3.973	-3.468	-0.670	3.250	6.460	0.390	-3.593	-4.524	-4.682	-4.259	-4.825	-4.570	-5.093
285.0	-335.5	-280.3	-246.6	-198.8	-158.8	-128.2	-100.7	-2.238	223.1	100.8	25.69	197.0	 1288	 3308	739.2	-0.992	-21.58	-19.77	-18.32	-15.39	-15.88	-13.28	-13.49	-12.23	-12.18	-10.98	-9.585	-9.374	-10.14	-9.620	-9.807	-8.822	-7.540	-7.462	-7.352	-6.485	-5.969	-5.926	-6.002	-5.715	-5.465	-5.738	-5.684	-4.953	-4.991	-4.765	-4.565	-3.968	-3.927	-3.455	-3.226	-4.176	-3.773	-4.534	-4.278	-4.339	-4.390	-4.267	-4.035	-3.420	-3.541	-3.649	-4.307	-4.300	-3.765	-4.083	-3.678	-2.208	1.881	5.612	4.535	-1.416	-4.496	-4.554	-4.695	-4.984	-5.013
290.0	-323.5	-270.0	-221.6	-190.0	-146.7	-120.1	-79.92	-46.94	85.83	276.1	199.2	115.9	362.6	 1326	 2632	 1662	137.0	-19.22	-18.08	-15.85	-14.77	-12.46	-11.99	-12.07	-10.84	-10.28	-9.492	-10.05	-9.595	-9.177	-8.609	-8.033	-7.790	-7.409	-6.621	-6.685	-6.031	-6.434	-6.381	-6.315	-5.662	-5.945	-5.738	-5.325	-5.182	-4.775	-4.695	-4.228	-4.166	-3.460	-3.486	-4.258	-3.808	-4.326	-4.068	-4.218	-4.569	-4.206	-4.339	-4.232	-3.974	-3.535	-3.538	-4.169	-3.961	-4.237	-4.194	-3.854	-2.748	-1.378	1.388	2.947	3.236	0.819	-2.447	-4.401	-5.242
295.0	-337.9	-292.2	-227.9	-179.1	-151.4	-118.2	-76.22	-42.72	7.167	142.4	454.0	274.7	178.5	370.5	759.9	 2632	 2302	128.7	-17.31	-16.59	-14.35	-11.83	-12.73	-11.23	-10.38	-10.38	-9.909	-8.955	-9.687	-8.703	-8.609	-8.208	-7.965	-7.868	-6.610	-6.423	-5.812	-6.397	-6.177	-5.969	-5.907	-5.591	-5.332	-5.778	-5.298	-5.169	-4.799	-4.118	-4.321	-3.712	-2.963	-3.928	-3.761	-4.215	-4.154	-4.439	-4.269	-4.496	-4.123	-4.244	-4.262	-4.315	-3.713	-3.050	-3.181	-3.930	-4.113	-3.864	-3.685	-3.867	-2.974	-3.032	-1.795	2.152	6.701	3.635	-2.687
300.0	-329.5	-275.6	-226.1	-151.1	-124.5	-100.5	-59.92	-30.67	-0.024	101.0	329.7	550.9	247.8	177.2	211.9	928.3	 3235	 1659	41.78	-13.86	-13.10	-13.37	-12.80	-11.39	-11.15	-10.51	-10.31	-9.267	-8.955	-8.374	-7.846	-8.538	-8.118	-7.569	-7.144	-7.221	-5.938	-5.895	-5.704	-5.814	-5.168	-5.521	-5.455	-4.910	-5.036	-5.229	-3.811	-4.052	-4.120	-3.471	-2.971	-4.134	-4.130	-4.058	-4.264	-4.583	-4.603	-4.462	-4.500	-4.190	-4.328	-3.901	-4.066	-3.886	-3.360	-2.701	-3.585	-4.037	-3.835	-3.776	-4.180	-4.023	-4.214	-2.634	0.967	6.751	6.484
305.0	-322.3	-275.9	-225.4	-144.9	-121.6	-88.58	-65.42	-13.40	23.36	92.42	226.3	567.0	472.1	163.4	107.3	239.3	 1416	 3382	440.3	4.304	-12.63	-13.13	-11.40	-10.01	-11.26	-11.05	-11.47	-10.22	-9.492	-9.545	-8.549	-7.807	-8.323	-7.872	-7.420	-7.271	-6.387	-6.047	-5.832	-6.158	-5.582	-5.601	-5.551	-4.981	-4.761	-5.257	-4.220	-4.415	-4.011	-3.260	-3.101	-4.060	-4.032	-4.232	-4.032	-4.100	-4.496	-3.747	-4.265	-4.025	-3.567	-4.261	-4.329	-3.766	-3.311	-3.049	-2.421	-3.310	-4.165	-3.802	-4.208	-3.988	-4.025	-3.750	-3.401	-1.333	2.918
310.0	-320.5	-242.7	-229.3	-149.8	-118.1	-72.18	-47.07	-1.558	59.67	102.1	193.9	358.5	556.7	399.3	132.0	97.91	354.8	 1423	 2470	 1430	99.97	-10.91	-10.85	-10.08	-10.64	-9.769	-10.64	-8.957	-9.779	-9.552	-8.356	-8.086	-7.930	-7.576	-7.024	-6.884	-6.158	-5.771	-6.045	-5.765	-5.381	-5.870	-5.405	-5.259	-4.988	-5.056	-4.547	-4.222	-3.843	-3.452	-3.145	-3.903	-4.068	-4.120	-3.924	-4.137	-4.455	-3.805	-3.783	-3.675	-3.625	-3.963	-3.929	-3.984	-3.726	-3.809	-3.545	-3.214	-3.107	-3.251	-4.095	-4.084	-4.444	-4.253	-4.237	-3.997	-3.035
315.0	-285.5	-245.2	-212.8	-163.3	-102.6	-69.82	-24.86	1.560	73.93	125.0	190.1	288.0	365.7	537.6	319.9	101.5	119.7	344.8	774.6	 2691	 1965	100.1	-10.52	-8.994	-10.71	-9.499	-9.546	-9.104	-9.518	-8.576	-8.304	-7.927	-7.958	-7.059	-6.951	-5.918	-6.847	-5.683	-6.203	-5.966	-5.483	-5.973	-5.274	-5.319	-5.202	-4.843	-4.016	-4.552	-4.421	-3.419	-3.095	-3.997	-3.818	-4.302	-3.965	-4.074	-4.397	-4.130	-3.708	-3.481	-4.286	-4.081	-3.793	-3.652	-3.830	-3.797	-3.712	-3.510	-3.626	-2.563	-3.057	-4.033	-3.740	-4.302	-4.141	-4.949	-4.498
320.0	-295.7	-222.3	-204.4	-166.2	-78.72	-39.97	-7.921	17.20	89.78	129.0	229.8	282.4	307.4	403.6	526.8	199.2	90.43	116.7	198.0	 1058	 3162	 1321	27.05	-9.806	-9.795	-9.968	-10.18	-10.33	-9.013	-8.683	-8.404	-7.875	-7.660	-7.151	-7.500	-6.415	-6.593	-6.067	-5.839	-5.996	-5.771	-5.803	-5.171	-5.517	-4.988	-5.708	-4.231	-4.600	-4.287	-3.612	-3.010	-3.950	-3.818	-4.454	-4.140	-4.496	-4.409	-3.939	-4.266	-3.391	-4.178	-4.132	-3.772	-3.395	-3.746	-4.309	-3.363	-2.960	-4.077	-3.165	-3.273	-3.256	-3.703	-4.120	-4.075	-4.540	-4.866
325.0	-299.6	-244.0	-197.1	-133.4	-81.74	-31.02	13.85	67.94	121.7	147.3	223.3	295.6	301.0	318.8	467.5	399.9	131.6	82.20	74.79	268.5	 1556	 3032	308.6	-0.150	-8.545	-9.774	-9.855	-9.109	-9.855	-8.112	-8.478	-8.012	-7.322	-7.290	-7.393	-5.904	-6.392	-6.254	-5.269	-6.380	-5.099	-6.286	-5.446	-5.429	-4.992	-4.960	-4.434	-4.779	-4.405	-3.752	-3.340	-3.862	-3.783	-3.857	-4.015	-4.222	-4.022	-4.102	-4.329	-3.250	-3.675	-4.181	-3.792	-3.665	-3.943	-3.551	-3.881	-2.884	-3.574	-3.642	-3.772	-3.509	-3.506	-3.309	-4.020	-4.782	-4.564
330.0	-311.9	-261.2	-187.4	-93.19	-9.761	35.13	66.36	101.9	141.6	193.2	269.4	311.9	330.8	318.7	337.8	411.9	331.9	137.2	71.64	99.38	394.9	 1424	 2200	 1113	70.04	-8.401	-9.008	-8.729	-9.471	-8.841	-8.296	-8.502	-7.485	-7.491	-7.235	-6.053	-6.455	-6.462	-5.991	-6.085	-5.708	-5.785	-5.593	-5.432	-4.856	-4.813	-4.350	-4.527	-4.393	-3.623	-3.417	-3.914	-3.517	-3.940	-4.081	-3.822	-3.983	-3.959	-4.261	-3.613	-3.669	-3.825	-3.845	-3.698	-3.928	-3.714	-3.332	-3.403	-3.368	-3.763	-3.622	-3.999	-3.681	-3.381	-3.480	-3.675	-4.441
335.0	-315.0	-251.2	-160.8	-50.36	68.93	113.7	179.3	171.3	205.1	252.2	290.7	326.5	363.3	343.1	311.5	310.3	385.3	320.5	126.0	90.16	135.0	349.4	784.4	 2615	 1539	75.24	-7.236	-7.704	-9.284	-10.13	-8.921	-9.148	-7.870	-7.702	-7.013	-5.914	-5.947	-6.290	-6.235	-5.930	-5.262	-5.539	-5.357	-5.432	-5.122	-4.983	-4.820	-4.299	-4.440	-3.431	-3.168	-3.701	-3.249	-3.919	-3.415	-3.645	-3.113	-3.294	-4.331	-3.035	-3.556	-3.626	-3.666	-3.195	-3.794	-3.443	-3.673	-3.610	-3.143	-3.688	-3.295	-3.480	-3.470	-3.653	-3.439	-3.566	-2.762
340.0	-338.5	-250.6	-175.7	-41.83	127.4	221.3	248.0	228.8	243.8	284.4	312.9	348.3	364.9	377.4	343.3	302.4	304.2	418.9	243.6	108.7	93.25	126.7	211.9	 1183	 2914	 1071	23.49	-7.282	-8.066	-8.271	-7.375	-7.316	-7.380	-7.687	-7.244	-5.259	-6.442	-6.151	-6.137	-5.569	-5.067	-5.673	-5.429	-5.430	-5.082	-5.087	-4.599	-4.643	-4.159	-3.463	-3.049	-3.586	-3.419	-3.726	-3.458	-3.313	-3.219	-3.259	-3.800	-3.684	-3.492	-3.468	-4.009	-3.412	-3.217	-3.040	-3.699	-3.588	-3.575	-3.499	-3.373	-3.609	-3.789	-4.020	-4.011	-3.967	-3.909
345.0	-300.2	-268.9	-173.0	8.848	156.8	269.2	333.4	308.1	331.1	354.2	349.4	365.6	393.7	398.8	368.9	327.6	279.3	361.7	369.9	168.2	110.1	96.16	91.90	316.7	 1675	 2793	242.7	1.752	-6.139	-8.099	-7.612	-7.395	-7.370	-7.430	-6.418	-5.706	-5.877	-6.057	-5.843	-5.976	-5.016	-5.147	-5.536	-5.600	-5.488	-5.368	-4.435	-4.350	-3.752	-3.397	-3.109	-3.207	-3.901	-3.070	-2.739	-3.092	-3.252	-3.358	-3.682	-3.155	-3.692	-3.087	-3.400	-3.368	-3.177	-3.237	-3.275	-3.765	-3.607	-3.542	-3.499	-3.665	-3.419	-3.729	-3.826	-4.109	-4.189
350.0	-295.8	-276.3	-177.0	34.78	244.4	403.5	456.8	431.1	422.7	440.2	411.0	407.1	423.0	431.1	401.9	366.6	320.4	308.3	366.8	338.0	189.2	125.2	97.88	125.4	448.1	 1472	 1979	936.0	62.51	-6.651	-7.233	-7.148	-7.778	-7.038	-6.464	-6.155	-6.030	-5.675	-5.799	-6.078	-5.081	-5.492	-5.775	-5.527	-5.417	-5.349	-4.294	-4.093	-3.915	-3.355	-3.036	-3.415	-3.556	-3.268	-2.673	-3.049	-2.792	-3.038	-2.864	-3.296	-3.166	-3.081	-2.968	-3.658	-3.492	-3.306	-3.604	-3.556	-3.380	-3.336	-3.083	-3.352	-3.420	-3.561	-3.615	-3.521	-4.201
355.0	-298.5	-268.5	-105.6	80.08	282.1	488.0	603.3	565.8	562.5	564.1	503.0	497.0	478.5	497.0	471.4	427.3	368.8	327.6	321.7	377.8	364.1	197.4	138.1	114.4	166.4	372.1	827.1	 2471	 1341	58.43	-5.460	-6.474	-7.689	-6.801	-5.901	-6.206	-6.364	-6.675	-5.481	-6.134	-5.060	-5.557	-5.511	-5.144	-4.839	-5.065	-4.411	-4.698	-3.797	-3.213	-2.447	-2.898	-3.207	-2.687	-2.134	-2.616	-2.378	-3.267	-2.543	-3.255	-2.756	-3.108	-2.626	-3.723	-2.851	-3.214	-3.165	-3.096	-2.474	-3.150	-3.075	-3.338	-2.971	-3.552	-3.240	-3.473	-3.788
360.0	-295.1	-292.1	-135.3	75.62	353.9	549.5	680.2	682.2	642.6	669.0	607.3	548.1	527.6	539.6	512.6	475.2	425.1	377.3	340.2	334.6	414.9	314.1	179.5	136.4	119.2	142.4	233.7	 1224	 2684	919.7	17.80	-5.856	-6.934	-6.880	-6.152	-5.874	-6.188	-6.105	-5.301	-6.496	-5.252	-5.645	-5.407	-5.046	-4.939	-5.382	-4.389	-4.287	-4.075	-2.971	-2.761	-3.220	-2.770	-2.744	-2.354	-2.051	-2.650	-2.598	-2.013	-2.404	-2.375	-2.470	-2.488	-3.132	-2.822	-3.439	-3.002	-2.888	-2.481	-3.110	-2.959	-2.723	-2.853	-3.636	-3.208	-3.232	-3.694
365.0	-291.9	-267.3	-149.0	65.70	376.3	560.9	765.0	775.8	776.9	796.4	705.0	632.0	577.5	593.3	552.8	515.2	459.0	409.6	375.6	344.5	376.1	414.5	257.9	170.5	135.3	114.1	107.0	335.7	 1630	 2570	213.3	1.118	-5.127	-6.284	-5.929	-5.791	-5.989	-6.137	-5.050	-5.494	-5.589	-5.437	-5.163	-5.474	-4.968	-5.363	-4.694	-4.593	-4.045	-3.290	-3.460	-3.210	-2.633	-2.596	-1.976	-2.072	-2.637	-2.482	-2.409	-2.399	-2.258	-2.179	-2.377	-3.281	-2.739	-3.087	-3.314	-2.829	-2.587	-3.088	-3.100	-2.947	-3.205	-3.103	-3.224	-3.364	-4.066
370.0	-315.1	-286.5	-125.7	80.14	422.3	684.2	805.4	874.5	862.7	880.7	800.3	712.9	666.7	652.9	616.7	575.6	502.8	468.6	431.1	389.0	379.7	407.8	390.3	271.4	194.3	150.9	118.7	146.8	452.8	 1452	 1877	825.4	56.43	-2.713	-5.495	-5.572	-5.753	-5.928	-5.466	-5.770	-5.126	-5.523	-5.334	-5.251	-4.563	-5.342	-4.267	-4.275	-3.869	-3.084	-3.079	-3.017	-2.347	-2.490	-1.664	-2.009	-2.466	-1.938	-2.027	-1.802	-2.287	-2.121	-2.611	-2.809	-2.616	-2.626	-2.626	-2.830	-3.159	-2.770	-2.864	-2.954	-2.811	-3.545	-3.608	-3.201	-3.662
375.0	-290.6	-285.8	-135.4	76.08	384.3	754.7	896.3	921.5	931.9	948.1	887.6	845.7	789.0	793.6	668.7	638.0	574.7	533.2	491.4	456.5	426.9	408.9	428.2	438.1	296.9	224.4	197.2	188.6	209.8	404.8	914.6	 2502	 1191	61.93	-3.331	-5.185	-5.225	-6.045	-5.513	-5.626	-5.438	-5.121	-5.354	-5.492	-5.258	-5.212	-4.305	-4.144	-3.928	-3.255	-2.702	-2.969	-2.431	-2.287	-1.817	-1.359	-2.596	-2.076	-2.129	-1.932	-1.794	-1.951	-2.623	-1.654	-2.562	-2.402	-2.523	-2.307	-2.661	-1.951	-1.723	-2.830	-2.027	-2.864	-2.893	-3.209	-3.400
380.0	-300.4	-269.5	-114.7	108.7	422.1	734.4	952.9	938.0	967.9	988.6	 1005	923.1	903.4	862.6	731.0	654.4	620.6	554.9	539.3	500.3	474.7	440.7	428.1	500.9	426.2	295.0	266.0	254.0	202.3	207.3	347.8	 1416	 2599	846.5	16.79	-3.784	-4.754	-5.443	-5.673	-5.493	-5.191	-5.822	-6.161	-5.193	-5.580	-5.087	-4.298	-4.115	-3.645	-3.464	-2.784	-3.039	-2.627	-2.319	-1.562	-2.101	-1.915	-1.935	-2.120	-1.977	-1.461	-2.367	-2.047	-2.167	-2.766	-2.066	-2.565	-2.172	-2.206	-2.332	-1.841	-2.903	-2.185	-2.919	-2.980	-2.743	-2.966
385.0	-328.2	-258.4	-154.3	118.2	457.0	760.0	943.4	968.0	957.1	 1020	 1005	942.5	942.6	928.6	771.3	674.1	628.6	600.6	563.2	539.9	509.0	475.7	447.5	481.8	522.0	386.5	327.2	303.7	232.7	188.9	233.2	522.4	 1679	 2369	166.9	0.720	-3.917	-5.198	-4.766	-4.972	-5.646	-5.591	-5.474	-5.301	-4.941	-4.902	-4.510	-4.144	-3.339	-3.185	-2.468	-3.165	-2.378	-2.504	-1.368	-1.443	-2.370	-2.033	-1.286	-2.031	-1.762	-1.604	-1.184	-1.818	-2.545	-2.121	-2.602	-1.774	-2.148	-2.135	-2.328	-2.901	-2.881	-2.755	-3.151	-2.927	-3.290
390.0	-306.8	-283.3	-158.8	89.37	423.9	746.2	907.0	956.8	976.2	 1038	 1002	940.6	914.5	916.3	774.4	684.8	641.8	618.8	583.7	558.8	528.7	508.8	479.6	467.7	493.7	477.4	387.8	318.8	246.4	185.6	195.3	266.5	493.4	 1338	 1544	638.6	41.57	-4.467	-5.264	-5.578	-5.377	-5.014	-5.432	-5.260	-5.051	-4.732	-4.190	-4.234	-3.522	-3.179	-2.593	-3.239	-2.689	-2.156	-1.681	-1.784	-2.121	-1.996	-1.696	-1.958	-1.635	-1.482	-1.487	-2.217	-2.057	-1.865	-1.993	-2.064	-2.242	-2.417	-2.689	-2.488	-2.689	-2.256	-3.095	-2.347	-2.863
