Sample:	'1
File name:	y2025051416—’«≈¥Â«≈.FD3
Run date:	'14:34:34, 05/15/2025
Operator:	Administrator
Comment:	'

Instrument
Model:	F-2700 FL Spectrophotometer
Serial number:	23B8-004
ROM Version:	4J14000 07

Instrument parameters
Measurement type:	3-D scan
Data mode:	Fluorescence
EX  Start WL:	220.0 nm
EX  End WL:	600.0 nm
EX Sampling interval:	5.0 nm
EM  Start WL:	230.0 nm
EM  End WL:	650.0 nm
EM Sampling interval:	5.0 nm
Scan speed:	12000 nm/min
EX Slit:	5.0 nm
EM Slit:	5.0 nm
PMT Voltage:	700 V
Response:	Auto 
Corrected spectra:	Off
Contour interval:	50.000

Peak integration
Integration method:	Rectangular
Sensitivity:	1
Threshold:	1.000

Peaks
No.	ApexEX/EM(nm)	Height(Data)
1	225.0/610.0	57.71
2	230.0/345.0	5918
3	230.0/620.0	59.91
4	240.0/265.0	271.0
5	245.0/270.0	306.1
6	250.0/275.0	406.8
7	255.0/285.0	460.4
8	265.0/585.0	153.5
9	270.0/600.0	129.0
10	275.0/415.0	5916
11	275.0/430.0	5919
12	275.0/615.0	129.9
13	280.0/345.0	3228
14	280.0/625.0	117.1
15	285.0/640.0	94.58
16	335.0/415.0	3736
17	475.0/350.0	15.27
18	505.0/275.0	2.371
19	510.0/280.0	2.698
20	510.0/445.0	17.75
21	515.0/285.0	2.965
22	565.0/345.0	14.70
23	570.0/415.0	19.61

Data points
	220.0	225.0	230.0	235.0	240.0	245.0	250.0	255.0	260.0	265.0	270.0	275.0	280.0	285.0	290.0	295.0	300.0	305.0	310.0	315.0	320.0	325.0	330.0	335.0	340.0	345.0	350.0	355.0	360.0	365.0	370.0	375.0	380.0	385.0	390.0	395.0	400.0	405.0	410.0	415.0	420.0	425.0	430.0	435.0	440.0	445.0	450.0	455.0	460.0	465.0	470.0	475.0	480.0	485.0	490.0	495.0	500.0	505.0	510.0	515.0	520.0	525.0	530.0	535.0	540.0	545.0	550.0	555.0	560.0	565.0	570.0	575.0	580.0	585.0	590.0	595.0	600.0
230.0	36.16	613.4	1847	620.6	32.52	7.944	6.305	5.883	5.189	4.871	4.762	4.449	4.403	3.781	3.270	2.728	2.213	1.919	1.963	1.833	1.759	1.699	1.671	1.555	1.518	1.410	1.320	1.148	1.068	1.098	1.021	0.919	0.772	0.749	0.624	0.591	0.574	0.457	0.392	0.389	0.375	0.406	0.394	0.326	0.313	0.353	0.584	2.958	5.434	4.322	1.902	0.484	0.245	0.252	0.240	0.256	0.260	0.248	0.255	0.242	0.245	0.220	0.247	0.227	0.247	0.273	0.236	0.250	0.235	0.242	0.231	0.224	0.255	0.261	0.268	0.238	0.237
235.0	45.91	175.8	1163	2236	567.5	53.82	6.720	5.978	5.293	4.847	5.004	4.827	4.628	3.738	3.244	2.829	2.230	2.129	2.014	1.676	1.801	1.752	1.749	1.661	1.433	1.440	1.347	1.267	1.246	1.131	1.031	0.960	0.800	0.776	0.677	0.569	0.495	0.493	0.389	0.431	0.355	0.429	0.371	0.387	0.416	0.374	0.367	0.960	2.139	4.253	6.451	7.424	3.573	0.997	0.272	0.245	0.284	0.262	0.281	0.244	0.268	0.247	0.245	0.249	0.242	0.260	0.219	0.238	0.236	0.257	0.248	0.220	0.236	0.263	0.248	0.228	0.273
240.0	74.60	85.71	344.1	1890	2598	451.0	28.19	7.153	5.781	5.962	4.850	5.191	4.609	4.290	3.572	2.772	2.465	2.134	1.814	1.749	1.720	2.160	1.823	1.844	1.640	1.361	1.418	1.344	1.289	1.083	1.089	0.968	0.781	0.764	0.636	0.662	0.474	0.497	0.419	0.404	0.388	0.433	0.374	0.387	0.376	0.426	0.375	0.459	0.672	1.380	3.461	9.347	11.90	8.950	3.169	0.614	0.266	0.288	0.265	0.238	0.256	0.257	0.271	0.237	0.276	0.216	0.218	0.272	0.260	0.270	0.266	0.228	0.225	0.230	0.296	0.264	0.282
245.0	66.56	113.6	121.3	622.7	2741	2718	333.3	15.02	7.243	5.997	5.910	5.270	4.433	4.018	3.980	3.483	2.155	2.125	1.922	1.884	1.812	1.821	1.707	1.778	1.452	1.637	1.304	1.301	1.350	1.118	1.151	0.856	0.736	0.755	0.639	0.574	0.498	0.485	0.504	0.490	0.394	0.362	0.342	0.404	0.372	0.386	0.432	0.613	0.408	0.502	0.967	3.097	8.192	14.20	14.22	7.752	2.385	0.388	0.230	0.274	0.270	0.262	0.252	0.252	0.299	0.235	0.260	0.245	0.275	0.233	0.283	0.214	0.231	0.232	0.271	0.253	0.236
250.0	41.01	86.85	150.7	203.7	857.4	2615	3318	1128	66.69	7.970	7.340	6.104	5.064	4.378	3.640	3.184	2.576	2.293	2.121	1.955	1.951	1.759	1.762	1.743	1.591	1.662	1.308	1.385	1.314	1.139	1.020	0.961	0.777	0.736	0.679	0.635	0.527	0.500	0.472	0.459	0.387	0.403	0.360	0.316	0.344	0.337	0.379	0.593	0.606	0.576	0.523	0.986	2.165	4.645	8.458	13.10	16.72	14.73	8.122	2.420	0.445	0.285	0.261	0.301	0.281	0.257	0.255	0.250	0.276	0.259	0.315	0.262	0.252	0.270	0.277	0.269	0.268
255.0	32.89	39.59	108.8	221.2	263.3	662.8	2577	5029	1515	57.75	9.426	7.339	6.253	5.048	3.934	3.411	2.797	2.500	2.110	1.924	2.072	1.914	1.736	1.771	1.638	1.754	1.361	1.480	1.422	1.207	1.171	0.959	0.847	0.860	0.743	0.596	0.609	0.528	0.389	0.428	0.365	0.388	0.368	0.320	0.421	0.329	0.323	0.389	0.414	0.614	0.742	1.042	0.895	1.315	2.128	3.357	6.326	14.40	26.23	25.35	12.47	2.453	0.361	0.326	0.291	0.276	0.280	0.262	0.282	0.267	0.273	0.279	0.243	0.257	0.278	0.251	0.284
260.0	34.11	30.12	48.85	194.3	235.4	199.0	785.8	4170	5368	270.9	26.19	8.808	7.098	5.282	4.116	3.791	2.818	2.560	2.166	2.270	2.217	1.849	2.015	1.800	1.601	1.609	1.367	1.436	1.503	1.209	1.217	0.984	0.908	0.767	0.711	0.613	0.584	0.531	0.404	0.386	0.428	0.391	0.407	0.362	0.357	0.402	0.336	0.338	0.365	0.358	0.560	1.109	1.149	0.953	0.796	1.060	1.685	4.122	11.68	24.25	32.25	23.41	9.336	1.226	0.354	0.327	0.314	0.263	0.290	0.249	0.332	0.263	0.270	0.274	0.245	0.239	0.284
265.0	35.19	29.58	28.97	97.77	271.0	198.4	218.4	1407	5808	4953	211.9	13.50	7.637	6.488	5.111	3.935	3.361	2.908	2.647	2.218	2.295	1.982	2.002	1.779	1.787	1.631	1.444	1.642	1.359	1.320	1.266	1.046	0.856	0.829	0.702	0.570	0.503	0.548	0.428	0.404	0.412	0.413	0.455	0.407	0.364	0.449	0.393	0.330	0.345	0.263	0.357	0.680	1.155	1.556	1.217	0.671	0.711	1.227	3.043	7.369	18.46	34.51	32.34	20.07	4.862	0.562	0.373	0.357	0.340	0.300	0.343	0.266	0.294	0.284	0.298	0.245	0.283
270.0	41.72	39.95	32.90	50.31	148.7	306.1	230.0	373.4	1897	5374	4887	798.4	41.81	8.925	6.202	4.957	3.959	3.230	2.732	2.414	2.316	2.130	2.125	1.874	1.826	1.608	1.567	1.389	1.359	1.290	1.154	1.039	0.940	0.917	0.740	0.633	0.542	0.557	0.479	0.441	0.435	0.443	0.452	0.391	0.482	0.459	0.372	0.356	0.308	0.292	0.335	0.437	0.609	1.023	1.430	1.614	1.424	0.959	1.078	2.066	4.670	10.23	18.31	29.80	31.96	30.50	13.99	4.359	0.628	0.372	0.354	0.289	0.317	0.305	0.293	0.344	0.265
275.0	76.29	72.32	68.12	62.77	84.76	184.7	406.8	278.6	485.8	1398	4846	8405	1045	31.34	8.451	6.140	4.516	3.460	3.501	2.888	2.384	2.103	2.119	1.947	1.959	1.792	1.658	1.499	1.513	1.367	1.232	1.253	0.952	0.914	0.911	0.758	0.608	0.631	0.488	0.493	0.490	0.460	0.448	0.371	0.530	0.482	0.473	0.459	0.408	0.411	0.344	0.423	0.448	0.616	0.707	1.180	1.872	2.371	1.698	1.090	1.527	2.731	4.609	7.241	10.88	24.90	45.53	32.69	21.16	4.625	0.510	0.399	0.368	0.324	0.323	0.342	0.290
280.0	115.8	132.6	121.4	104.1	92.88	131.1	318.7	417.0	258.9	421.2	1578	7672	7453	146.4	15.94	7.317	5.235	4.057	3.621	3.381	2.708	2.500	2.241	2.107	2.071	1.799	1.769	1.690	1.647	1.387	1.304	1.169	0.982	0.968	0.981	0.889	0.691	0.785	0.659	0.595	0.523	0.473	0.494	0.551	0.592	0.552	0.600	0.574	0.557	0.533	0.397	0.494	0.562	0.587	0.634	0.825	1.176	1.892	2.698	2.264	1.378	1.241	1.713	2.342	3.235	6.958	17.98	36.05	55.38	31.25	14.66	2.172	0.475	0.364	0.334	0.323	0.296
285.0	170.8	217.2	204.9	148.2	128.1	144.9	215.8	460.4	354.1	274.7	542.2	2704	9086	5592	106.1	10.49	6.502	4.748	3.913	3.447	3.123	2.624	2.436	2.121	2.278	2.164	1.828	1.583	1.627	1.390	1.289	1.186	0.962	0.991	1.022	0.954	0.754	0.681	0.740	0.623	0.563	0.567	0.505	0.655	0.615	0.635	0.764	0.814	0.736	0.671	0.606	0.637	0.651	0.796	0.787	0.803	0.881	1.266	1.911	2.965	2.922	1.726	1.434	1.530	1.710	2.487	5.023	10.47	26.18	46.09	55.72	27.24	8.647	0.900	0.399	0.386	0.360
290.0	240.2	318.4	322.5	246.3	186.4	193.9	216.3	319.6	549.7	582.2	472.0	919.2	3068	6758	5607	428.4	22.59	6.826	4.824	4.083	3.516	3.170	2.704	2.522	2.230	2.026	1.762	1.762	1.662	1.615	1.389	1.303	1.100	1.151	1.117	1.048	1.006	0.790	0.753	0.680	0.665	0.616	0.623	0.720	0.708	0.888	0.898	1.077	1.080	0.909	0.866	0.931	0.882	0.936	0.910	1.038	1.092	1.188	1.416	1.727	2.430	3.103	3.338	3.021	2.200	2.170	2.795	3.804	7.446	13.44	24.00	34.45	34.45	37.96	17.80	7.487	1.046
295.0	317.3	427.5	457.6	347.0	265.2	257.6	272.7	321.8	458.9	817.9	843.0	694.0	1060	1879	5197	6415	576.2	18.11	6.752	4.806	3.935	3.393	3.166	2.480	2.593	2.238	2.161	1.923	1.702	1.647	1.460	1.339	1.131	1.180	1.122	1.118	1.057	0.948	0.728	0.728	0.673	0.696	0.654	0.719	0.798	0.981	1.133	1.344	1.397	1.128	1.225	1.237	1.035	1.103	1.243	1.278	1.363	1.568	1.516	1.551	1.645	2.362	2.999	4.454	4.844	4.066	3.110	3.176	3.810	4.902	7.054	9.005	10.66	23.36	44.71	56.83	27.17
300.0	349.0	486.5	555.1	424.5	344.1	339.5	374.3	408.7	521.4	799.3	1233	957.7	800.0	779.0	1710	6732	5282	84.45	11.64	6.264	4.743	4.049	3.336	3.176	2.737	2.452	2.147	1.977	1.806	1.792	1.593	1.442	1.084	1.257	1.088	1.089	1.100	0.875	0.775	0.860	0.675	0.749	0.670	0.706	0.840	1.038	1.256	1.627	1.604	1.442	1.430	1.541	1.458	1.416	1.369	1.492	1.735	1.829	2.001	1.970	2.095	2.536	3.061	4.034	5.398	6.112	5.464	3.846	3.945	3.880	3.911	3.968	4.073	6.701	15.35	35.16	56.32
305.0	387.8	578.3	640.0	534.5	424.0	430.8	497.9	593.2	753.0	987.8	1399	1574	1084	785.1	800.5	2508	7649	3998	64.83	8.971	5.677	4.636	3.766	3.517	2.788	2.488	2.411	1.940	1.939	1.875	1.656	1.488	1.153	1.258	1.149	1.122	1.006	0.994	0.858	0.856	0.690	0.698	0.705	0.835	0.940	1.193	1.317	1.749	1.991	1.761	1.598	1.984	1.773	1.704	1.567	1.918	2.174	2.654	2.662	3.051	3.193	3.564	3.858	4.756	5.185	6.287	7.979	7.164	5.933	4.961	4.502	4.189	3.714	4.047	5.576	10.26	23.17
310.0	427.4	651.7	761.0	636.1	517.7	546.3	645.2	776.7	955.3	1197	1501	1820	1655	1097	803.5	965.1	2766	5525	4600	290.3	16.08	6.318	4.594	3.880	3.162	2.868	2.420	2.359	2.143	1.880	1.701	1.508	1.232	1.278	1.106	1.128	1.015	0.970	0.900	0.834	0.794	0.807	0.873	0.914	1.066	1.261	1.575	1.956	2.157	2.130	1.851	2.263	2.033	2.016	2.102	2.363	2.739	3.165	3.328	3.581	4.014	4.537	4.898	5.635	6.190	6.546	7.680	8.209	8.485	8.153	6.657	5.423	4.671	4.598	4.133	4.649	7.476
315.0	520.2	834.8	923.1	740.4	639.0	635.8	752.4	916.0	1095	1366	1631	1820	1886	1607	1021	760.6	1046	1575	4354	4488	416.2	13.73	6.224	4.787	3.879	3.212	2.633	2.495	2.274	1.852	1.986	1.654	1.551	1.263	1.251	1.074	1.043	0.975	0.948	0.789	0.752	0.825	0.794	0.922	1.173	1.441	1.775	2.400	2.595	2.503	2.118	2.587	2.474	2.478	2.399	2.603	3.083	3.577	3.821	3.832	4.531	5.226	5.668	6.272	7.071	7.573	7.852	8.163	8.467	8.518	9.026	8.232	6.757	5.557	4.945	4.185	4.501
320.0	728.7	1193	1291	960.1	748.2	726.8	855.9	1033	1239	1555	1834	2042	2025	1962	1431	901.4	791.1	660.5	1383	5282	3902	63.42	11.05	6.719	4.628	3.717	3.318	2.804	2.296	2.043	2.338	1.797	1.495	1.407	1.332	1.021	1.145	1.224	0.950	0.873	0.922	0.841	0.923	1.101	1.417	1.896	2.589	3.566	3.610	3.305	2.932	3.033	2.866	2.982	2.879	3.072	3.505	4.210	4.187	4.494	5.090	5.877	6.570	6.973	7.877	8.125	8.719	8.914	9.175	9.106	9.452	9.478	9.094	7.917	6.030	5.295	4.824
325.0	1057	1924	2341	1710	1071	882.6	1006	1195	1415	1759	2118	2347	2303	2146	1877	1190	853.7	553.5	522.7	1912	5785	3064	51.56	9.751	5.631	4.230	3.499	3.057	2.639	2.621	2.388	1.617	1.579	1.534	1.285	1.257	1.216	1.058	0.958	0.899	0.929	0.893	1.126	1.311	2.031	2.811	3.936	5.607	6.001	5.656	4.879	4.880	3.876	3.715	3.414	3.464	4.078	4.457	4.986	5.204	5.775	6.260	7.380	8.421	8.580	9.336	9.678	9.976	10.40	10.43	10.42	10.28	10.92	10.39	8.653	6.674	6.112
330.0	1449	2959	3992	3216	1921	1278	1225	1398	1668	2038	2451	2730	2715	2479	2148	1691	1156	700.0	492.0	702.8	2071	4311	3723	239.1	19.33	6.596	4.516	3.468	3.116	2.630	2.498	2.115	1.829	1.565	1.410	1.219	1.277	1.151	1.066	1.018	1.030	1.100	1.429	1.769	2.729	4.142	5.655	8.706	9.975	9.682	8.722	8.651	6.675	5.530	4.648	4.539	5.096	5.212	5.758	6.313	6.686	7.364	8.388	9.197	10.03	10.78	11.33	12.20	11.98	12.21	12.13	11.85	11.70	11.22	10.62	10.21	8.775
335.0	1765	3602	5139	4553	2897	1816	1468	1622	1881	2268	2723	3012	3048	2799	2401	1961	1612	1038	691.8	656.3	873.6	1381	3714	3624	363.3	18.03	6.869	4.390	3.642	3.283	2.634	2.097	2.023	1.827	1.577	1.148	1.243	1.274	1.234	1.208	1.213	1.326	1.535	1.923	3.163	5.122	6.931	10.58	12.64	12.54	12.21	12.37	10.20	8.478	7.083	6.025	6.376	5.807	6.632	7.084	7.594	8.020	9.059	9.892	10.76	12.10	12.55	12.72	13.03	13.37	13.67	13.55	13.16	12.07	11.73	10.89	10.49
340.0	2006	4042	5736	5151	3436	2140	1673	1732	1990	2401	2847	3162	3199	2977	2574	2081	1770	1341	906.3	770.6	724.4	738.9	1426	4419	3290	56.99	12.18	5.731	4.016	3.547	3.082	2.480	1.996	1.918	1.720	1.519	1.452	1.222	1.104	1.217	1.392	1.368	1.791	2.239	3.391	5.512	8.137	11.25	14.05	14.13	13.86	14.70	12.17	10.29	7.953	6.864	6.859	6.502	7.433	7.551	7.916	8.448	9.469	10.80	11.63	12.22	13.12	13.53	13.56	14.42	14.49	14.28	13.99	13.37	12.81	11.57	10.60
345.0	2024	4146	5918	5463	3671	2304	1779	1799	2069	2436	2870	3180	3228	3038	2644	2164	1774	1512	1122	889.2	771.7	686.1	756.2	1748	4812	2715	49.02	9.195	5.662	3.922	3.161	2.548	2.173	1.910	1.587	1.427	1.464	1.298	1.124	1.314	1.165	1.467	1.681	2.394	3.520	5.240	8.097	11.96	14.96	14.77	14.42	15.20	13.22	10.76	8.799	7.152	7.239	6.996	7.492	7.813	8.253	8.897	10.14	10.70	12.04	12.47	12.73	12.88	13.74	14.70	14.56	14.35	14.36	13.86	13.27	11.98	11.17
350.0	1884	3761	5698	5382	3767	2455	1900	1885	2103	2428	2781	3049	3119	2973	2640	2211	1830	1553	1365	1134	933.9	808.3	723.8	789.3	1763	3430	3046	217.0	17.22	5.564	3.757	2.883	2.304	2.027	1.726	1.557	1.311	1.292	1.212	1.199	1.226	1.342	1.623	2.338	3.407	5.110	7.540	11.04	13.69	13.68	14.14	15.27	13.33	11.29	9.511	7.791	7.783	7.385	7.826	8.000	8.452	9.133	10.08	10.86	11.44	11.91	12.48	13.12	13.47	14.22	14.34	14.17	13.80	14.05	13.06	12.47	11.97
355.0	1691	3462	5149	5009	3745	2561	2014	1980	2133	2417	2678	2929	2966	2848	2589	2256	1915	1647	1480	1425	1190	995.2	847.3	687.2	736.3	1022	2585	3240	341.1	17.66	5.950	3.660	2.668	2.152	1.975	1.559	1.412	1.279	1.235	1.190	1.179	1.366	1.590	2.098	3.208	4.652	6.596	9.922	12.49	12.52	13.19	14.94	12.97	11.47	9.765	8.203	8.265	7.962	7.691	7.982	8.739	9.351	9.990	10.53	11.18	11.44	12.04	12.02	12.66	13.50	13.73	13.31	13.59	13.52	13.02	12.74	12.38
360.0	1583	3171	4694	4727	3648	2594	2088	2035	2180	2415	2634	2819	2870	2768	2554	2263	1988	1757	1593	1540	1435	1180	983.5	768.6	588.9	512.2	852.0	3174	3029	280.3	11.37	5.441	3.547	2.505	1.903	1.709	1.400	1.357	1.285	1.233	1.202	1.428	1.640	2.138	2.998	4.066	6.010	9.133	11.21	11.97	12.29	14.38	12.74	11.75	9.685	8.429	8.340	8.301	8.490	8.479	8.702	9.266	9.775	10.64	11.03	11.38	11.47	11.97	12.74	12.72	13.12	13.42	13.15	13.42	13.01	12.54	12.44
365.0	1475	2859	4285	4369	3583	2654	2176	2155	2260	2449	2609	2721	2772	2698	2516	2290	2068	1883	1735	1646	1603	1423	1156	907.5	694.4	495.9	420.5	1115	3677	2653	47.82	9.296	5.041	3.152	2.314	1.897	1.554	1.574	1.225	1.316	1.250	1.397	1.538	1.992	2.748	3.871	5.505	8.225	10.27	11.07	11.47	13.68	12.37	11.84	9.502	8.589	8.834	8.528	8.924	9.139	8.919	9.863	10.25	10.52	11.09	10.97	11.12	11.84	12.04	12.36	12.48	12.87	13.11	12.92	12.77	12.53	12.38
370.0	1312	2546	3855	4093	3504	2728	2348	2305	2383	2537	2610	2639	2668	2624	2478	2314	2159	2038	1937	1861	1784	1695	1471	1162	908.0	665.0	456.9	508.9	1254	2787	2753	683.2	18.17	5.793	3.441	2.327	1.891	1.567	1.358	1.325	1.214	1.363	1.540	1.793	2.603	3.622	5.005	7.496	9.231	9.837	10.50	12.63	12.05	11.23	10.22	9.363	9.452	9.247	9.240	9.693	9.559	10.13	10.69	10.86	11.17	10.67	11.18	11.17	11.85	11.93	12.23	12.66	12.79	13.10	12.59	12.51	12.95
375.0	1216	2307	3453	3789	3391	2798	2444	2424	2491	2578	2590	2572	2587	2549	2437	2310	2220	2149	2105	2061	1987	1877	1745	1472	1154	886.8	649.9	499.9	565.4	840.3	2048	3036	324.3	20.72	6.418	3.795	2.537	1.910	1.567	1.465	1.305	1.505	1.555	1.841	2.390	3.397	4.753	6.924	8.295	8.737	9.676	11.67	11.90	11.08	9.905	9.477	9.913	9.621	9.762	9.678	10.28	10.26	11.01	10.80	11.55	10.76	11.01	11.04	11.47	11.47	11.75	11.99	12.39	12.55	12.43	12.38	12.90
380.0	1150	2146	3185	3650	3299	2837	2544	2495	2546	2610	2575	2544	2559	2501	2409	2306	2243	2216	2193	2173	2112	2002	1879	1698	1383	1081	833.0	641.4	508.1	456.1	706.2	2494	2667	258.6	14.40	6.147	4.014	2.246	1.693	1.720	1.394	1.405	1.449	1.807	2.162	3.289	4.409	6.107	7.550	8.010	9.030	11.04	11.35	10.71	10.32	9.541	9.780	9.602	9.893	10.41	10.76	10.82	11.07	11.06	11.15	10.99	11.11	10.95	11.04	11.26	11.41	12.17	12.35	12.41	12.68	12.92	13.58
385.0	1115	2025	2967	3431	3293	2865	2630	2566	2591	2672	2601	2539	2556	2491	2418	2317	2264	2262	2269	2257	2219	2132	2013	1855	1620	1293	1020	810.5	633.1	472.1	413.2	874.8	2727	2238	42.03	13.62	6.749	3.902	2.094	1.739	1.482	1.536	1.717	1.868	2.269	3.244	4.084	5.888	7.386	7.642	8.695	10.60	10.89	10.80	9.989	9.966	10.29	9.870	10.12	10.30	10.89	10.48	11.24	11.68	11.04	11.07	10.79	10.91	11.10	11.08	11.51	12.18	12.29	12.28	12.49	12.75	12.73
390.0	1065	1971	2877	3332	3277	3017	2805	2747	2790	2862	2791	2718	2707	2655	2539	2399	2327	2334	2360	2398	2399	2353	2252	2097	1924	1664	1355	1122	910.6	701.7	526.1	485.9	943.2	1980	2041	597.7	23.90	10.65	4.620	2.601	1.799	1.701	1.731	1.988	2.401	3.110	4.027	5.904	6.936	7.494	8.520	10.63	10.99	11.09	10.26	10.51	11.02	10.77	10.89	10.98	11.43	11.33	11.92	11.76	11.77	10.99	10.97	11.04	11.39	11.74	12.03	11.82	12.43	12.76	12.82	12.79	13.30
395.0	1074	1935	2818	3262	3312	3218	3048	3059	3134	3262	3304	3253	3212	3103	2902	2642	2478	2454	2508	2567	2628	2648	2595	2485	2310	2124	1869	1578	1339	1092	854.1	645.3	544.3	713.5	1378	2403	285.1	33.36	12.60	4.993	2.543	2.184	2.021	2.020	2.529	3.095	4.180	5.803	6.478	7.428	8.241	10.71	11.14	11.77	11.34	11.25	11.94	11.53	11.85	11.50	11.99	12.79	12.82	12.75	12.56	12.32	12.04	12.14	12.85	12.91	13.26	12.89	13.36	13.56	13.97	13.30	13.88
400.0	1021	1845	2738	3295	3440	3374	3294	3338	3521	3742	3926	3971	3905	3713	3374	2960	2680	2606	2651	2748	2853	2917	2935	2869	2721	2538	2331	2060	1775	1505	1224	941.7	709.0	580.2	647.8	1751	2203	253.8	27.51	9.056	3.846	2.446	2.192	2.126	2.753	3.213	4.183	5.516	6.882	7.679	8.525	11.35	11.45	12.09	11.97	11.89	12.32	12.80	12.69	12.32	12.97	13.63	13.73	14.07	14.00	13.97	13.82	14.10	14.52	14.74	14.41	14.84	14.99	15.15	14.83	14.17	14.90
405.0	1053	1854	2711	3310	3544	3518	3541	3675	3945	4366	4693	4790	4715	4450	3949	3347	2902	2757	2801	2943	3093	3209	3287	3263	3157	2976	2785	2574	2252	1942	1629	1297	983.5	744.0	612.0	793.6	1921	1875	197.7	16.00	6.040	3.146	2.753	2.565	2.819	3.378	4.416	5.843	7.198	7.824	8.751	11.83	11.81	12.41	12.24	12.78	13.23	13.53	13.59	13.47	14.00	14.87	15.24	15.53	15.72	15.69	15.85	16.62	16.52	16.81	17.22	16.69	16.65	16.53	16.30	15.44	15.57
410.0	1042	1800	2667	3313	3594	3717	3853	4011	4422	4964	5433	5623	5511	5158	4519	3701	3112	2900	2935	3097	3289	3463	3603	3641	3568	3409	3215	3015	2752	2410	2061	1679	1298	990.3	770.3	644.3	798.7	1444	1589	519.4	17.69	5.368	3.392	3.027	3.139	3.583	4.539	5.975	7.246	7.756	8.747	11.77	12.03	12.79	13.24	13.05	14.36	14.33	14.28	14.82	14.90	15.60	16.53	17.09	17.47	17.31	17.33	18.30	18.60	18.51	18.79	18.79	18.65	18.47	17.74	16.42	16.04
415.0	1019	1737	2582	3231	3616	3792	3968	4172	4575	5158	5706	5916	5791	5440	4695	3808	3150	2875	2923	3090	3305	3514	3663	3736	3706	3573	3383	3168	2943	2661	2274	1858	1460	1127	866.2	660.0	514.8	506.0	856.5	1768	260.4	19.14	4.788	3.619	3.307	3.634	4.564	6.102	7.161	7.622	8.627	11.39	12.26	13.26	13.46	13.14	14.65	14.94	15.06	15.19	15.60	16.04	17.25	17.47	17.85	17.42	17.79	18.29	18.50	18.87	19.61	18.97	19.36	18.18	17.69	16.66	16.24
420.0	1004	1677	2518	3150	3553	3806	4011	4221	4561	5135	5676	5896	5774	5396	4688	3757	3082	2806	2861	3014	3224	3444	3609	3695	3662	3557	3377	3178	2955	2706	2341	1914	1507	1172	903.7	671.2	462.3	301.7	295.5	1052	1576	226.6	12.02	4.384	3.916	4.120	4.474	5.795	7.043	7.623	8.326	11.05	12.44	12.42	13.12	13.18	14.41	15.41	15.35	15.23	15.20	16.10	16.74	17.04	17.70	17.14	17.82	17.93	18.14	18.69	18.93	18.82	18.26	17.62	17.44	16.37	15.42
425.0	962.6	1647	2432	3126	3529	3850	4066	4272	4569	5128	5619	5857	5738	5365	4626	3707	3044	2763	2791	2937	3128	3349	3519	3626	3611	3513	3356	3169	2949	2715	2393	1974	1545	1215	944.2	705.1	472.1	275.2	171.7	323.4	1165	1388	172.2	7.427	4.376	4.345	4.820	5.793	6.798	7.338	8.325	11.10	11.95	12.96	13.19	13.62	14.90	15.50	15.77	15.69	16.14	16.15	16.51	17.03	17.24	17.54	18.44	17.61	18.00	18.78	17.87	18.70	18.69	17.94	17.13	15.89	15.46
