Sample:	'1
File name:	G2025051411晋控明水循环水1.FD3
Run date:	'13:58:17, 05/21/2025
Operator:	Administrator
Comment:	'

Instrument
Model:	F-2700 FL Spectrophotometer
Serial number:	23B8-004
ROM Version:	4J14000 07

Instrument parameters
Measurement type:	3-D scan
Data mode:	Fluorescence
EX  Start WL:	220.0 nm
EX  End WL:	600.0 nm
EX Sampling interval:	5.0 nm
EM  Start WL:	230.0 nm
EM  End WL:	650.0 nm
EM Sampling interval:	5.0 nm
Scan speed:	12000 nm/min
EX Slit:	5.0 nm
EM Slit:	5.0 nm
PMT Voltage:	700 V
Response:	Auto 
Corrected spectra:	Off
Contour interval:	50.000

Peak integration
Integration method:	Rectangular
Sensitivity:	1
Threshold:	1.000

Peaks
No.	ApexEX/EM(nm)	Height(Data)
1	225.0/575.0	28.59
2	230.0/505.0	152.7
3	235.0/510.0	174.5
4	240.0/265.0	380.8
5	240.0/385.0	2027
6	240.0/400.0	1623
7	240.0/525.0	177.8
8	240.0/605.0	16.54
9	245.0/270.0	416.5
10	245.0/535.0	164.6
11	250.0/275.0	529.0
12	250.0/550.0	136.1
13	255.0/280.0	570.2
14	255.0/565.0	115.4
15	260.0/290.0	508.5
16	260.0/575.0	101.3
17	265.0/295.0	613.3
18	265.0/585.0	84.81
19	270.0/300.0	814.3
20	270.0/600.0	80.95
21	275.0/305.0	766.3
22	275.0/610.0	61.67
23	280.0/385.0	2939
24	280.0/400.0	2310
25	280.0/625.0	53.36
26	285.0/320.0	660.6
27	285.0/635.0	39.91
28	290.0/325.0	585.3
29	295.0/330.0	436.8
30	300.0/335.0	410.4
31	305.0/345.0	379.7
32	310.0/350.0	306.2
33	315.0/355.0	302.5
34	320.0/365.0	301.4
35	355.0/385.0	1540
36	355.0/405.0	1327
37	370.0/405.0	1437
38	395.0/460.0	71.58
39	400.0/465.0	61.89
40	415.0/485.0	37.19
41	430.0/505.0	22.99
42	445.0/525.0	13.43
43	455.0/540.0	8.716
44	485.0/265.0	2.114
45	485.0/385.0	8.254
46	495.0/270.0	2.206
47	505.0/275.0	3.138
48	510.0/280.0	3.409
49	520.0/285.0	3.346
50	525.0/290.0	3.222
51	540.0/295.0	4.040
52	545.0/300.0	4.377
53	545.0/385.0	9.425
54	550.0/305.0	4.549
55	560.0/310.0	3.801
56	565.0/385.0	15.60
57	570.0/315.0	4.247
58	570.0/405.0	12.80
59	580.0/320.0	4.144
60	585.0/325.0	3.902

Data points
	220.0	225.0	230.0	235.0	240.0	245.0	250.0	255.0	260.0	265.0	270.0	275.0	280.0	285.0	290.0	295.0	300.0	305.0	310.0	315.0	320.0	325.0	330.0	335.0	340.0	345.0	350.0	355.0	360.0	365.0	370.0	375.0	380.0	385.0	390.0	395.0	400.0	405.0	410.0	415.0	420.0	425.0	430.0	435.0	440.0	445.0	450.0	455.0	460.0	465.0	470.0	475.0	480.0	485.0	490.0	495.0	500.0	505.0	510.0	515.0	520.0	525.0	530.0	535.0	540.0	545.0	550.0	555.0	560.0	565.0	570.0	575.0	580.0	585.0	590.0	595.0	600.0
230.0	32.54	207.0	758.4	360.8	25.93	7.145	5.014	4.881	4.214	3.388	3.508	3.005	2.870	2.251	1.755	1.436	1.271	1.273	1.181	1.048	0.903	0.843	0.849	0.840	0.822	0.792	0.770	0.740	0.732	0.701	0.734	0.749	0.592	0.484	0.450	0.463	0.410	0.410	0.391	0.409	0.404	0.409	0.411	0.394	0.389	0.349	0.449	1.094	2.320	2.466	1.355	0.469	0.288	0.279	0.292	0.326	0.315	0.289	0.293	0.322	0.295	0.252	0.312	0.274	0.326	0.298	0.285	0.287	0.305	0.277	0.341	0.327	0.320	0.319	0.277	0.302	0.303
235.0	46.48	77.07	532.8	1376	505.5	44.83	6.300	5.409	4.909	3.521	3.259	3.105	2.945	2.373	1.826	1.422	1.318	1.398	1.114	1.066	0.992	0.943	0.745	0.772	0.710	0.830	0.853	0.709	0.699	0.727	0.637	0.706	0.594	0.501	0.452	0.394	0.384	0.412	0.418	0.483	0.433	0.365	0.407	0.371	0.405	0.357	0.381	0.549	1.014	2.150	4.486	5.583	3.157	0.865	0.348	0.280	0.302	0.284	0.307	0.277	0.278	0.273	0.311	0.282	0.370	0.257	0.251	0.242	0.310	0.269	0.307	0.308	0.309	0.282	0.297	0.380	0.328
240.0	70.46	76.32	173.5	1224	1898	419.9	23.22	5.214	4.753	4.082	3.450	3.579	3.075	2.528	1.719	1.571	1.259	1.223	1.153	1.081	0.939	0.887	0.808	0.736	0.819	0.781	0.935	0.838	0.758	0.749	0.774	0.755	0.581	0.521	0.446	0.375	0.452	0.466	0.431	0.476	0.477	0.389	0.431	0.372	0.472	0.484	0.468	0.419	0.506	0.835	2.383	6.626	9.105	7.686	2.735	0.559	0.333	0.270	0.297	0.269	0.296	0.241	0.276	0.274	0.323	0.256	0.398	0.283	0.310	0.299	0.289	0.308	0.273	0.277	0.277	0.365	0.309
245.0	57.43	105.9	89.25	423.5	2026	2213	306.3	12.31	4.909	4.520	4.248	3.697	2.579	2.363	1.753	1.907	1.447	1.345	1.136	1.090	0.968	0.926	0.879	0.984	0.853	0.729	0.946	0.780	0.680	0.748	0.728	0.801	0.577	0.449	0.440	0.370	0.393	0.456	0.462	0.381	0.434	0.450	0.449	0.393	0.364	0.513	0.564	0.528	0.419	0.373	0.764	2.351	6.055	11.68	12.02	6.697	2.281	0.445	0.334	0.295	0.313	0.252	0.318	0.250	0.313	0.339	0.324	0.278	0.291	0.297	0.269	0.334	0.304	0.263	0.272	0.310	0.224
250.0	41.15	89.42	177.1	178.4	654.7	2106	2800	1000	57.69	6.474	5.402	4.130	3.387	2.422	2.334	1.782	1.372	1.372	1.300	1.095	1.006	1.061	0.912	0.925	0.903	0.770	0.939	0.901	0.701	0.794	0.842	0.781	0.640	0.494	0.470	0.416	0.382	0.471	0.460	0.403	0.459	0.415	0.439	0.346	0.429	0.456	0.473	0.622	0.712	0.694	0.625	0.851	1.727	3.725	6.865	11.24	14.31	12.65	7.350	2.168	0.457	0.332	0.359	0.287	0.318	0.328	0.357	0.287	0.329	0.328	0.306	0.356	0.268	0.292	0.310	0.304	0.276
255.0	35.34	45.78	144.9	281.7	242.8	540.6	2170	4269	1343	47.81	6.848	4.922	4.475	2.941	2.600	2.023	1.569	1.274	1.235	1.028	1.149	1.091	0.879	0.843	0.902	0.793	0.887	0.932	0.763	0.667	0.803	0.815	0.638	0.526	0.494	0.398	0.420	0.411	0.437	0.506	0.485	0.454	0.418	0.388	0.404	0.451	0.386	0.361	0.446	0.748	1.062	1.299	0.936	1.175	1.807	3.043	5.168	12.53	22.68	22.04	10.97	2.276	0.496	0.374	0.342	0.322	0.326	0.275	0.290	0.334	0.375	0.342	0.328	0.348	0.302	0.344	0.303
260.0	34.01	33.57	62.40	264.3	305.2	185.8	673.0	3581	4603	260.1	22.38	6.240	5.209	3.328	3.124	2.032	1.690	1.363	1.617	1.145	1.153	1.086	0.954	0.925	1.017	1.001	0.831	0.880	0.792	0.855	0.764	0.994	0.679	0.549	0.503	0.444	0.464	0.487	0.484	0.413	0.435	0.432	0.409	0.433	0.381	0.459	0.303	0.302	0.392	0.450	0.847	1.770	1.764	1.082	0.822	1.078	1.573	3.560	9.652	20.89	29.24	22.54	7.891	1.314	0.352	0.409	0.411	0.334	0.297	0.339	0.340	0.359	0.313	0.400	0.329	0.328	0.301
265.0	39.15	31.97	33.96	120.8	380.8	258.1	204.1	1233	4994	4288	200.7	10.81	6.701	4.236	3.699	2.731	2.160	1.744	1.676	1.477	1.157	1.325	0.869	1.038	1.080	0.847	0.879	1.017	0.761	0.958	0.949	0.959	0.715	0.571	0.539	0.484	0.527	0.419	0.453	0.412	0.426	0.452	0.394	0.390	0.351	0.371	0.397	0.400	0.353	0.360	0.443	0.907	1.669	2.114	1.518	0.868	0.697	1.283	2.609	6.467	16.00	29.68	31.15	18.84	4.762	0.622	0.394	0.346	0.279	0.323	0.347	0.321	0.338	0.356	0.332	0.346	0.357
270.0	41.92	34.39	26.76	49.78	204.6	416.5	296.1	338.9	1648	4665	4380	751.9	36.75	6.537	4.482	3.029	2.426	2.043	1.780	1.597	1.262	1.403	0.961	1.152	1.031	0.912	0.994	1.072	0.880	0.901	0.915	0.850	0.697	0.621	0.558	0.525	0.503	0.450	0.458	0.431	0.431	0.452	0.405	0.399	0.394	0.443	0.368	0.414	0.352	0.316	0.372	0.514	0.769	1.346	1.969	2.206	1.920	1.169	1.105	1.851	4.094	8.810	16.54	25.91	29.12	27.09	13.71	4.201	0.593	0.338	0.332	0.360	0.341	0.325	0.324	0.374	0.366
275.0	50.68	41.43	40.34	40.05	95.13	240.2	529.0	323.7	416.6	1202	4203	7477	968.6	25.44	6.595	4.111	2.988	2.345	2.347	1.839	1.622	1.368	1.305	1.229	1.062	0.999	1.226	0.975	1.046	0.856	1.005	0.875	0.771	0.656	0.678	0.516	0.523	0.469	0.540	0.485	0.422	0.532	0.469	0.419	0.448	0.455	0.411	0.421	0.407	0.348	0.356	0.391	0.532	0.676	0.959	1.412	2.529	3.138	2.195	1.155	1.353	2.374	4.104	6.315	9.352	21.13	40.71	32.49	20.45	4.124	0.549	0.445	0.371	0.463	0.365	0.348	0.361
280.0	52.33	53.65	48.43	45.74	71.12	129.1	373.8	570.2	223.5	319.4	1298	6628	6549	142.0	11.70	5.072	3.692	2.763	2.297	2.100	1.772	1.498	1.243	1.174	1.142	1.000	1.219	1.071	1.033	0.916	0.920	0.894	0.809	0.830	0.719	0.535	0.555	0.512	0.446	0.487	0.490	0.521	0.461	0.424	0.395	0.449	0.429	0.458	0.447	0.409	0.367	0.360	0.522	0.533	0.613	0.850	1.403	2.398	3.409	2.608	1.442	1.013	1.349	1.832	2.545	5.619	15.06	31.21	49.49	31.05	14.43	1.921	0.401	0.528	0.449	0.431	0.448
285.0	65.30	74.82	67.31	55.83	66.02	92.72	185.1	542.6	343.0	153.2	353.6	2196	7817	4923	99.39	7.741	4.964	3.962	2.366	2.214	1.753	1.619	1.451	1.329	1.273	1.122	1.211	1.228	1.061	0.936	0.963	0.961	0.836	0.714	0.635	0.529	0.586	0.502	0.562	0.500	0.488	0.538	0.495	0.439	0.408	0.450	0.461	0.541	0.461	0.446	0.385	0.499	0.482	0.576	0.559	0.703	0.868	1.199	2.041	3.153	3.346	1.945	0.973	0.949	1.071	1.741	3.947	8.648	21.18	39.93	50.75	26.70	8.346	0.922	0.431	0.380	0.464
290.0	84.30	90.30	89.82	75.53	74.11	83.25	108.0	236.1	508.5	435.5	201.2	579.3	2461	5774	5316	406.2	18.56	5.255	3.510	2.809	2.208	1.861	1.717	1.508	1.437	1.293	1.226	1.195	1.122	1.006	1.100	0.988	0.797	0.718	0.673	0.657	0.615	0.559	0.552	0.493	0.522	0.518	0.526	0.458	0.514	0.473	0.549	0.588	0.563	0.493	0.445	0.565	0.547	0.497	0.556	0.621	0.680	0.798	1.036	1.378	2.189	3.222	3.046	2.248	1.263	1.003	1.626	2.598	5.431	10.81	20.41	30.32	31.62	34.58	17.59	7.596	1.039
295.0	87.60	106.1	102.9	96.85	79.55	83.85	89.58	129.5	235.8	613.3	521.8	266.6	644.7	1458	4460	6208	534.5	13.51	4.808	3.541	2.399	2.191	1.885	1.472	1.552	1.410	1.362	1.158	1.169	1.000	1.099	1.112	0.821	0.865	0.798	0.761	0.705	0.575	0.675	0.496	0.564	0.445	0.502	0.457	0.569	0.520	0.558	0.558	0.587	0.586	0.545	0.562	0.625	0.549	0.592	0.682	0.672	0.738	0.858	0.879	1.149	1.462	1.971	3.744	4.040	2.356	1.520	1.339	1.965	3.131	5.235	7.517	8.804	18.72	38.32	51.93	27.53
300.0	90.63	109.0	123.1	110.7	93.89	96.76	104.8	125.3	165.2	389.0	814.3	391.8	275.4	417.8	1307	5804	4999	81.75	7.853	4.625	2.532	2.608	2.215	1.928	1.630	1.500	1.451	1.229	1.303	1.167	1.217	1.091	0.958	0.791	0.846	0.710	0.668	0.647	0.568	0.444	0.524	0.532	0.512	0.432	0.567	0.589	0.544	0.607	0.588	0.605	0.546	0.677	0.693	0.688	0.605	0.725	0.817	0.690	0.797	0.972	0.911	1.172	1.422	2.105	3.783	4.377	3.377	1.784	1.444	1.536	1.931	2.433	2.570	4.925	11.79	29.22	49.38
305.0	98.61	115.7	135.6	122.3	100.1	116.3	130.7	154.8	184.1	279.4	647.6	766.3	297.7	218.7	380.9	1908	6553	3748	59.59	6.003	3.851	2.815	2.396	1.921	1.820	1.558	1.543	1.264	1.133	1.274	1.184	1.160	0.985	0.816	0.782	0.755	0.590	0.618	0.578	0.571	0.611	0.502	0.488	0.480	0.537	0.609	0.579	0.669	0.558	0.645	0.616	0.747	0.666	0.738	0.726	0.799	0.873	0.963	0.996	1.100	0.987	1.259	1.452	1.521	2.137	3.265	4.549	4.008	2.321	1.473	1.439	1.480	1.407	1.843	3.341	7.682	17.41
310.0	96.74	124.0	137.8	136.9	117.8	124.4	147.2	174.1	206.7	274.5	402.7	689.8	656.6	280.4	200.6	510.5	2077	4676	4119	282.1	13.37	4.062	2.941	2.378	2.090	1.769	1.663	1.454	1.352	1.235	1.351	1.178	0.971	0.966	0.814	0.716	0.687	0.630	0.607	0.532	0.561	0.575	0.540	0.529	0.493	0.544	0.552	0.635	0.642	0.669	0.636	0.788	0.769	0.772	0.729	0.848	0.886	0.957	1.126	1.114	1.143	1.235	1.471	1.544	1.827	1.987	2.685	3.493	3.801	3.641	2.659	1.698	1.258	1.362	1.589	2.469	4.502
315.0	115.8	131.7	146.6	146.4	135.9	137.7	161.8	191.9	229.6	283.1	340.4	425.0	617.0	607.6	222.2	207.6	534.7	1167	3544	4411	397.8	9.662	4.010	3.030	2.090	2.038	2.043	1.665	1.676	1.199	1.425	1.184	0.843	0.882	0.815	0.707	0.768	0.607	0.621	0.503	0.553	0.596	0.546	0.521	0.527	0.580	0.535	0.628	0.688	0.663	0.627	0.823	0.835	0.785	0.791	0.937	0.895	1.015	1.237	1.261	1.243	1.386	1.454	1.672	1.691	1.762	1.971	2.167	2.315	3.128	4.247	3.616	2.146	1.431	1.315	1.356	1.890
320.0	118.3	149.6	162.6	167.0	151.5	145.1	168.9	202.4	240.0	293.5	334.2	370.2	433.2	660.6	409.6	164.4	200.9	315.0	1021	4431	3740	61.39	6.290	4.057	2.477	2.256	2.065	1.666	1.576	1.263	1.333	1.410	0.990	1.008	0.846	0.624	0.719	0.658	0.595	0.508	0.608	0.637	0.569	0.515	0.537	0.570	0.609	0.733	0.773	0.720	0.658	0.956	0.866	0.832	0.892	1.080	0.920	1.115	1.114	1.274	1.352	1.356	1.511	1.637	1.685	1.802	1.966	1.924	2.008	2.140	2.866	3.799	4.144	2.697	1.764	1.330	1.306
325.0	127.0	167.5	213.5	186.8	164.9	159.6	176.4	213.4	248.0	294.7	337.4	358.3	362.1	471.7	585.3	244.6	137.2	129.8	267.3	1462	4961	2909	47.74	5.407	3.046	2.557	2.071	1.707	1.778	1.454	1.523	1.463	1.171	0.953	0.742	0.669	0.713	0.740	0.602	0.559	0.549	0.594	0.483	0.520	0.527	0.545	0.677	0.750	0.880	0.819	0.700	0.927	0.815	0.879	0.921	1.053	1.117	1.222	1.175	1.271	1.334	1.410	1.600	1.612	1.593	1.702	1.992	1.943	1.782	1.887	1.982	2.556	3.250	3.902	3.129	1.762	1.271
330.0	125.8	192.4	265.8	250.0	207.4	189.8	199.5	227.8	256.0	294.9	335.6	357.4	350.0	342.2	433.5	436.8	217.4	102.7	106.9	362.2	1577	3648	3298	231.0	10.88	3.250	2.694	2.160	1.877	1.631	1.559	1.493	1.190	0.996	0.830	0.719	0.691	0.699	0.640	0.563	0.531	0.685	0.573	0.572	0.597	0.620	0.696	0.867	0.985	1.024	0.940	1.072	1.095	0.987	1.004	1.043	1.241	1.246	1.260	1.339	1.311	1.425	1.562	1.639	1.656	1.731	1.943	1.840	1.855	1.930	1.809	1.970	2.127	2.542	2.998	3.170	2.661
335.0	130.9	213.2	305.2	313.5	257.7	237.2	228.0	247.6	271.9	299.5	336.9	361.9	348.4	315.2	303.6	349.5	410.4	170.7	86.33	127.3	383.9	907.3	2937	3571	342.1	8.724	3.678	2.986	2.466	1.988	1.997	1.614	1.340	1.076	1.042	0.856	0.768	0.789	0.711	0.565	0.589	0.640	0.647	0.538	0.704	0.676	0.760	0.914	1.070	1.108	1.025	1.233	1.299	1.236	1.209	1.134	1.226	1.416	1.409	1.240	1.455	1.545	1.578	1.666	1.701	1.777	1.815	1.763	1.944	1.834	1.863	1.899	1.978	2.043	2.087	2.069	2.488
340.0	145.1	221.5	335.0	344.2	301.5	271.0	267.7	275.5	286.8	315.9	341.1	363.9	353.0	317.9	276.9	263.4	382.9	318.9	112.8	83.69	127.0	233.5	851.7	3704	3152	52.80	5.457	3.606	2.799	2.094	2.079	1.652	1.348	1.032	1.045	0.932	0.736	0.760	0.676	0.596	0.619	0.646	0.655	0.615	0.631	0.770	0.737	0.920	1.202	1.080	1.156	1.348	1.373	1.378	1.323	1.296	1.259	1.547	1.467	1.402	1.517	1.555	1.511	1.692	1.692	1.891	1.788	1.765	1.899	1.810	2.023	2.053	1.918	1.809	1.976	1.645	1.859
345.0	143.5	222.1	354.6	387.0	344.3	313.4	303.1	297.7	309.1	337.5	348.5	364.4	356.0	318.9	281.8	240.9	270.1	379.7	208.3	87.32	80.36	90.80	220.8	1223	4133	2525	43.09	4.310	3.210	2.439	2.334	1.857	1.430	1.203	0.935	0.958	0.730	0.814	0.787	0.645	0.632	0.762	0.659	0.582	0.640	0.725	0.772	1.010	1.141	1.230	1.310	1.497	1.533	1.551	1.491	1.368	1.406	1.603	1.663	1.672	1.513	1.843	1.670	1.687	1.764	1.797	1.692	1.679	1.926	1.797	1.886	1.968	1.956	1.784	1.783	1.777	1.701
350.0	136.9	232.1	346.3	408.1	392.1	370.0	348.3	344.9	345.7	360.1	362.3	368.8	354.9	326.4	290.9	250.1	228.7	271.3	306.2	189.0	95.45	75.63	92.42	306.1	1307	2943	2722	209.9	11.86	3.253	2.588	2.272	1.526	1.254	1.051	0.913	0.782	0.774	0.748	0.692	0.607	0.680	0.625	0.560	0.573	0.660	0.785	0.981	1.152	1.210	1.259	1.535	1.695	1.732	1.579	1.613	1.655	1.801	1.713	1.766	1.776	1.932	1.835	1.947	1.820	1.860	1.848	1.858	1.863	1.949	1.762	2.018	2.056	1.830	1.833	1.788	1.818
355.0	148.0	226.1	345.3	437.6	439.6	434.0	399.2	386.8	379.5	391.0	381.5	372.5	362.0	333.5	302.2	265.2	236.0	223.2	241.3	302.5	179.1	95.40	81.63	114.4	323.4	724.8	2233	3172	330.6	10.73	4.193	3.238	2.247	1.332	1.086	0.953	0.964	0.705	0.664	0.624	0.619	0.708	0.550	0.604	0.576	0.625	0.818	1.001	1.194	1.252	1.343	1.764	1.802	1.772	1.670	1.790	2.017	1.794	1.896	1.830	1.853	2.035	2.095	2.158	1.877	2.091	1.732	1.915	1.965	1.962	1.842	1.999	2.088	1.924	1.912	1.782	1.830
360.0	151.4	226.5	359.5	452.2	468.6	461.4	439.4	419.0	409.5	410.5	398.8	385.3	371.1	344.9	313.8	277.6	251.2	226.8	211.6	272.9	283.9	141.9	93.45	81.33	116.4	194.6	631.7	2868	2956	52.36	8.257	6.102	2.854	1.624	1.230	1.035	1.024	0.894	0.727	0.669	0.618	0.650	0.534	0.580	0.589	0.727	0.853	0.978	1.084	1.257	1.289	1.845	1.889	1.931	1.890	1.923	2.131	2.068	2.003	1.912	2.072	2.128	2.071	2.152	2.021	2.019	1.875	1.916	1.923	1.912	1.941	1.927	2.150	1.869	1.926	1.699	1.948
365.0	139.9	243.4	364.0	460.9	492.8	496.6	463.5	436.2	428.6	431.8	423.3	404.0	394.6	358.2	321.3	290.0	261.4	239.4	221.8	225.1	301.4	236.1	124.5	96.47	86.57	89.96	180.9	913.4	3533	2462	45.76	15.08	6.115	2.472	1.460	1.111	0.924	0.923	0.775	0.747	0.648	0.746	0.584	0.567	0.603	0.741	0.812	0.953	1.115	1.237	1.446	1.872	1.999	2.042	1.923	2.002	2.096	2.263	2.046	2.184	2.132	2.093	2.116	2.140	2.106	2.036	1.967	2.215	1.968	2.046	2.252	1.979	2.195	2.000	1.877	1.872	2.085
370.0	141.8	246.1	414.6	579.6	640.2	641.8	537.1	509.7	500.7	533.6	586.8	554.1	669.9	505.8	350.3	311.5	290.8	270.7	250.1	240.8	267.4	308.4	266.4	197.5	165.9	164.5	225.7	389.8	1188	2648	2738	788.2	82.98	16.67	3.845	1.685	1.299	1.114	0.920	0.774	0.704	0.766	0.703	0.614	0.656	0.702	0.809	1.082	1.306	1.376	1.617	2.259	2.554	2.771	2.624	2.416	2.515	2.456	2.258	2.284	2.417	2.457	2.524	2.599	2.752	2.900	2.735	2.581	2.710	3.494	3.545	2.699	2.315	2.260	2.065	2.128	2.219
375.0	167.8	323.8	659.7	923.3	1236	1192	752.9	648.5	713.6	849.4	1157	1105	1451	1033	440.1	355.3	335.7	319.5	309.4	319.3	343.1	368.2	487.2	480.0	426.9	432.9	743.9	835.6	660.3	1165	2759	4050	1054	82.41	12.65	3.792	2.184	1.455	1.180	1.062	0.817	0.855	0.770	0.732	0.740	0.915	1.018	1.349	1.712	2.185	2.705	3.712	4.300	5.196	5.516	4.071	3.507	3.161	3.066	2.884	2.993	3.339	3.319	3.780	4.620	5.891	5.030	4.793	5.809	8.537	9.557	5.165	3.274	2.603	2.406	2.327	2.455
380.0	193.7	398.9	854.1	1325	1781	1632	913.0	755.2	886.6	1101	1632	1581	2491	1480	508.8	391.9	365.8	358.4	357.9	384.9	426.8	453.0	609.0	809.8	718.2	758.7	1192	1309	940.7	1096	1993	3873	2920	303.7	21.98	5.775	3.029	1.967	1.460	1.161	0.964	0.996	0.837	0.918	0.931	1.029	1.236	1.525	2.253	2.911	3.517	5.025	5.879	7.151	7.234	5.412	4.142	3.469	3.338	3.353	3.625	4.489	4.354	5.131	6.518	8.175	7.010	6.404	8.080	13.12	13.75	7.113	3.792	2.939	2.655	2.614	2.633
385.0	209.0	428.7	916.0	1510	2027	1824	1013	815.9	969.8	1231	1847	1800	2939	1687	554.4	408.1	386.9	384.0	382.1	416.9	472.7	500.4	651.6	910.3	898.1	927.0	1411	1540	1102	1186	1896	2452	3124	2248	43.93	7.966	3.708	2.363	1.408	1.198	1.158	1.108	0.881	0.953	0.934	1.111	1.184	1.694	2.589	3.037	4.150	5.585	6.573	8.254	7.867	5.634	4.389	3.644	3.294	3.643	4.132	4.800	4.720	5.579	7.330	9.425	7.754	7.273	9.033	15.60	15.57	8.059	4.240	2.954	2.858	2.657	2.732
390.0	184.0	376.4	785.4	1257	1690	1538	900.0	747.1	859.3	1060	1533	1482	2388	1406	503.5	385.9	366.1	365.0	361.4	390.1	429.2	448.1	554.9	728.4	761.0	826.2	1160	1247	887.5	935.1	1455	1565	1208	1920	1920	543.2	12.80	2.437	1.651	1.288	1.188	1.032	0.920	0.842	0.975	0.991	1.116	1.597	2.103	2.751	3.427	4.738	5.709	6.776	6.698	4.883	4.069	3.218	3.112	3.361	3.822	4.255	4.238	4.755	6.169	7.625	6.512	6.128	7.602	12.07	12.76	6.878	3.831	2.709	2.587	2.423	2.488
395.0	176.3	363.0	726.8	1147	1542	1443	856.2	717.2	813.5	992.9	1419	1366	2176	1285	477.0	372.5	354.3	354.5	353.7	381.1	416.9	434.6	529.3	673.1	666.3	779.9	1131	1167	822.2	858.6	1319	1330	622.9	529.7	1166	2289	278.5	13.70	2.019	1.710	1.346	1.066	0.864	0.942	1.023	0.930	1.074	1.498	2.007	2.495	3.280	4.402	5.045	6.525	6.195	4.790	3.931	3.082	2.892	3.121	3.622	4.023	3.945	4.424	5.661	6.823	5.730	5.528	6.880	11.45	11.68	6.333	3.528	2.956	2.452	2.456	2.456
400.0	178.8	353.0	768.9	1221	1623	1499	878.6	729.5	829.1	1021	1474	1443	2310	1358	486.3	371.3	354.1	354.8	358.3	389.0	429.4	454.6	559.2	710.7	697.8	805.7	1235	1292	904.0	937.9	1433	1412	547.1	221.6	313.8	1476	2006	232.8	6.517	1.916	1.386	1.173	0.933	0.888	0.845	1.003	1.139	1.378	2.173	2.671	3.356	4.813	5.210	7.014	6.537	4.936	4.029	3.326	3.037	3.223	3.581	4.229	4.121	4.019	6.039	7.470	6.153	5.801	7.203	11.74	12.59	6.601	3.665	2.817	2.535	2.380	2.256
405.0	153.3	341.1	764.6	1213	1607	1491	865.4	723.3	824.0	1022	1469	1428	2284	1340	473.8	365.1	347.4	344.4	354.3	384.9	425.2	448.6	557.4	709.5	699.2	783.2	1208	1327	923.2	944.3	1437	1411	527.0	155.5	96.23	403.7	1622	1701	36.18	3.131	1.724	1.148	1.047	0.888	0.994	1.081	1.217	1.605	2.108	2.614	3.434	4.526	5.255	6.250	6.467	4.928	3.743	3.554	3.025	3.220	3.612	3.981	4.235	4.410	5.940	7.085	6.591	5.328	6.996	11.92	12.80	6.577	3.527	2.632	2.329	2.340	2.252
410.0	145.8	293.6	638.0	969.2	1252	1187	746.7	642.2	714.4	843.1	1155	1111	1709	1040	414.0	333.0	316.8	317.2	318.4	339.0	369.8	384.5	460.5	567.8	551.8	605.8	889.2	985.9	740.1	722.2	1054	1030	388.7	114.4	46.80	103.9	434.7	1214	1426	471.5	11.66	1.489	1.129	0.940	0.978	1.009	1.080	1.371	1.754	2.091	2.603	3.678	4.163	5.050	4.888	4.032	3.264	3.134	2.931	2.844	3.348	3.451	3.457	3.637	4.859	5.620	5.048	4.507	5.449	8.942	9.506	5.163	3.186	2.483	2.304	2.229	2.156
