Sample:	'1
File name:	W112810ÐÇÓîÖú¼Áµ÷½Ú³Ø.FD3
Run date:	'14:09:40, 11/29/2024
Operator:	Administrator
Comment:	'

Instrument
Model:	F-2700 FL Spectrophotometer
Serial number:	23B8-004
ROM Version:	4J14000 07

Instrument parameters
Measurement type:	3-D scan
Data mode:	Fluorescence
EX  Start WL:	220.0 nm
EX  End WL:	600.0 nm
EX Sampling interval:	5.0 nm
EM  Start WL:	230.0 nm
EM  End WL:	650.0 nm
EM Sampling interval:	5.0 nm
Scan speed:	12000 nm/min
EX Slit:	5.0 nm
EM Slit:	5.0 nm
PMT Voltage:	700 V
Response:	Auto 
Corrected spectra:	Off
Contour interval:	50.000

Peak integration
Integration method:	Rectangular
Sensitivity:	1
Threshold:	1.000

Peaks
No.	ApexEX/EM(nm)	Height(Data)
1	230.0/425.0	79.75
2	230.0/505.0	57.82
3	235.0/260.0	138.8
4	235.0/515.0	63.51
5	240.0/265.0	209.2
6	240.0/525.0	68.85
7	245.0/270.0	244.3
8	245.0/540.0	68.14
9	250.0/275.0	387.9
10	250.0/550.0	72.65
11	255.0/565.0	102.5
12	260.0/445.0	121.9
13	260.0/575.0	146.7
14	265.0/295.0	2126
15	265.0/585.0	198.5
16	270.0/300.0	2654
17	270.0/435.0	130.3
18	270.0/600.0	204.8
19	275.0/610.0	150.3
20	295.0/330.0	390.5
21	300.0/335.0	366.0
22	305.0/345.0	308.7
23	310.0/350.0	238.7
24	315.0/355.0	209.4
25	320.0/360.0	202.9
26	325.0/370.0	163.3
27	330.0/375.0	159.1
28	335.0/380.0	166.9
29	340.0/385.0	135.9
30	345.0/395.0	123.0
31	350.0/400.0	134.3
32	355.0/405.0	126.1
33	365.0/420.0	112.8
34	370.0/425.0	96.89
35	380.0/440.0	69.96
36	385.0/445.0	60.86
37	395.0/460.0	41.32
38	400.0/465.0	34.57
39	410.0/480.0	22.14
40	415.0/485.0	19.57
41	420.0/490.0	15.83
42	425.0/500.0	14.46
43	430.0/505.0	12.79
44	440.0/520.0	9.731
45	445.0/295.0	1.711
46	445.0/525.0	8.807
47	450.0/305.0	1.643
48	455.0/540.0	6.172
49	465.0/555.0	3.565
50	470.0/560.0	2.877
51	480.0/575.0	1.770
52	505.0/275.0	2.030
53	510.0/280.0	2.746
54	545.0/300.0	11.76
55	550.0/305.0	11.03
56	585.0/325.0	3.373

Data points
	220.0	225.0	230.0	235.0	240.0	245.0	250.0	255.0	260.0	265.0	270.0	275.0	280.0	285.0	290.0	295.0	300.0	305.0	310.0	315.0	320.0	325.0	330.0	335.0	340.0	345.0	350.0	355.0	360.0	365.0	370.0	375.0	380.0	385.0	390.0	395.0	400.0	405.0	410.0	415.0	420.0	425.0	430.0	435.0	440.0	445.0	450.0	455.0	460.0	465.0	470.0	475.0	480.0	485.0	490.0	495.0	500.0	505.0	510.0	515.0	520.0	525.0	530.0	535.0	540.0	545.0	550.0	555.0	560.0	565.0	570.0	575.0	580.0	585.0	590.0	595.0	600.0
230.0	25.29	239.5	382.3	79.95	5.050	3.141	2.672	2.405	2.222	2.316	1.944	1.841	1.538	1.148	0.903	0.732	0.738	0.533	0.537	0.529	0.410	0.452	0.440	0.387	0.379	0.350	0.334	0.345	0.341	0.313	0.307	0.323	0.263	0.271	0.246	0.262	0.234	0.231	0.217	0.218	0.232	0.223	0.231	0.189	0.198	0.209	0.439	1.047	1.258	0.718	0.325	0.170	0.163	0.151	0.142	0.153	0.165	0.149	0.151	0.148	0.150	0.154	0.158	0.160	0.149	0.145	0.158	0.162	0.158	0.165	0.150	0.152	0.147	0.141	0.156	0.158	0.148
235.0	28.63	78.35	313.7	401.1	107.7	5.575	3.000	2.538	2.376	2.411	1.739	1.645	1.465	1.089	0.879	0.716	0.642	0.535	0.583	0.618	0.500	0.498	0.488	0.454	0.354	0.351	0.345	0.347	0.319	0.339	0.341	0.272	0.259	0.224	0.240	0.222	0.282	0.243	0.225	0.259	0.176	0.258	0.262	0.220	0.218	0.211	0.255	0.400	0.704	1.212	1.504	1.211	0.536	0.188	0.153	0.159	0.152	0.150	0.162	0.157	0.145	0.166	0.149	0.135	0.144	0.146	0.170	0.146	0.147	0.191	0.148	0.151	0.201	0.170	0.159	0.133	0.139
240.0	47.47	39.75	111.6	479.5	452.8	84.58	4.153	2.651	2.839	2.450	2.642	1.865	1.316	1.127	0.875	0.757	0.695	0.676	0.591	0.645	0.430	0.472	0.434	0.365	0.378	0.399	0.343	0.354	0.288	0.376	0.378	0.272	0.261	0.252	0.230	0.268	0.211	0.209	0.280	0.233	0.177	0.227	0.184	0.271	0.246	0.236	0.250	0.249	0.318	0.539	1.056	2.177	2.273	1.401	0.513	0.161	0.167	0.183	0.137	0.174	0.166	0.165	0.137	0.159	0.168	0.154	0.163	0.131	0.157	0.153	0.123	0.142	0.163	0.148	0.153	0.153	0.136
245.0	37.71	54.13	42.97	208.2	689.7	441.8	59.50	3.378	3.591	2.848	2.572	2.135	1.697	1.380	0.852	0.827	0.662	0.767	0.614	0.552	0.441	0.474	0.389	0.374	0.387	0.348	0.339	0.374	0.360	0.341	0.362	0.294	0.303	0.244	0.241	0.244	0.179	0.222	0.261	0.214	0.180	0.211	0.205	0.222	0.250	0.258	0.319	0.262	0.255	0.230	0.349	0.911	2.230	3.248	2.628	1.362	0.383	0.192	0.149	0.161	0.196	0.151	0.149	0.168	0.182	0.137	0.150	0.149	0.142	0.139	0.136	0.146	0.171	0.191	0.179	0.170	0.140
250.0	23.10	56.84	77.94	75.45	264.0	712.0	755.0	168.1	10.66	3.175	2.917	2.703	1.827	1.435	1.107	0.955	0.657	0.787	0.626	0.541	0.511	0.423	0.452	0.408	0.405	0.345	0.303	0.322	0.333	0.378	0.327	0.285	0.305	0.280	0.240	0.216	0.237	0.247	0.217	0.249	0.204	0.196	0.190	0.188	0.219	0.209	0.249	0.314	0.329	0.319	0.266	0.359	0.714	1.360	2.352	3.602	4.370	3.806	1.902	0.524	0.183	0.190	0.151	0.165	0.183	0.143	0.153	0.196	0.152	0.149	0.151	0.168	0.186	0.161	0.169	0.187	0.183
255.0	20.53	27.56	75.82	120.7	88.69	208.9	946.7	1444	229.9	9.258	3.891	3.397	2.289	1.412	1.413	1.050	0.919	0.795	0.706	0.595	0.537	0.452	0.454	0.442	0.429	0.420	0.395	0.316	0.340	0.405	0.383	0.279	0.317	0.240	0.288	0.207	0.233	0.200	0.198	0.211	0.234	0.216	0.193	0.184	0.221	0.187	0.215	0.205	0.268	0.415	0.499	0.501	0.378	0.454	0.661	1.070	2.130	5.462	8.454	7.301	3.070	0.553	0.162	0.191	0.151	0.165	0.184	0.168	0.163	0.169	0.156	0.187	0.161	0.149	0.142	0.158	0.169
260.0	17.44	16.23	37.54	138.8	132.5	69.45	351.7	1639	1611	173.2	6.557	3.349	2.395	1.681	1.231	0.949	0.906	0.772	0.794	0.603	0.572	0.489	0.550	0.369	0.356	0.376	0.347	0.403	0.379	0.352	0.277	0.341	0.333	0.304	0.283	0.216	0.236	0.217	0.214	0.250	0.206	0.176	0.213	0.220	0.232	0.173	0.174	0.196	0.192	0.250	0.422	0.786	0.652	0.381	0.324	0.390	0.691	1.808	4.377	9.783	11.83	7.550	2.302	0.359	0.171	0.172	0.200	0.173	0.177	0.152	0.165	0.171	0.190	0.172	0.156	0.136	0.197
265.0	15.83	17.04	20.44	80.49	209.2	104.8	101.9	687.1	2390	1541	113.5	5.533	3.467	2.279	1.698	1.335	0.802	0.766	0.706	0.598	0.526	0.592	0.514	0.447	0.382	0.505	0.337	0.449	0.352	0.361	0.356	0.332	0.366	0.278	0.271	0.233	0.304	0.234	0.204	0.244	0.200	0.208	0.244	0.211	0.284	0.239	0.199	0.249	0.207	0.163	0.231	0.548	0.889	0.885	0.565	0.292	0.345	0.582	1.245	3.447	7.906	14.04	14.51	7.028	1.429	0.223	0.194	0.160	0.186	0.168	0.197	0.171	0.154	0.152	0.188	0.175	0.178
270.0	60.55	57.01	36.61	33.00	118.1	244.3	154.0	195.3	917.3	2363	2325	479.9	14.72	2.950	2.200	1.628	1.077	1.028	0.963	0.757	0.688	0.568	0.462	0.467	0.424	0.469	0.437	0.457	0.434	0.353	0.373	0.401	0.351	0.369	0.321	0.298	0.262	0.278	0.200	0.255	0.245	0.238	0.276	0.227	0.362	0.327	0.247	0.309	0.246	0.155	0.200	0.280	0.418	0.692	1.012	1.134	0.979	0.612	0.539	1.026	2.064	4.544	8.735	13.23	15.19	12.71	6.571	1.474	0.272	0.210	0.222	0.223	0.187	0.161	0.179	0.178	0.185
275.0	175.1	204.4	107.9	33.26	49.85	152.1	387.9	224.3	305.0	757.2	2606	3635	163.5	11.59	3.272	2.075	1.706	1.261	0.937	0.815	0.858	0.714	0.552	0.533	0.477	0.432	0.418	0.496	0.522	0.389	0.365	0.383	0.355	0.382	0.355	0.359	0.364	0.352	0.326	0.365	0.316	0.301	0.416	0.410	0.541	0.619	0.568	0.430	0.395	0.256	0.197	0.236	0.313	0.398	0.442	0.779	1.732	2.030	1.439	0.797	0.944	1.512	2.644	3.675	5.696	12.23	22.91	21.81	9.808	1.516	0.299	0.278	0.220	0.180	0.210	0.206	0.221
280.0	352.1	356.4	185.0	49.75	45.68	103.9	344.5	409.8	330.2	426.0	1167	3903	3106	119.7	6.272	2.531	2.218	1.632	1.381	0.888	0.960	0.784	0.572	0.540	0.505	0.495	0.633	0.519	0.465	0.486	0.387	0.396	0.411	0.393	0.454	0.362	0.345	0.358	0.370	0.379	0.384	0.415	0.582	0.670	0.751	0.926	0.836	0.807	0.637	0.350	0.214	0.260	0.282	0.344	0.353	0.514	0.907	1.875	2.746	2.471	1.619	1.523	1.739	2.182	2.929	4.516	10.16	20.07	26.38	19.60	6.452	0.906	0.263	0.236	0.209	0.210	0.229
285.0	523.7	533.2	275.0	75.26	60.65	109.8	257.8	675.9	795.3	739.5	946.0	1888	4362	1125	79.46	4.153	2.759	1.777	1.456	1.306	1.051	0.842	0.678	0.682	0.525	0.551	0.487	0.559	0.479	0.464	0.366	0.435	0.371	0.498	0.579	0.562	0.378	0.436	0.456	0.410	0.472	0.644	0.670	0.859	1.030	1.300	1.107	1.105	0.839	0.425	0.325	0.308	0.298	0.397	0.422	0.559	0.688	1.158	2.184	3.585	3.827	3.157	2.688	3.141	3.643	3.765	5.084	7.564	14.03	24.67	28.16	15.94	3.670	0.446	0.270	0.206	0.213
290.0	684.5	698.1	359.3	105.4	89.53	139.7	281.4	638.6	1258	1557	1463	1432	1865	2910	2317	332.4	11.03	3.056	1.949	1.473	1.317	1.046	0.831	0.775	0.620	0.539	0.564	0.518	0.501	0.531	0.503	0.503	0.477	0.630	0.692	0.651	0.530	0.539	0.472	0.591	0.563	0.753	0.864	1.060	1.300	1.581	1.460	1.324	0.949	0.552	0.401	0.419	0.372	0.515	0.454	0.670	0.925	1.303	1.928	2.810	4.153	5.512	6.415	6.407	6.317	5.826	5.638	5.917	6.447	8.574	13.07	19.21	21.94	19.59	11.45	3.537	0.512
295.0	794.5	744.6	409.5	150.1	109.8	168.9	325.4	672.1	1243	2126	2120	1696	1080	946.4	2374	3422	91.73	8.221	3.029	2.104	1.578	1.347	0.847	0.969	0.570	0.688	0.789	0.524	0.578	0.608	0.510	0.513	0.543	0.710	0.697	0.675	0.589	0.639	0.516	0.609	0.741	0.820	1.011	1.166	1.456	1.711	1.543	1.619	1.062	0.705	0.501	0.502	0.491	0.524	0.606	0.765	1.161	1.500	2.070	2.902	4.025	5.362	6.995	9.275	10.19	8.935	7.388	6.907	5.577	4.820	4.750	5.403	6.454	11.94	23.71	28.10	17.41
300.0	812.8	789.8	441.6	174.5	115.1	171.7	333.6	679.3	1235	2019	2654	1997	1001	467.9	750.4	3157	2816	74.07	5.137	2.907	1.838	1.578	1.044	1.062	0.833	0.784	0.742	0.653	0.547	0.588	0.572	0.579	0.617	0.677	0.678	0.681	0.681	0.670	0.586	0.625	0.728	0.871	1.177	1.229	1.515	1.640	1.643	1.554	1.175	0.734	0.606	0.516	0.534	0.524	0.698	0.824	1.168	1.573	2.208	2.870	4.034	5.326	6.408	8.339	10.60	11.76	10.23	8.082	5.813	4.574	3.329	2.533	2.112	3.229	7.575	17.79	30.57
305.0	750.8	751.8	438.2	168.3	119.7	168.1	325.0	651.2	1178	1823	2461	2348	1065	384.6	240.4	1053	3462	2176	53.46	3.694	2.513	1.676	1.237	1.105	0.910	0.699	0.699	0.675	0.604	0.647	0.604	0.564	0.522	0.662	0.751	0.629	0.641	0.688	0.563	0.557	0.632	0.876	1.005	1.176	1.462	1.495	1.643	1.572	1.161	0.793	0.579	0.612	0.516	0.581	0.648	0.728	1.135	1.484	2.035	3.030	4.042	5.053	6.183	7.313	8.837	10.45	11.03	10.05	7.046	4.673	2.985	2.046	1.256	1.225	2.021	4.657	11.55
310.0	645.7	632.6	389.9	162.5	106.0	151.1	293.4	576.9	1013	1556	1948	2043	1351	444.4	135.8	275.0	1091	2470	1817	253.6	10.85	2.315	1.800	1.370	1.091	0.872	0.770	0.770	0.756	0.674	0.621	0.545	0.627	0.620	0.680	0.581	0.633	0.633	0.500	0.522	0.624	0.738	0.842	1.039	1.192	1.329	1.430	1.401	1.049	0.789	0.524	0.541	0.488	0.562	0.627	0.719	1.054	1.371	1.839	2.599	3.547	4.479	5.502	6.563	7.296	7.999	8.165	8.672	7.837	6.323	3.945	2.236	1.098	0.803	0.878	1.374	3.076
315.0	528.6	528.5	329.7	151.6	102.7	142.9	262.5	492.7	837.7	1275	1549	1478	1172	741.6	147.0	113.7	282.7	620.3	1672	2817	361.1	7.706	2.366	1.574	1.298	0.985	0.954	0.892	0.737	0.674	0.611	0.524	0.620	0.628	0.627	0.593	0.709	0.684	0.560	0.512	0.578	0.634	0.743	0.806	0.918	1.293	1.147	1.076	0.851	0.705	0.522	0.515	0.431	0.544	0.627	0.727	0.980	1.256	1.723	2.124	2.885	3.741	4.484	5.632	5.971	6.193	6.446	6.109	5.693	5.122	4.832	4.388	2.128	1.013	0.662	0.711	1.081
320.0	440.5	454.3	298.9	142.7	107.4	141.8	244.5	433.6	721.8	1066	1281	1204	865.9	741.0	376.3	103.2	111.1	177.0	481.2	2248	2448	58.82	4.318	2.025	1.520	1.138	1.002	0.927	0.808	0.656	0.721	0.546	0.605	0.596	0.567	0.665	0.684	0.563	0.486	0.484	0.565	0.702	0.730	0.764	0.855	0.967	0.943	1.122	0.837	0.664	0.471	0.491	0.460	0.506	0.614	0.680	0.882	1.182	1.444	2.084	2.458	3.294	3.838	4.574	4.968	5.250	5.089	5.009	4.470	3.796	3.456	3.842	3.308	2.464	0.980	0.732	0.683
325.0	366.5	399.5	266.6	137.6	104.7	135.1	226.6	393.4	629.9	906.6	1073	1008	704.2	509.5	530.0	214.0	83.52	84.71	138.0	683.3	2500	1933	47.06	3.242	1.838	1.609	1.087	1.261	0.818	0.676	0.682	0.682	0.595	0.586	0.555	0.658	0.622	0.500	0.533	0.484	0.528	0.676	0.594	0.622	0.820	0.834	0.835	0.996	0.867	0.591	0.520	0.517	0.430	0.523	0.574	0.697	0.842	1.079	1.469	1.689	2.196	2.940	3.194	3.851	4.202	4.306	4.298	4.278	3.750	3.091	2.674	2.307	2.517	3.373	2.482	1.355	0.779
330.0	320.5	328.2	245.7	146.4	106.0	133.5	211.6	343.6	525.3	738.5	860.3	815.0	579.9	364.5	350.2	390.5	182.2	75.95	65.02	174.0	736.9	1816	1901	223.7	11.89	1.902	1.473	1.272	0.909	0.783	0.763	0.681	0.610	0.605	0.548	0.558	0.556	0.546	0.535	0.397	0.471	0.590	0.582	0.583	0.675	0.769	0.795	0.921	0.779	0.591	0.477	0.524	0.484	0.563	0.567	0.713	0.778	1.059	1.287	1.519	1.861	2.338	2.780	3.063	3.318	3.551	3.586	3.397	3.036	2.570	2.084	1.676	1.566	1.874	2.249	2.476	2.278
335.0	273.1	282.2	222.1	141.3	119.6	131.0	197.2	306.0	451.0	600.3	686.2	658.1	492.7	312.0	223.7	260.3	366.0	157.8	55.51	60.71	179.5	436.7	1294	2378	342.4	9.869	1.937	1.303	1.179	0.951	0.846	0.750	0.739	0.693	0.553	0.467	0.488	0.474	0.388	0.457	0.500	0.533	0.527	0.594	0.666	0.725	0.820	0.758	0.735	0.576	0.437	0.466	0.527	0.511	0.548	0.655	0.800	1.026	1.179	1.475	1.459	1.856	2.151	2.454	2.739	2.808	2.961	2.700	2.488	2.201	1.776	1.529	1.320	1.141	1.303	1.326	2.130
340.0	255.6	247.9	200.1	139.7	122.1	126.0	184.2	279.5	392.0	516.7	579.8	562.7	436.6	289.5	195.6	168.8	294.8	294.8	77.44	37.51	55.91	110.8	349.5	1738	2142	52.96	4.222	1.657	1.297	1.134	0.798	0.671	0.632	0.640	0.542	0.482	0.452	0.450	0.452	0.439	0.516	0.479	0.484	0.572	0.608	0.671	0.747	0.693	0.610	0.527	0.431	0.579	0.555	0.430	0.589	0.583	0.782	0.941	1.183	1.334	1.423	1.558	2.010	2.206	2.310	2.657	2.425	2.460	2.079	1.817	1.790	1.555	1.142	1.124	1.051	0.951	1.177
345.0	217.2	228.0	191.0	144.0	116.5	125.1	177.3	256.9	351.2	447.6	501.1	491.0	390.8	276.3	186.3	140.2	173.4	308.7	183.2	41.67	30.70	39.75	91.30	513.6	2015	1697	44.02	2.436	1.639	1.364	0.922	0.878	0.714	0.595	0.589	0.511	0.439	0.424	0.474	0.399	0.437	0.455	0.432	0.460	0.586	0.608	0.598	0.524	0.561	0.465	0.441	0.614	0.555	0.494	0.550	0.568	0.784	0.855	1.172	1.115	1.298	1.532	1.959	1.919	2.232	2.217	2.204	2.064	1.934	1.864	1.587	1.418	1.207	1.143	1.092	0.902	0.877
350.0	189.2	198.8	177.1	137.2	116.1	125.1	165.9	227.8	307.4	385.8	424.4	420.0	346.3	255.9	179.9	131.5	118.8	168.2	238.7	131.6	41.48	28.09	36.26	128.1	579.3	1461	1550	204.1	11.72	1.606	1.178	1.013	0.736	0.664	0.673	0.510	0.523	0.470	0.429	0.387	0.460	0.393	0.391	0.455	0.527	0.526	0.588	0.579	0.558	0.480	0.409	0.526	0.573	0.514	0.525	0.603	0.674	0.807	0.928	1.054	1.191	1.353	1.568	1.612	1.845	1.724	1.897	1.821	1.646	1.711	1.325	1.332	1.170	1.047	0.979	0.897	0.894
355.0	158.7	170.3	162.1	131.9	115.1	124.2	154.9	203.0	258.8	334.2	362.6	349.9	305.3	238.0	172.6	129.3	105.6	102.9	128.6	209.4	126.1	36.29	27.72	44.38	140.5	347.3	954.5	1890	321.1	10.54	1.387	1.181	0.950	0.782	0.598	0.550	0.425	0.467	0.396	0.307	0.386	0.327	0.418	0.425	0.495	0.484	0.477	0.502	0.478	0.447	0.433	0.498	0.510	0.499	0.487	0.534	0.710	0.844	0.843	1.032	1.035	1.176	1.467	1.263	1.594	1.431	1.525	1.610	1.506	1.482	1.336	1.315	1.106	1.064	0.865	0.853	0.815
360.0	143.4	163.7	151.1	126.2	113.1	119.4	144.6	185.1	240.3	293.6	318.4	319.6	280.2	224.9	167.5	126.4	102.8	90.24	84.81	148.2	202.9	64.38	29.49	28.00	45.57	89.05	251.9	1299	1804	252.3	3.843	1.444	1.003	0.868	0.628	0.631	0.537	0.505	0.476	0.340	0.438	0.373	0.394	0.408	0.429	0.533	0.516	0.451	0.497	0.475	0.465	0.489	0.579	0.485	0.491	0.503	0.591	0.745	0.827	0.963	1.038	1.095	1.273	1.297	1.460	1.427	1.438	1.465	1.404	1.321	1.192	1.261	1.114	1.059	0.961	0.759	0.805
365.0	131.9	157.9	142.6	114.9	114.0	117.1	138.5	172.2	219.0	267.8	286.1	291.7	262.1	215.1	164.5	126.1	103.1	86.92	77.36	89.17	180.2	157.6	47.64	27.30	27.36	32.68	66.61	373.0	1589	1607	42.10	2.241	1.272	0.963	0.719	0.661	0.595	0.549	0.468	0.372	0.379	0.353	0.439	0.363	0.482	0.438	0.484	0.455	0.462	0.464	0.459	0.505	0.501	0.516	0.507	0.554	0.628	0.807	0.748	0.831	0.957	1.004	1.266	1.208	1.261	1.336	1.266	1.273	1.202	1.198	1.193	1.079	1.102	1.031	0.918	0.789	0.886
370.0	124.8	144.4	126.2	115.4	113.0	116.7	132.1	163.0	198.3	236.4	258.8	269.0	240.7	205.2	160.5	125.1	103.3	90.05	79.62	73.39	101.4	163.3	133.8	44.71	26.79	23.14	26.56	92.94	446.6	1286	1382	184.9	10.61	1.301	0.916	0.661	0.599	0.534	0.507	0.397	0.392	0.395	0.381	0.388	0.455	0.432	0.450	0.465	0.451	0.412	0.400	0.525	0.522	0.506	0.516	0.556	0.631	0.722	0.710	0.768	0.911	0.894	1.158	1.103	1.189	1.121	1.244	1.178	1.125	1.169	1.154	1.110	1.021	0.924	0.918	0.766	0.820
375.0	132.9	127.5	118.0	109.7	111.6	116.5	127.1	152.9	180.0	213.4	232.2	239.3	220.7	193.0	155.6	122.6	106.4	95.64	84.85	74.37	75.36	95.49	159.1	123.1	40.36	24.68	21.19	32.56	108.2	304.6	837.2	1596	277.2	8.090	1.164	0.874	0.716	0.551	0.573	0.427	0.340	0.381	0.423	0.395	0.413	0.391	0.437	0.469	0.403	0.383	0.420	0.473	0.541	0.525	0.449	0.482	0.547	0.721	0.684	0.722	0.775	0.869	0.988	1.076	1.168	1.035	1.113	1.257	1.184	1.200	1.015	1.037	0.903	0.887	0.851	0.794	0.869
380.0	117.1	121.8	118.7	108.2	111.2	116.1	125.1	141.9	165.4	199.0	213.2	224.5	209.1	182.5	151.3	122.1	105.9	98.77	88.04	78.36	71.91	73.49	108.9	166.9	60.97	30.93	22.92	21.32	35.64	77.20	222.3	1108	1431	41.91	3.093	1.068	0.873	0.510	0.521	0.439	0.328	0.439	0.400	0.419	0.456	0.419	0.399	0.448	0.402	0.407	0.432	0.544	0.491	0.475	0.488	0.500	0.689	0.706	0.790	0.707	0.789	0.816	0.859	1.045	1.064	1.058	0.938	1.179	1.015	1.103	1.170	1.116	0.897	0.810	0.806	0.848	0.742
385.0	109.9	113.5	117.2	102.1	108.0	114.5	124.5	140.8	156.8	182.0	198.1	210.5	196.7	175.9	144.2	119.1	107.0	97.69	89.11	83.49	73.86	69.89	76.44	135.5	135.9	50.89	27.05	21.89	22.41	28.15	58.65	317.5	1253	1107	34.06	1.671	0.878	0.783	0.620	0.445	0.354	0.392	0.443	0.332	0.384	0.462	0.424	0.428	0.424	0.377	0.374	0.511	0.440	0.497	0.485	0.515	0.660	0.563	0.742	0.602	0.752	0.818	0.887	0.968	0.961	1.056	1.004	1.029	0.950	1.076	0.983	0.937	0.969	0.880	0.885	0.721	0.732
390.0	101.5	109.6	103.2	98.18	101.7	112.4	120.3	131.0	145.0	166.6	186.6	196.1	187.6	169.5	140.3	116.0	103.3	98.23	90.52	83.82	78.55	72.25	69.04	83.72	127.3	117.3	45.90	29.88	24.91	22.71	25.00	79.49	354.0	917.0	968.3	142.1	7.529	1.019	0.675	0.497	0.480	0.460	0.456	0.358	0.396	0.440	0.407	0.387	0.436	0.386	0.348	0.492	0.435	0.483	0.497	0.486	0.610	0.558	0.644	0.596	0.716	0.746	0.823	0.858	0.890	0.934	0.997	1.007	0.960	0.975	1.053	0.965	0.932	0.882	0.858	0.747	0.789
395.0	98.51	96.57	94.97	94.58	100.4	109.0	114.3	125.5	137.4	155.2	171.5	181.6	178.6	161.6	134.8	112.6	100.6	97.02	90.19	86.55	82.09	77.73	71.56	70.76	81.41	123.0	109.6	47.82	31.74	26.30	21.22	28.35	85.92	217.7	623.1	1122	215.5	5.017	0.908	0.619	0.577	0.507	0.483	0.395	0.377	0.422	0.370	0.389	0.332	0.362	0.325	0.461	0.495	0.466	0.507	0.456	0.588	0.492	0.560	0.617	0.660	0.668	0.789	0.806	0.772	0.875	0.928	0.932	0.859	0.913	0.893	1.000	0.816	0.799	0.787	0.687	0.719
400.0	98.68	96.39	96.97	94.20	95.13	104.6	112.7	116.9	127.6	147.7	159.3	170.8	174.0	156.9	129.6	107.3	99.95	92.57	90.56	85.70	82.94	79.27	74.06	70.39	70.07	91.65	134.3	84.93	40.64	30.19	23.92	19.14	27.14	54.21	167.9	815.3	981.8	34.70	1.965	0.772	0.546	0.526	0.449	0.394	0.418	0.411	0.375	0.335	0.374	0.323	0.365	0.402	0.430	0.509	0.429	0.561	0.566	0.599	0.544	0.591	0.705	0.650	0.795	0.840	0.716	0.788	0.964	0.929	0.870	0.910	0.907	0.907	0.782	0.845	0.751	0.664	0.786
405.0	74.29	89.04	86.08	86.87	95.63	102.5	112.3	116.5	122.7	140.3	154.8	168.4	162.7	150.9	127.9	105.6	95.16	89.69	89.37	86.41	82.56	80.06	78.17	73.09	69.37	73.19	111.4	126.1	56.47	36.15	26.71	19.37	15.58	18.56	42.54	236.3	898.1	752.4	27.80	1.100	0.668	0.681	0.495	0.452	0.435	0.391	0.363	0.370	0.369	0.329	0.350	0.416	0.425	0.443	0.409	0.490	0.555	0.545	0.594	0.628	0.644	0.736	0.707	0.663	0.791	0.864	0.782	0.790	0.831	0.969	0.908	0.858	0.827	0.816	0.785	0.769	0.742
410.0	85.21	88.44	83.32	82.29	91.26	97.52	105.4	114.9	121.0	134.5	146.7	160.5	155.1	145.7	122.8	99.55	89.16	85.75	85.49	82.95	81.16	79.24	79.06	76.01	72.31	70.86	80.97	112.1	107.6	58.61	32.82	21.56	15.29	12.07	14.76	57.17	255.2	659.2	543.9	125.0	5.368	0.778	0.540	0.505	0.440	0.367	0.358	0.373	0.359	0.295	0.386	0.384	0.390	0.473	0.416	0.448	0.525	0.614	0.620	0.599	0.604	0.653	0.702	0.621	0.789	0.736	0.773	0.768	0.898	0.887	0.810	0.812	0.885	0.788	0.660	0.708	0.667
