Sample:	'1
File name:	t2025022710¶þ²ã³Ø10  6000±¶.FD3
Run date:	'11:27:44, 02/28/2025
Operator:	Administrator
Comment:	'

Instrument
Model:	F-2700 FL Spectrophotometer
Serial number:	23B8-004
ROM Version:	4J14000 07

Instrument parameters
Measurement type:	3-D scan
Data mode:	Fluorescence
EX  Start WL:	220.0 nm
EX  End WL:	600.0 nm
EX Sampling interval:	5.0 nm
EM  Start WL:	230.0 nm
EM  End WL:	650.0 nm
EM Sampling interval:	5.0 nm
Scan speed:	12000 nm/min
EX Slit:	5.0 nm
EM Slit:	5.0 nm
PMT Voltage:	700 V
Response:	Auto 
Corrected spectra:	Off
Contour interval:	50.000

Peak integration
Integration method:	Rectangular
Sensitivity:	1
Threshold:	1.000

Peaks
No.	ApexEX/EM(nm)	Height(Data)
1	225.0/420.0	204.0
2	225.0/490.0	199.2
3	230.0/250.0	308.1
4	230.0/500.0	183.0
5	235.0/255.0	354.7
6	235.0/515.0	138.2
7	240.0/265.0	409.6
8	240.0/525.0	130.1
9	245.0/270.0	402.3
10	245.0/535.0	111.6
11	250.0/550.0	102.7
12	270.0/300.0	6347
13	270.0/595.0	470.2
14	300.0/335.0	314.1
15	305.0/345.0	260.4
16	310.0/350.0	196.1
17	315.0/355.0	180.4
18	320.0/360.0	166.4
19	325.0/370.0	131.9
20	330.0/375.0	124.6
21	335.0/380.0	137.3
22	340.0/385.0	110.4
23	350.0/400.0	96.52
24	355.0/405.0	84.25
25	360.0/410.0	63.71
26	365.0/420.0	65.58
27	370.0/425.0	62.85
28	375.0/430.0	46.74
29	380.0/440.0	42.64
30	385.0/445.0	39.60
31	390.0/300.0	16.14
32	390.0/450.0	29.54
33	395.0/460.0	28.12
34	400.0/465.0	25.67
35	405.0/470.0	19.05
36	410.0/480.0	17.36
37	415.0/485.0	16.32
38	420.0/490.0	13.17
39	425.0/500.0	12.17
40	430.0/505.0	10.71
41	435.0/510.0	8.363
42	440.0/300.0	11.34
43	440.0/520.0	8.064
44	445.0/525.0	6.989
45	455.0/540.0	4.782
46	465.0/555.0	2.902
47	470.0/560.0	2.695
48	475.0/260.0	2.048
49	480.0/575.0	1.881
50	485.0/265.0	2.224
51	485.0/580.0	1.773
52	495.0/270.0	2.157
53	535.0/585.0	2.847
54	540.0/300.0	29.20
55	550.0/305.0	26.80

Data points
	220.0	225.0	230.0	235.0	240.0	245.0	250.0	255.0	260.0	265.0	270.0	275.0	280.0	285.0	290.0	295.0	300.0	305.0	310.0	315.0	320.0	325.0	330.0	335.0	340.0	345.0	350.0	355.0	360.0	365.0	370.0	375.0	380.0	385.0	390.0	395.0	400.0	405.0	410.0	415.0	420.0	425.0	430.0	435.0	440.0	445.0	450.0	455.0	460.0	465.0	470.0	475.0	480.0	485.0	490.0	495.0	500.0	505.0	510.0	515.0	520.0	525.0	530.0	535.0	540.0	545.0	550.0	555.0	560.0	565.0	570.0	575.0	580.0	585.0	590.0	595.0	600.0
230.0	92.50	619.5	1544	485.6	22.21	6.525	5.697	4.571	4.362	4.072	3.648	3.471	2.542	1.949	1.662	1.295	1.193	1.078	0.944	0.852	0.806	0.733	0.741	0.650	0.666	0.600	0.583	0.577	0.577	0.539	0.549	0.516	0.551	0.485	0.469	0.446	0.441	0.455	0.430	0.433	0.609	0.912	0.927	0.571	0.412	0.378	0.881	3.334	5.136	3.879	1.269	0.436	0.311	0.316	0.327	0.314	0.336	0.333	0.350	0.341	0.330	0.333	0.330	0.349	0.350	0.348	0.357	0.340	0.372	0.374	0.357	0.367	0.374	0.343	0.352	0.367	0.356
235.0	226.9	200.0	886.6	1454	390.6	25.71	5.630	4.909	4.635	4.160	3.920	3.352	2.689	1.803	1.578	1.288	1.189	1.056	0.954	0.832	0.800	0.790	0.686	0.698	0.641	0.629	0.717	0.634	0.547	0.605	0.488	0.494	0.486	0.467	0.452	0.418	0.431	0.442	0.430	0.385	0.419	0.625	0.815	0.899	0.706	0.560	0.466	1.079	2.088	3.869	4.101	4.042	1.890	0.572	0.314	0.325	0.356	0.315	0.327	0.331	0.364	0.302	0.319	0.350	0.375	0.325	0.344	0.306	0.372	0.363	0.411	0.388	0.335	0.372	0.330	0.370	0.360
240.0	306.1	187.1	277.2	1253	1264	300.9	11.71	6.260	4.928	4.072	5.241	3.160	2.682	2.122	1.540	1.398	1.213	1.182	0.846	0.868	0.812	0.772	0.629	0.687	0.629	0.647	0.658	0.578	0.507	0.586	0.541	0.450	0.516	0.500	0.510	0.441	0.431	0.431	0.456	0.387	0.456	0.424	0.601	0.677	1.122	1.113	0.634	0.561	0.739	1.318	2.419	5.269	6.014	3.805	1.372	0.425	0.360	0.297	0.344	0.370	0.331	0.339	0.346	0.330	0.371	0.364	0.368	0.367	0.375	0.385	0.439	0.360	0.368	0.360	0.394	0.355	0.378
245.0	216.6	307.3	153.4	444.0	1393	1307	183.6	6.581	5.045	5.258	5.157	3.451	2.572	2.275	1.757	1.265	1.199	1.143	0.857	0.960	0.876	0.735	0.721	0.730	0.549	0.713	0.672	0.597	0.532	0.547	0.535	0.497	0.488	0.505	0.481	0.475	0.445	0.522	0.470	0.409	0.416	0.428	0.451	0.462	0.679	1.005	1.127	0.972	0.518	0.540	0.833	2.009	4.447	7.311	6.658	3.477	0.971	0.346	0.356	0.336	0.339	0.373	0.357	0.380	0.362	0.421	0.387	0.335	0.359	0.347	0.385	0.378	0.395	0.417	0.387	0.371	0.367
250.0	91.06	224.9	308.1	202.2	474.7	1344	1441	214.1	24.34	6.128	5.749	4.234	2.969	2.431	1.796	1.462	1.348	1.251	0.948	0.934	0.968	0.797	0.676	0.738	0.605	0.677	0.645	0.608	0.540	0.598	0.569	0.511	0.508	0.479	0.481	0.499	0.428	0.500	0.430	0.428	0.388	0.423	0.439	0.423	0.464	0.538	0.743	1.115	1.204	0.963	0.652	0.752	1.370	2.736	4.541	6.843	7.696	6.557	3.238	0.963	0.365	0.326	0.398	0.340	0.408	0.344	0.362	0.402	0.376	0.331	0.364	0.335	0.366	0.379	0.369	0.363	0.363
255.0	55.12	77.34	224.0	354.7	196.6	363.7	1261	2074	262.0	21.23	6.513	4.819	3.169	2.640	1.852	1.498	1.656	1.224	1.018	1.023	0.922	0.874	0.746	0.693	0.666	0.605	0.688	0.615	0.614	0.595	0.599	0.546	0.526	0.514	0.571	0.454	0.465	0.446	0.536	0.403	0.399	0.436	0.448	0.391	0.413	0.419	0.483	0.524	0.775	1.144	1.501	1.368	0.746	0.903	1.355	1.975	3.529	7.988	12.49	10.12	4.481	0.961	0.523	0.377	0.373	0.360	0.342	0.393	0.377	0.393	0.327	0.343	0.388	0.368	0.349	0.418	0.419
260.0	40.16	40.15	88.77	332.2	298.2	133.7	416.1	1929	1942	199.7	12.06	4.987	4.285	3.522	1.929	1.688	1.576	1.348	1.115	1.038	0.896	0.793	0.913	0.712	0.650	0.669	0.670	0.718	0.582	0.626	0.598	0.602	0.477	0.558	0.535	0.538	0.494	0.472	0.546	0.420	0.393	0.484	0.443	0.371	0.381	0.436	0.358	0.404	0.456	0.561	1.031	2.048	1.790	0.976	0.696	0.748	1.182	2.613	6.197	11.63	14.08	9.360	4.938	0.636	0.367	0.404	0.340	0.387	0.382	0.389	0.321	0.331	0.360	0.361	0.352	0.436	0.402
265.0	41.26	35.32	37.26	158.8	409.6	212.7	126.4	727.5	2473	1664	139.2	7.554	4.761	3.453	2.093	2.042	1.648	1.462	1.113	1.115	0.938	0.942	0.762	0.637	0.718	0.616	0.734	0.695	0.592	0.702	0.607	0.595	0.563	0.508	0.517	0.492	0.481	0.441	0.474	0.418	0.447	0.424	0.516	0.396	0.420	0.423	0.335	0.360	0.381	0.359	0.488	1.268	2.147	2.224	1.352	0.590	0.587	1.015	1.798	3.903	9.210	15.50	25.45	7.897	1.916	0.457	0.418	0.369	0.367	0.382	0.349	0.351	0.364	0.386	0.359	0.396	0.394
270.0	65.84	40.80	29.02	55.37	207.7	402.3	239.1	209.7	869.6	2237	2356	511.1	20.99	4.683	2.812	2.290	1.673	1.422	1.199	1.112	0.936	0.908	0.791	0.651	0.780	0.649	0.729	0.674	0.604	0.616	0.659	0.611	0.658	0.650	0.594	0.548	0.579	0.503	0.502	0.502	0.454	0.446	0.509	0.524	0.421	0.466	0.426	0.399	0.360	0.325	0.353	0.550	0.883	1.370	2.091	2.157	1.682	0.934	0.805	1.248	2.570	5.209	14.83	13.37	16.63	13.01	6.358	1.788	0.526	0.457	0.397	0.345	0.362	0.381	0.399	0.391	0.375
275.0	312.6	179.0	109.7	87.18	97.84	231.0	559.0	316.8	385.5	848.8	2379	3605	158.2	22.52	4.283	3.002	2.407	1.722	1.432	1.374	0.870	0.860	0.823	0.687	0.708	0.784	0.824	0.763	0.631	0.739	0.691	0.792	1.111	1.303	1.085	0.978	0.878	0.880	0.964	0.864	0.938	0.846	1.034	0.974	0.835	0.858	0.583	0.681	0.544	0.600	0.451	0.588	0.628	0.725	0.938	1.408	2.818	3.569	2.369	1.257	1.634	2.276	4.815	4.718	7.001	12.78	19.88	19.27	8.689	2.113	0.675	0.430	0.421	0.365	0.405	0.419	0.435
280.0	1110	714.8	459.0	324.8	212.6	217.6	567.4	959.8	855.3	1151	1717	3963	2971	129.8	10.27	3.854	2.884	2.119	1.759	1.396	1.192	0.956	0.901	0.812	0.816	0.758	0.788	0.836	0.718	0.714	0.678	1.403	2.499	3.232	3.043	2.503	2.195	1.813	1.924	1.909	1.950	2.196	2.493	2.389	2.301	2.099	1.743	1.505	1.355	1.152	1.036	1.285	1.033	0.976	0.883	1.065	1.936	3.681	5.131	4.611	3.544	3.858	5.211	5.835	6.746	8.062	11.76	19.27	23.00	21.65	16.67	1.026	0.575	0.493	0.457	0.537	0.528
285.0	2313	1538	1072	760.2	488.8	375.3	624.4	1426	1915	2028	2489	2905	4030	1078	77.91	6.298	3.928	2.523	2.174	1.704	1.357	1.113	1.144	0.938	1.003	0.811	0.767	0.820	0.762	0.702	0.952	2.504	4.780	6.615	6.290	4.618	4.154	3.660	3.580	3.702	3.975	4.136	4.500	4.649	4.608	3.957	3.714	3.402	2.945	2.660	2.391	2.557	2.106	1.651	1.500	1.705	2.062	3.038	5.138	7.897	9.264	8.421	9.018	10.26	11.59	11.03	11.28	12.94	15.58	32.57	38.31	12.06	4.914	0.856	0.577	0.626	0.640
290.0	4044	2940	2138	1561	949.1	628.8	913.7	1754	3148	4069	4192	3527	2357	2597	2122	325.8	10.35	3.242	2.568	1.957	1.806	1.436	1.242	1.129	1.086	1.081	0.873	0.866	0.853	0.863	1.280	3.835	7.464	11.32	11.21	8.931	7.565	6.436	6.026	6.213	6.195	7.029	7.296	8.032	7.659	7.192	6.416	5.794	5.703	4.940	4.400	4.676	3.587	2.812	2.406	2.639	3.360	4.575	6.207	8.815	12.02	14.96	17.62	18.79	19.43	18.16	17.45	16.16	12.99	14.81	15.91	14.28	23.10	15.57	8.308	2.856	0.979
295.0	5351	4058	3009	2212	1321	859.4	1157	2078	3561	5356	5769	4453	2095	1036	2158	3967	86.18	7.251	3.103	2.720	2.008	1.613	1.371	1.103	1.184	1.072	0.982	0.965	0.934	0.853	1.608	4.400	9.807	14.91	14.12	12.01	10.33	8.884	8.125	7.989	8.237	8.902	9.656	9.836	10.10	9.871	8.515	8.264	7.654	6.706	6.185	6.406	5.201	3.772	3.162	3.253	4.147	5.533	7.337	10.03	13.10	16.89	20.70	25.64	28.76	24.47	22.62	20.19	15.29	10.15	7.352	5.793	7.666	10.14	16.88	20.25	12.17
300.0	5618	4457	3366	2437	1445	918.7	1203	2162	3604	5303	6347	4892	2159	718.3	763.1	3859	2846	65.62	4.593	3.445	2.638	1.951	1.601	1.486	1.385	1.141	1.110	1.050	0.986	0.939	1.742	4.467	10.19	15.72	16.14	13.27	11.63	10.13	8.818	8.289	8.950	9.391	10.09	10.90	11.34	10.54	9.252	9.253	8.547	7.535	7.074	7.069	5.779	4.074	3.506	3.450	4.542	5.607	7.687	10.09	13.15	17.25	20.29	24.62	29.20	28.90	25.37	21.88	15.96	10.19	6.186	4.103	3.772	3.861	6.236	13.10	21.44
305.0	5579	4414	3316	2434	1426	897.3	1163	2054	3420	4937	5935	5133	2231	708.8	351.2	1347	3761	636.8	43.57	4.063	3.089	1.986	1.749	1.523	1.315	1.106	1.050	1.214	0.911	1.091	1.695	4.483	10.06	15.21	16.11	13.62	12.00	10.36	8.939	8.328	8.816	9.293	9.680	10.33	10.80	10.60	9.346	9.554	8.662	7.509	6.963	6.923	5.566	4.137	3.579	3.221	4.302	5.490	7.636	9.508	12.96	15.84	19.35	22.83	25.46	26.61	26.80	23.86	16.92	9.963	6.059	4.046	3.262	2.565	2.715	4.379	8.598
310.0	4887	3827	2945	2143	1265	776.0	972.7	1716	2865	4124	4782	4377	2384	805.0	287.5	378.3	1202	1742	1383	210.6	6.901	2.242	1.721	1.595	1.382	1.216	1.210	1.132	0.952	1.012	1.567	3.946	8.675	13.21	14.43	12.43	10.62	9.217	7.874	7.370	7.723	7.982	8.523	9.268	9.488	9.351	8.211	8.388	7.875	6.614	6.089	6.237	4.869	3.709	3.190	2.921	3.745	4.766	6.178	8.099	10.64	13.34	16.52	19.47	21.30	21.29	20.58	20.62	16.69	11.18	7.130	4.430	2.998	2.495	1.988	2.065	2.978
315.0	3855	3121	2395	1716	1012	610.9	751.2	1315	2186	3129	3625	3233	1997	1080	325.2	167.1	303.6	448.6	1370	2111	62.69	4.709	2.135	1.672	1.486	1.329	1.234	1.170	0.973	1.030	1.259	3.194	7.106	10.83	11.59	10.35	9.228	7.708	6.507	6.208	6.087	6.595	7.084	7.339	7.602	7.421	6.781	6.857	6.442	5.352	4.859	5.131	4.078	3.053	2.451	2.365	3.024	3.637	5.168	6.388	8.356	10.38	12.44	15.08	16.67	16.01	16.29	14.96	12.35	9.174	8.093	6.433	3.848	2.408	1.686	1.529	1.704
320.0	3168	2476	1942	1393	835.5	506.0	598.1	1024	1710	2449	2850	2545	1512	1035	500.7	129.5	106.0	120.4	402.2	1877	1749	51.36	3.283	2.013	1.502	1.438	1.340	1.150	0.913	0.943	1.100	2.756	5.820	8.731	9.579	8.816	7.791	6.799	5.381	5.311	5.075	5.560	5.910	5.914	6.147	6.144	5.593	5.631	5.150	4.503	4.150	4.284	3.322	2.698	2.017	2.021	2.481	2.905	3.934	5.377	6.470	8.192	9.907	12.03	13.13	12.68	12.76	12.10	9.830	6.930	6.024	6.150	5.366	3.646	1.894	1.460	1.207
325.0	2525	2026	1592	1132	678.1	411.4	474.3	803.5	1340	1923	2246	2018	1194	741.0	636.8	209.8	62.96	45.77	104.7	603.1	2052	1252	37.00	2.689	1.834	1.591	1.316	1.051	0.935	1.093	1.028	2.369	4.852	7.200	7.906	7.219	6.241	5.717	4.383	4.288	4.066	4.339	4.513	5.062	5.184	5.034	4.542	4.581	4.334	3.863	3.381	3.478	2.707	2.120	1.713	1.699	2.014	2.540	3.187	4.173	5.096	6.659	7.707	9.173	10.44	10.64	9.793	9.652	7.662	5.593	4.691	4.253	4.515	4.347	3.497	1.867	1.144
330.0	1908	1562	1228	870.4	514.9	312.3	347.4	585.0	955.5	1381	1628	1478	911.3	513.6	418.3	374.4	142.6	34.42	37.87	147.9	630.6	1362	1041	180.1	6.012	1.743	1.511	1.311	1.041	1.000	1.149	2.039	3.709	5.439	6.179	5.616	5.035	4.358	3.562	3.367	3.071	3.192	3.646	3.704	3.897	3.924	3.466	3.647	3.463	3.059	2.704	2.830	2.187	1.735	1.440	1.409	1.656	1.980	2.545	3.049	3.923	4.865	5.655	6.750	7.623	7.736	7.194	7.228	6.137	4.595	3.547	2.874	2.736	2.683	3.032	2.845	2.605
335.0	1366	1158	930.7	644.6	385.5	227.1	247.2	400.5	670.0	963.2	1146	1063	683.1	394.7	245.0	243.8	314.1	79.15	24.72	45.03	151.2	334.7	944.3	1574	53.27	4.556	2.196	1.704	1.337	1.045	1.051	1.697	2.902	4.122	4.847	4.348	3.946	3.489	2.875	2.588	2.583	2.592	2.711	2.829	2.978	3.177	2.832	2.720	2.647	2.350	2.120	2.109	1.719	1.421	1.202	1.074	1.312	1.429	1.929	2.235	2.759	3.444	4.331	4.938	5.164	5.186	5.215	5.144	4.536	3.518	2.750	2.155	2.080	1.724	1.574	1.676	2.286
340.0	1070	928.0	740.8	516.4	308.0	182.6	194.2	307.5	501.5	722.6	854.1	818.6	554.1	329.0	190.4	136.1	256.5	231.1	44.05	22.08	43.82	84.14	269.0	1318	1294	45.67	3.120	1.788	1.299	1.074	1.172	1.497	2.277	3.406	3.832	3.792	3.331	2.937	2.377	2.030	2.033	2.097	2.281	2.352	2.322	2.387	2.345	2.226	2.227	1.872	1.681	1.761	1.420	1.272	0.972	0.828	1.039	1.191	1.599	1.802	2.146	2.606	3.137	3.578	4.092	3.972	3.996	3.934	3.515	2.829	2.542	1.922	1.837	1.550	1.181	1.157	1.334
345.0	855.5	736.6	609.9	417.8	254.6	152.5	151.8	244.2	389.2	549.0	665.1	649.7	461.9	285.9	163.2	97.22	131.0	260.4	136.2	22.94	19.58	27.47	68.73	408.7	1391	1002	37.23	2.345	1.653	1.128	1.274	1.366	1.966	2.774	3.081	2.852	2.815	2.507	1.988	1.755	1.628	1.730	1.743	1.908	2.014	1.947	1.905	1.967	1.908	1.507	1.485	1.421	1.271	1.083	0.786	0.794	0.880	0.991	1.134	1.490	1.821	2.184	2.601	2.880	3.210	3.247	3.255	3.161	3.110	2.294	2.163	1.738	1.582	1.418	1.170	1.090	1.029
350.0	663.9	572.7	474.9	326.3	197.4	122.9	116.6	179.3	282.8	402.4	488.7	484.1	358.9	233.2	137.9	80.66	68.18	124.0	196.1	104.9	23.12	14.78	23.04	99.09	413.6	979.8	1021	180.9	8.358	1.371	1.422	1.277	1.681	2.356	2.692	2.441	2.302	2.008	1.562	1.401	1.422	1.365	1.410	1.450	1.602	1.598	1.477	1.597	1.474	1.293	1.243	1.143	1.075	0.883	0.746	0.715	0.783	0.867	1.014	1.191	1.447	1.761	2.073	2.326	2.438	2.618	2.480	2.423	2.290	2.017	1.872	1.604	1.396	1.224	1.028	0.880	0.949
355.0	504.7	446.4	346.4	258.3	151.9	97.06	93.85	132.6	199.4	288.3	359.7	360.8	277.7	192.9	118.2	71.36	50.33	54.53	93.03	180.4	67.06	17.71	13.59	29.60	98.25	235.7	837.0	1501	263.1	5.932	1.876	1.246	1.585	1.998	2.021	2.041	1.899	1.724	1.517	1.185	1.198	1.149	1.086	1.129	1.171	1.372	1.268	1.371	1.217	1.022	0.946	0.994	0.914	0.773	0.652	0.701	0.682	0.686	0.819	0.858	1.070	1.281	1.514	1.889	1.794	1.881	1.913	2.001	1.857	1.701	1.569	1.317	1.213	1.108	0.910	0.884	0.786
360.0	406.3	383.1	296.4	216.6	129.0	88.23	80.95	108.2	161.0	225.4	280.0	286.4	231.9	165.3	106.0	65.15	45.40	39.43	45.48	117.9	166.4	48.72	13.71	15.12	29.15	59.78	224.9	1061	1200	46.82	4.217	1.392	1.528	1.733	1.851	1.732	1.694	1.478	1.380	1.057	1.146	1.030	1.018	1.072	1.015	1.089	1.097	1.120	1.093	0.886	0.819	0.914	0.857	0.602	0.702	0.665	0.691	0.573	0.718	0.810	0.889	1.086	1.269	1.465	1.712	1.695	1.651	1.613	1.627	1.365	1.258	1.250	1.205	1.020	0.787	0.788	0.772
365.0	373.6	327.2	260.5	187.8	119.3	75.01	74.72	95.02	133.5	186.7	231.1	235.0	199.6	145.1	97.34	62.66	46.21	37.48	34.18	57.51	149.6	125.6	27.75	12.57	14.86	20.92	57.69	299.0	1066	974.3	43.51	2.016	1.683	1.643	1.753	1.668	1.663	1.368	1.296	1.030	0.993	1.036	0.964	0.943	0.980	0.943	1.032	0.970	0.880	0.799	0.741	0.797	0.743	0.698	0.566	0.553	0.627	0.549	0.716	0.685	0.875	0.896	0.995	1.178	1.290	1.536	1.422	1.511	1.338	1.193	1.133	1.116	1.043	0.962	0.885	0.747	0.681
370.0	312.6	282.0	222.5	165.3	111.8	73.49	67.49	79.48	107.1	146.1	178.9	191.4	163.7	126.0	88.84	61.75	48.50	40.45	34.82	37.36	69.86	131.9	95.42	28.36	12.73	12.64	20.10	72.73	298.3	792.1	1489	174.4	10.44	1.745	1.709	1.605	1.410	1.291	1.176	0.976	0.916	0.903	0.896	0.920	0.928	0.851	0.839	0.924	0.844	0.689	0.674	0.726	0.682	0.666	0.604	0.571	0.671	0.561	0.674	0.652	0.798	0.875	0.912	1.026	1.087	1.180	1.257	1.263	1.160	1.076	1.016	1.092	0.972	0.833	0.742	0.805	0.753
375.0	276.9	261.1	193.5	148.6	107.3	79.27	64.74	70.34	89.45	116.2	140.9	151.9	136.2	109.8	80.68	60.83	53.89	44.61	39.95	37.66	41.82	62.07	124.6	100.1	23.13	12.42	13.12	22.39	71.08	186.3	720.0	1163	275.0	9.253	1.844	1.519	1.406	1.165	1.140	1.011	0.872	0.821	0.951	0.847	0.837	0.818	0.789	0.878	0.709	0.707	0.640	0.695	0.677	0.638	0.538	0.478	0.638	0.557	0.671	0.744	0.686	0.790	0.736	0.912	1.000	0.955	0.940	1.114	1.130	0.957	1.051	0.980	0.846	0.828	0.655	0.793	0.809
380.0	246.3	236.6	177.9	135.1	103.6	77.08	66.06	69.40	77.93	99.28	123.7	130.6	120.7	101.3	77.03	61.32	54.76	49.71	43.80	40.61	37.11	39.98	76.30	137.3	51.70	16.14	11.54	11.66	20.92	46.61	180.6	758.3	1257	192.4	3.841	1.603	1.384	1.149	1.129	0.923	0.871	0.808	0.868	0.706	0.811	0.797	0.677	0.790	0.651	0.676	0.676	0.729	0.669	0.586	0.527	0.559	0.676	0.630	0.538	0.585	0.615	0.724	0.686	0.862	0.959	0.874	0.926	0.976	1.009	0.963	0.888	0.909	0.869	0.761	0.694	0.798	0.800
385.0	234.1	212.8	178.5	134.1	104.8	79.11	67.02	66.55	73.55	86.56	105.4	116.0	105.2	93.19	75.29	61.72	58.25	52.49	47.29	44.59	37.97	36.01	43.10	102.6	110.4	33.73	12.58	9.603	10.35	14.88	45.48	207.6	966.5	947.9	34.80	2.280	1.398	1.176	1.232	1.044	0.863	0.842	0.814	0.786	0.849	0.731	0.702	0.777	0.736	0.662	0.607	0.707	0.606	0.637	0.593	0.537	0.650	0.644	0.585	0.608	0.593	0.735	0.728	0.765	0.907	0.803	0.806	0.786	0.875	0.832	0.838	0.846	0.825	0.720	0.723	0.745	0.757
390.0	223.0	205.8	168.2	140.7	108.0	80.03	66.16	65.92	66.92	76.31	92.15	99.98	94.76	86.07	71.83	63.17	59.46	54.79	50.93	46.70	41.63	36.00	34.77	51.30	93.89	89.38	30.80	10.70	8.379	8.807	15.04	50.53	256.8	669.8	788.5	148.5	9.840	1.386	1.431	1.057	0.858	0.852	0.876	0.798	0.843	0.731	0.757	0.800	0.649	0.644	0.652	0.766	0.656	0.627	0.637	0.551	0.607	0.599	0.636	0.616	0.621	0.653	0.645	0.693	0.808	0.790	0.761	0.784	0.814	0.806	0.836	0.792	0.773	0.798	0.892	0.793	0.772
395.0	220.9	196.3	167.8	145.8	107.8	81.87	68.87	62.98	61.72	71.50	83.72	88.30	85.87	82.23	71.51	63.13	61.77	56.53	55.08	50.54	44.46	37.90	34.38	33.28	45.17	85.05	83.37	22.62	9.186	7.840	8.648	15.44	60.67	156.1	408.4	1136	232.9	8.985	1.622	1.131	0.964	0.830	0.943	0.819	0.873	0.772	0.791	0.734	0.740	0.729	0.657	0.651	0.693	0.639	0.608	0.546	0.609	0.571	0.631	0.557	0.576	0.591	0.600	0.648	0.643	0.696	0.737	0.839	0.719	0.735	0.741	0.778	0.759	0.818	0.813	0.850	0.890
400.0	203.1	197.5	180.3	150.3	114.9	82.76	66.67	63.17	58.83	66.78	75.83	79.94	79.42	77.12	70.87	65.07	63.56	58.61	55.07	51.46	45.87	39.82	34.85	30.04	29.75	49.19	96.52	49.45	13.18	7.878	7.368	8.233	17.20	38.22	102.1	705.8	1013	171.5	5.140	1.195	0.997	0.912	0.868	0.751	0.818	0.790	0.868	0.797	0.761	0.703	0.636	0.722	0.726	0.722	0.528	0.576	0.631	0.555	0.620	0.626	0.582	0.616	0.590	0.631	0.648	0.655	0.643	0.742	0.791	0.769	0.704	0.789	0.778	0.795	0.726	0.795	0.841
405.0	210.2	200.0	177.5	154.0	114.2	85.50	65.23	62.60	59.95	63.17	71.61	74.20	76.89	74.53	68.99	65.09	61.69	58.90	56.15	53.98	46.15	40.98	36.27	30.14	25.95	29.81	66.10	84.25	30.62	9.039	7.333	6.299	7.524	11.27	25.77	188.8	774.5	724.0	33.65	1.869	1.014	1.012	1.050	0.804	0.850	0.852	0.802	0.819	0.735	0.737	0.755	0.736	0.729	0.751	0.590	0.530	0.754	0.650	0.587	0.526	0.591	0.604	0.599	0.638	0.579	0.686	0.660	0.728	0.705	0.747	0.740	0.829	0.766	0.709	0.728	0.762	0.724
410.0	211.3	204.0	186.3	154.4	115.5	82.35	65.21	57.94	55.47	60.90	66.21	71.13	72.15	70.30	67.02	64.09	62.54	57.87	55.93	53.21	46.00	40.69	35.09	29.83	25.49	24.42	33.80	63.52	63.71	27.02	8.539	5.984	5.337	5.634	8.240	44.81	203.0	480.5	1220	140.0	8.049	1.095	1.076	0.889	0.853	0.833	0.804	0.857	0.783	0.705	0.691	0.721	0.736	0.713	0.660	0.586	0.681	0.623	0.562	0.547	0.564	0.589	0.574	0.562	0.587	0.599	0.655	0.685	0.695	0.678	0.781	0.748	0.833	0.681	0.773	0.733	0.795
