Sample:	'1
File name:	Default_20230112_143826.FD3
Run date:	'14:32:05, 01/12/2023
Operator:	dsjg
Comment:	'

Instrument
Model:	F-2700 FL Spectrophotometer
Serial number:	2198-001
ROM Version:	4J14000 07

Instrument parameters
Measurement type:	3-D scan
Data mode:	Fluorescence
EX  Start WL:	220.0 nm
EX  End WL:	600.0 nm
EX Sampling interval:	5.0 nm
EM  Start WL:	230.0 nm
EM  End WL:	650.0 nm
EM Sampling interval:	5.0 nm
Scan speed:	12000 nm/min
EX Slit:	5.0 nm
EM Slit:	5.0 nm
PMT Voltage:	700 V
Response:	Auto 
Corrected spectra:	Off
Contour interval:	50.000

Peak integration
Integration method:	Rectangular
Sensitivity:	1
Threshold:	1.000

Peaks
No.	ApexEX/EM(nm)	Height(Data)
1	225.0/495.0	62.60
2	230.0/365.0	138.2
3	230.0/505.0	67.53
4	235.0/260.0	176.3
5	235.0/375.0	138.0
6	235.0/515.0	63.36
7	235.0/635.0	3.383
8	240.0/265.0	198.4
9	240.0/385.0	125.0
10	240.0/530.0	57.62
11	245.0/270.0	181.6
12	245.0/540.0	51.16
13	250.0/275.0	202.3
14	250.0/435.0	99.01
15	250.0/550.0	44.48
16	255.0/280.0	216.8
17	255.0/560.0	37.29
18	260.0/285.0	199.4
19	260.0/570.0	28.29
20	265.0/585.0	28.87
21	270.0/300.0	292.9
22	270.0/595.0	24.59
23	275.0/305.0	310.2
24	275.0/610.0	20.51
25	280.0/310.0	270.3
26	280.0/350.0	134.8
27	280.0/620.0	17.79
28	285.0/315.0	271.0
29	285.0/355.0	133.6
30	285.0/630.0	13.94
31	290.0/325.0	248.0
32	290.0/645.0	11.33
33	295.0/330.0	203.2
34	300.0/335.0	198.6
35	305.0/340.0	185.6
36	310.0/350.0	151.9
37	315.0/355.0	140.7
38	320.0/360.0	153.6
39	330.0/375.0	113.1
40	335.0/380.0	124.6
41	340.0/385.0	111.3
42	350.0/400.0	91.53
43	355.0/405.0	88.94
44	360.0/410.0	73.88
45	365.0/415.0	70.02
46	370.0/425.0	67.00
47	375.0/430.0	54.35
48	380.0/435.0	48.62
49	385.0/445.0	43.94
50	390.0/450.0	35.79
51	395.0/455.0	32.98
52	400.0/465.0	31.19
53	405.0/470.0	26.71
54	410.0/475.0	24.12
55	415.0/485.0	22.41
56	420.0/490.0	18.63
57	425.0/495.0	16.42
58	430.0/505.0	13.29
59	435.0/510.0	10.43
60	440.0/515.0	8.276
61	445.0/525.0	6.981
62	450.0/530.0	5.774
63	455.0/540.0	4.855
64	460.0/545.0	4.222
65	465.0/550.0	3.228
66	470.0/555.0	2.744
67	475.0/565.0	2.173
68	520.0/285.0	1.461
69	540.0/295.0	1.691
70	545.0/300.0	1.875
71	550.0/305.0	1.708
72	560.0/310.0	1.534
73	570.0/315.0	1.722
74	575.0/320.0	1.598
75	585.0/325.0	1.605

Data points
	220.0	225.0	230.0	235.0	240.0	245.0	250.0	255.0	260.0	265.0	270.0	275.0	280.0	285.0	290.0	295.0	300.0	305.0	310.0	315.0	320.0	325.0	330.0	335.0	340.0	345.0	350.0	355.0	360.0	365.0	370.0	375.0	380.0	385.0	390.0	395.0	400.0	405.0	410.0	415.0	420.0	425.0	430.0	435.0	440.0	445.0	450.0	455.0	460.0	465.0	470.0	475.0	480.0	485.0	490.0	495.0	500.0	505.0	510.0	515.0	520.0	525.0	530.0	535.0	540.0	545.0	550.0	555.0	560.0	565.0	570.0	575.0	580.0	585.0	590.0	595.0	600.0
230.0	33.24	596.4	 1285	243.0	6.570	1.457	1.029	0.921	0.540	0.551	0.480	0.386	0.410	0.248	0.243	0.229	0.200	0.212	0.207	0.170	0.172	0.114	0.165	0.139	0.148	0.121	0.112	0.096	0.079	0.092	0.094	0.111	0.049	0.088	0.111	0.189	0.191	0.202	0.155	0.148	0.148	0.184	0.171	0.149	0.110	0.116	0.195	1.081	3.006	3.272	1.566	0.302	0.072	0.058	0.046	0.046	0.042	0.028	0.030	0.034	0.020	0.028	0.026	0.019	0.027	0.018	0.006	0.010	0.011	0.006	0.014	0.006	0.001	0.005	-0.002	0.000	-0.003
235.0	29.18	178.3	 1019	 1125	326.7	9.095	1.337	1.301	0.816	0.700	0.465	0.395	0.668	0.239	0.446	0.301	0.164	0.158	0.228	0.132	0.110	0.166	0.127	0.149	0.163	0.122	0.089	0.116	0.053	0.060	0.102	0.133	0.075	0.060	0.070	0.114	0.223	0.198	0.188	0.161	0.175	0.142	0.149	0.184	0.195	0.186	0.129	0.340	0.972	2.172	3.577	4.487	2.404	0.524	0.068	0.060	0.040	0.047	0.038	0.013	0.026	0.028	0.021	0.023	0.035	0.025	-0.001	0.033	0.001	0.002	0.014	0.019	0.006	0.001	-0.001	0.000	0.002
240.0	62.67	67.39	357.4	 1119	 1509	205.1	3.242	1.615	1.372	1.024	0.724	0.373	0.531	0.350	0.301	0.235	0.252	0.211	0.204	0.232	0.155	0.193	0.204	0.148	0.145	0.151	0.102	0.130	0.085	0.106	0.070	0.147	0.088	0.072	0.111	0.093	0.186	0.191	0.199	0.187	0.154	0.167	0.153	0.177	0.169	0.315	0.253	0.202	0.318	0.643	1.574	3.997	5.896	4.488	1.760	0.291	0.034	0.045	0.043	0.034	0.047	0.015	0.023	0.025	0.007	0.008	0.022	0.040	0.010	0.022	0.004	0.005	0.004	0.005	0.004	-0.003	0.006
245.0	55.62	96.56	105.9	455.8	 1737	 1091	116.5	2.660	1.406	1.200	0.774	0.700	0.580	0.428	0.428	0.223	0.294	0.222	0.171	0.228	0.191	0.205	0.204	0.159	0.127	0.119	0.136	0.157	0.157	0.113	0.114	0.137	0.080	0.083	0.099	0.092	0.084	0.132	0.191	0.225	0.194	0.136	0.123	0.136	0.135	0.332	0.389	0.431	0.273	0.232	0.458	1.279	3.292	5.947	6.570	3.814	0.980	0.093	0.030	0.042	0.055	0.020	0.009	0.011	0.013	0.025	0.030	0.013	0.018	0.008	0.029	0.006	0.008	0.029	0.002	-0.002	0.003
250.0	20.28	92.40	128.1	139.9	621.8	 1250	 1120	171.3	14.98	1.387	1.174	0.665	0.928	0.452	0.431	0.316	0.292	0.288	0.236	0.205	0.175	0.180	0.203	0.127	0.156	0.129	0.188	0.155	0.114	0.094	0.102	0.110	0.096	0.061	0.108	0.071	0.069	0.090	0.140	0.167	0.181	0.165	0.122	0.145	0.119	0.185	0.218	0.346	0.574	0.518	0.412	0.446	0.860	1.870	3.534	5.048	6.111	5.372	3.015	0.827	0.096	0.045	0.015	0.023	0.018	0.012	0.017	0.009	0.013	0.008	0.017	0.008	0.006	0.008	0.010	0.004	0.002
255.0	6.065	31.03	119.3	172.8	172.2	345.1	994.8	 1523	227.9	13.24	1.770	1.194	1.067	0.653	0.455	0.395	0.428	0.326	0.333	0.199	0.238	0.231	0.202	0.117	0.202	0.163	0.131	0.149	0.151	0.107	0.104	0.122	0.123	0.066	0.080	0.075	0.093	0.081	0.120	0.086	0.162	0.189	0.152	0.132	0.138	0.152	0.144	0.174	0.264	0.448	0.725	0.855	0.496	0.533	0.889	1.281	2.154	4.604	8.173	8.433	4.532	0.881	0.095	0.051	0.028	0.033	0.022	0.013	0.035	-0.002	0.007	-0.001	0.019	0.004	0.011	0.012	0.029
260.0	4.821	8.618	51.23	176.3	155.7	99.47	334.2	 1354	 1559	182.7	5.784	1.839	1.285	0.652	0.420	0.452	0.475	0.346	0.354	0.174	0.259	0.194	0.174	0.146	0.148	0.164	0.128	0.126	0.157	0.099	0.100	0.133	0.115	0.090	0.087	0.068	0.078	0.053	0.103	0.089	0.124	0.171	0.212	0.179	0.137	0.148	0.115	0.165	0.146	0.200	0.388	0.852	1.061	0.613	0.344	0.370	0.593	1.295	3.489	7.115	10.40	7.957	2.981	0.329	0.047	0.016	0.014	0.021	0.021	0.020	0.026	0.010	0.018	0.008	-0.002	-0.004	0.027
265.0	5.820	4.350	16.54	94.13	198.4	99.89	88.46	506.6	 1689	 1378	132.4	3.612	1.781	0.967	0.767	0.537	0.476	0.431	0.368	0.300	0.312	0.175	0.237	0.163	0.120	0.185	0.104	0.159	0.170	0.127	0.140	0.132	0.102	0.112	0.091	0.098	0.083	0.049	0.078	0.081	0.091	0.133	0.202	0.179	0.165	0.111	0.123	0.133	0.110	0.116	0.184	0.410	0.784	1.148	0.774	0.349	0.273	0.365	0.923	2.170	5.638	9.996	11.02	6.456	1.478	0.102	0.062	0.025	0.079	0.012	0.022	0.016	0.028	0.021	0.000	0.006	0.011
270.0	6.372	4.427	7.565	27.30	107.3	181.6	116.3	135.5	566.9	 1342	 1510	541.0	29.80	1.389	1.080	0.803	0.649	0.482	0.365	0.422	0.361	0.284	0.273	0.211	0.164	0.242	0.115	0.152	0.181	0.110	0.127	0.145	0.109	0.085	0.118	0.108	0.102	0.061	0.089	0.088	0.083	0.064	0.135	0.157	0.193	0.175	0.156	0.162	0.103	0.134	0.121	0.187	0.290	0.499	0.765	0.952	0.905	0.491	0.395	0.574	1.428	2.936	5.357	7.716	8.971	7.823	4.493	1.220	0.119	0.045	0.002	0.021	0.026	0.013	0.006	0.001	0.008
275.0	10.53	7.993	8.084	10.21	29.85	95.08	202.3	137.9	143.1	353.8	 1070	 1960	762.9	25.38	1.370	1.266	0.935	0.654	0.495	0.434	0.341	0.311	0.228	0.270	0.199	0.269	0.124	0.122	0.181	0.146	0.088	0.117	0.123	0.112	0.109	0.076	0.092	0.062	0.070	0.075	0.105	0.054	0.088	0.117	0.187	0.196	0.177	0.179	0.159	0.120	0.117	0.104	0.119	0.169	0.252	0.393	0.826	1.296	1.008	0.593	0.416	0.755	1.297	1.906	3.087	6.035	10.58	11.24	5.546	1.033	0.045	0.004	0.025	0.006	0.016	0.006	0.003
280.0	21.41	13.06	13.19	8.786	12.38	33.03	141.5	216.8	103.2	97.08	335.8	 1393	 1954	124.0	8.467	1.550	1.151	0.729	0.629	0.563	0.431	0.343	0.232	0.253	0.297	0.216	0.207	0.202	0.154	0.124	0.121	0.105	0.136	0.096	0.110	0.072	0.111	0.093	0.107	0.085	0.087	0.060	0.079	0.078	0.163	0.190	0.216	0.233	0.158	0.160	0.139	0.152	0.100	0.139	0.156	0.174	0.389	0.702	1.245	1.341	0.815	0.369	0.439	0.542	0.806	1.650	4.203	8.816	12.09	9.726	3.079	0.259	0.024	0.013	0.032	0.029	0.013
285.0	27.96	21.22	19.55	10.20	10.58	14.53	59.83	189.5	199.4	68.25	100.0	475.8	 1580	 1660	94.70	3.104	1.460	0.975	0.637	0.573	0.502	0.442	0.315	0.274	0.213	0.258	0.210	0.198	0.129	0.212	0.152	0.154	0.174	0.097	0.129	0.156	0.090	0.111	0.099	0.063	0.075	0.088	0.099	0.082	0.144	0.160	0.269	0.233	0.210	0.192	0.147	0.143	0.118	0.112	0.130	0.090	0.188	0.256	0.619	1.180	1.461	0.989	0.478	0.254	0.348	0.492	1.165	2.652	6.275	10.92	12.00	6.699	1.300	0.043	0.027	0.021	0.016
290.0	34.25	31.81	27.45	15.97	13.39	13.41	27.66	82.87	193.7	204.9	98.53	143.9	506.1	 1197	 1450	372.8	22.15	1.454	1.000	0.751	0.650	0.529	0.441	0.358	0.292	0.219	0.247	0.266	0.194	0.228	0.175	0.150	0.162	0.131	0.144	0.155	0.122	0.126	0.093	0.070	0.113	0.088	0.099	0.118	0.109	0.145	0.244	0.257	0.247	0.244	0.172	0.164	0.162	0.166	0.140	0.141	0.147	0.151	0.271	0.453	0.783	1.144	1.303	1.055	0.594	0.348	0.466	0.774	1.666	3.227	5.728	8.158	9.397	8.108	3.982	0.909	0.063
295.0	40.80	40.33	36.22	23.09	19.63	18.91	25.02	40.27	90.77	215.5	259.4	114.3	156.5	321.2	804.7	 1698	564.6	21.50	1.450	1.166	0.982	0.644	0.516	0.414	0.338	0.276	0.293	0.235	0.293	0.182	0.200	0.166	0.233	0.178	0.181	0.176	0.112	0.164	0.108	0.112	0.115	0.085	0.098	0.112	0.106	0.166	0.234	0.237	0.250	0.286	0.192	0.212	0.189	0.158	0.171	0.179	0.151	0.152	0.210	0.262	0.357	0.499	0.716	1.268	1.691	1.226	0.550	0.467	0.647	0.916	1.428	2.044	3.130	6.562	11.69	11.93	5.170
300.0	37.54	40.73	44.16	31.63	23.42	23.62	27.59	36.66	57.75	135.6	292.9	184.9	95.49	109.2	250.6	 1053	 2003	410.5	6.513	1.603	1.018	0.703	0.613	0.507	0.355	0.314	0.301	0.270	0.201	0.160	0.178	0.219	0.249	0.192	0.179	0.178	0.162	0.132	0.134	0.085	0.095	0.067	0.111	0.131	0.125	0.175	0.210	0.212	0.258	0.268	0.243	0.223	0.261	0.183	0.200	0.173	0.173	0.193	0.235	0.251	0.264	0.343	0.401	0.679	1.279	1.875	1.554	0.708	0.451	0.431	0.538	0.660	0.844	1.889	4.742	10.10	13.62
305.0	42.93	50.04	47.61	38.46	30.00	27.33	32.65	41.75	54.89	87.29	206.8	310.2	142.3	68.11	86.12	338.1	 1457	 1766	62.62	2.926	1.153	0.918	0.731	0.546	0.435	0.417	0.371	0.283	0.253	0.273	0.227	0.230	0.205	0.227	0.149	0.218	0.139	0.165	0.153	0.106	0.098	0.118	0.091	0.104	0.193	0.193	0.209	0.181	0.212	0.240	0.323	0.263	0.277	0.223	0.236	0.185	0.232	0.271	0.291	0.252	0.299	0.341	0.338	0.422	0.636	1.282	1.708	1.645	0.843	0.421	0.353	0.366	0.327	0.563	1.213	3.118	7.081
310.0	39.41	52.50	51.91	42.60	35.04	35.22	39.01	45.51	57.65	75.95	120.8	222.7	270.3	140.0	57.95	99.94	440.2	 1122	 1445	593.8	15.43	1.374	0.984	0.712	0.680	0.450	0.433	0.385	0.301	0.298	0.257	0.231	0.196	0.203	0.181	0.181	0.148	0.149	0.172	0.135	0.115	0.119	0.125	0.108	0.156	0.180	0.207	0.154	0.237	0.205	0.255	0.305	0.250	0.270	0.261	0.251	0.261	0.259	0.310	0.274	0.296	0.333	0.381	0.400	0.467	0.666	0.868	1.382	1.534	1.400	0.815	0.414	0.298	0.286	0.414	0.862	1.803
315.0	42.38	59.70	59.43	44.54	40.85	40.06	44.88	51.85	61.96	76.58	99.11	133.7	202.1	271.0	102.6	53.81	120.9	280.5	706.4	 1739	403.6	14.72	1.248	1.010	0.685	0.545	0.484	0.453	0.354	0.256	0.310	0.219	0.238	0.187	0.222	0.205	0.182	0.140	0.156	0.138	0.109	0.131	0.150	0.122	0.120	0.203	0.188	0.217	0.206	0.190	0.184	0.278	0.210	0.337	0.289	0.248	0.305	0.246	0.243	0.308	0.320	0.288	0.419	0.444	0.428	0.503	0.587	0.662	0.770	1.331	1.722	1.294	0.604	0.343	0.249	0.371	0.546
320.0	52.75	65.04	63.47	47.13	45.71	44.59	50.81	57.64	65.69	80.01	98.95	114.4	140.2	239.4	220.5	68.52	54.18	82.59	204.3	963.1	 1729	306.3	5.209	1.230	0.864	0.667	0.524	0.494	0.403	0.313	0.291	0.219	0.269	0.171	0.271	0.174	0.144	0.177	0.189	0.152	0.128	0.171	0.141	0.165	0.185	0.210	0.215	0.278	0.246	0.203	0.223	0.235	0.289	0.385	0.294	0.321	0.282	0.377	0.299	0.350	0.334	0.334	0.373	0.511	0.463	0.459	0.584	0.552	0.539	0.801	1.276	1.598	1.584	0.803	0.353	0.249	0.297
325.0	59.89	76.62	70.77	56.56	50.06	47.84	52.32	60.63	70.52	85.91	104.8	113.0	119.3	159.1	248.0	147.5	47.62	42.66	63.04	284.8	 1228	 1620	48.53	2.076	1.124	0.879	0.594	0.608	0.425	0.369	0.315	0.289	0.251	0.268	0.257	0.175	0.185	0.179	0.169	0.183	0.113	0.118	0.148	0.173	0.184	0.232	0.264	0.302	0.334	0.236	0.250	0.223	0.246	0.345	0.302	0.278	0.311	0.389	0.337	0.335	0.379	0.451	0.446	0.563	0.423	0.469	0.557	0.446	0.538	0.571	0.729	0.966	1.490	1.605	0.946	0.432	0.287
330.0	66.64	89.51	88.00	67.73	55.58	52.83	56.95	63.44	75.46	90.61	107.3	116.3	118.7	119.8	156.8	203.2	122.6	45.18	36.06	79.57	346.0	 1049	 1373	527.6	12.87	1.210	0.888	0.728	0.542	0.403	0.397	0.306	0.278	0.253	0.224	0.208	0.162	0.195	0.196	0.157	0.135	0.133	0.162	0.179	0.170	0.290	0.284	0.374	0.356	0.348	0.316	0.292	0.262	0.291	0.277	0.329	0.352	0.417	0.373	0.344	0.362	0.470	0.417	0.460	0.510	0.557	0.587	0.572	0.592	0.607	0.623	0.699	0.771	1.047	1.108	1.156	0.844
335.0	82.01	113.3	107.2	84.12	69.11	61.39	63.71	71.72	79.17	95.21	115.2	122.1	125.0	115.9	113.0	130.3	198.6	111.2	37.72	37.74	92.33	254.1	673.0	 1702	334.3	13.17	1.238	0.953	0.743	0.483	0.404	0.350	0.303	0.287	0.246	0.220	0.195	0.209	0.191	0.156	0.173	0.229	0.174	0.219	0.263	0.291	0.303	0.365	0.411	0.372	0.364	0.330	0.367	0.286	0.285	0.353	0.413	0.377	0.429	0.454	0.411	0.415	0.547	0.528	0.479	0.495	0.603	0.605	0.632	0.652	0.672	0.577	0.612	0.610	0.662	0.979	1.196
340.0	79.11	118.7	119.2	102.6	79.31	71.92	71.62	78.13	87.15	98.66	117.4	126.2	130.5	125.1	107.1	98.05	149.7	185.6	63.52	32.18	39.72	71.55	183.4	959.3	 1687	261.9	4.304	1.199	0.907	0.596	0.546	0.384	0.358	0.287	0.250	0.206	0.169	0.264	0.194	0.126	0.166	0.178	0.151	0.235	0.244	0.304	0.342	0.411	0.439	0.395	0.409	0.385	0.423	0.321	0.332	0.379	0.365	0.499	0.486	0.456	0.482	0.447	0.555	0.589	0.483	0.544	0.621	0.648	0.681	0.717	0.625	0.633	0.578	0.552	0.553	0.575	0.797
345.0	83.03	114.8	126.6	112.2	93.07	79.33	80.70	87.15	89.07	99.62	117.0	129.2	132.7	129.6	114.1	91.14	98.29	174.5	139.9	44.51	30.97	34.14	54.90	275.4	 1272	 1491	41.64	2.197	0.953	0.730	0.572	0.405	0.342	0.342	0.243	0.252	0.193	0.231	0.227	0.147	0.168	0.135	0.144	0.222	0.216	0.336	0.364	0.413	0.469	0.493	0.425	0.418	0.400	0.365	0.334	0.382	0.353	0.489	0.509	0.579	0.518	0.502	0.529	0.615	0.588	0.531	0.619	0.644	0.569	0.695	0.631	0.628	0.580	0.596	0.522	0.493	0.469
350.0	76.32	115.5	127.9	123.5	103.3	93.34	86.37	93.02	94.35	103.1	117.8	130.6	134.8	130.4	115.7	91.30	81.11	104.2	151.9	105.2	44.37	30.86	30.59	76.71	351.7	 1019	 1260	182.9	11.75	1.012	0.779	0.566	0.436	0.412	0.309	0.295	0.249	0.244	0.212	0.193	0.201	0.133	0.183	0.184	0.223	0.301	0.338	0.425	0.474	0.489	0.456	0.506	0.453	0.469	0.415	0.343	0.400	0.465	0.525	0.532	0.546	0.555	0.536	0.653	0.569	0.606	0.670	0.666	0.636	0.724	0.635	0.636	0.643	0.625	0.485	0.531	0.462
355.0	78.60	113.7	131.3	133.6	113.5	100.4	95.31	100.8	99.31	107.2	119.9	127.4	133.1	133.6	117.2	97.83	80.24	78.70	90.61	140.7	113.2	43.02	30.57	36.16	91.64	243.1	623.9	 1493	309.0	12.50	1.151	0.811	0.493	0.432	0.453	0.378	0.268	0.263	0.243	0.191	0.190	0.139	0.183	0.178	0.211	0.336	0.279	0.429	0.530	0.468	0.486	0.472	0.535	0.483	0.505	0.420	0.427	0.541	0.428	0.573	0.546	0.580	0.516	0.554	0.556	0.598	0.697	0.711	0.645	0.659	0.643	0.664	0.620	0.533	0.583	0.456	0.462
360.0	72.81	112.3	132.7	135.3	121.5	109.2	101.8	106.4	104.2	109.1	117.7	125.2	133.2	129.8	119.1	99.75	83.18	75.38	72.17	100.4	153.6	60.62	35.16	29.42	35.50	64.86	163.9	887.6	 1544	245.6	3.763	1.011	0.661	0.523	0.478	0.327	0.289	0.272	0.203	0.206	0.192	0.179	0.215	0.194	0.222	0.244	0.332	0.345	0.488	0.508	0.472	0.554	0.569	0.562	0.453	0.480	0.482	0.489	0.531	0.492	0.473	0.535	0.482	0.545	0.619	0.593	0.671	0.657	0.648	0.689	0.602	0.629	0.652	0.560	0.508	0.471	0.465
365.0	73.55	108.2	138.2	136.9	124.1	111.3	106.1	104.9	106.1	113.1	116.9	125.8	130.4	126.0	116.4	98.66	85.71	75.90	70.15	74.47	127.6	126.9	50.82	30.82	26.36	27.04	46.27	248.8	 1208	 1385	38.93	1.794	0.868	0.560	0.453	0.330	0.306	0.297	0.268	0.219	0.138	0.193	0.164	0.167	0.170	0.237	0.270	0.342	0.474	0.506	0.450	0.601	0.547	0.519	0.462	0.519	0.449	0.491	0.498	0.443	0.567	0.511	0.559	0.568	0.642	0.618	0.682	0.604	0.644	0.637	0.641	0.561	0.577	0.577	0.552	0.545	0.473
370.0	69.47	104.0	130.8	134.6	125.4	115.0	102.6	104.1	106.7	108.9	114.7	123.5	127.1	121.2	113.0	98.27	87.29	79.63	73.22	69.07	82.54	120.4	111.4	45.84	27.88	22.15	21.83	64.14	330.8	985.7	 1210	168.0	10.29	0.832	0.655	0.452	0.384	0.296	0.267	0.240	0.207	0.189	0.190	0.182	0.221	0.246	0.361	0.401	0.492	0.474	0.423	0.563	0.517	0.531	0.501	0.491	0.494	0.500	0.489	0.444	0.518	0.465	0.549	0.577	0.632	0.594	0.627	0.610	0.606	0.678	0.606	0.598	0.673	0.583	0.566	0.532	0.515
375.0	72.38	100.9	128.9	138.0	127.5	117.4	103.5	105.9	105.8	106.8	113.3	118.3	121.2	118.9	109.0	97.23	88.72	81.62	76.24	71.42	70.08	78.78	113.1	107.6	41.67	24.57	19.48	25.22	81.45	232.1	625.1	 1383	267.6	11.16	0.849	0.524	0.465	0.365	0.299	0.255	0.235	0.184	0.152	0.195	0.295	0.254	0.368	0.385	0.369	0.465	0.434	0.548	0.541	0.471	0.527	0.527	0.469	0.514	0.513	0.420	0.516	0.473	0.528	0.563	0.600	0.548	0.545	0.610	0.597	0.557	0.597	0.661	0.600	0.540	0.543	0.571	0.493
380.0	69.39	102.2	119.7	131.0	123.8	113.0	108.7	99.35	103.8	106.2	111.6	115.9	116.3	112.4	107.8	94.54	88.79	83.75	77.25	72.93	68.56	67.37	80.84	124.6	76.12	29.33	21.59	18.34	28.30	58.73	161.1	836.7	 1339	209.9	3.023	0.682	0.538	0.472	0.323	0.320	0.252	0.150	0.222	0.199	0.269	0.273	0.323	0.332	0.419	0.440	0.465	0.528	0.552	0.512	0.502	0.582	0.506	0.503	0.485	0.489	0.510	0.477	0.535	0.514	0.572	0.552	0.529	0.564	0.584	0.584	0.645	0.630	0.600	0.571	0.534	0.497	0.473
385.0	67.80	94.63	114.5	124.2	125.0	112.1	106.3	100.1	99.89	99.74	109.2	113.6	112.7	109.1	105.9	94.42	86.77	83.53	78.38	73.04	69.01	65.96	65.23	95.97	111.3	46.46	24.52	18.66	17.58	21.19	42.80	233.7	 1057	 1151	31.76	1.169	0.616	0.521	0.352	0.355	0.239	0.228	0.226	0.221	0.239	0.249	0.312	0.393	0.419	0.427	0.456	0.579	0.567	0.569	0.593	0.578	0.504	0.518	0.535	0.457	0.454	0.482	0.526	0.516	0.501	0.619	0.550	0.587	0.559	0.567	0.545	0.584	0.565	0.573	0.504	0.505	0.516
390.0	58.79	86.57	115.8	125.3	124.3	112.3	107.1	99.47	97.51	98.22	103.8	108.9	106.5	103.4	98.26	91.35	85.80	82.68	78.65	74.07	70.88	65.75	61.67	66.12	92.56	89.59	40.27	22.59	17.95	15.40	17.32	58.08	290.5	817.5	921.7	133.5	8.719	0.722	0.434	0.333	0.303	0.244	0.178	0.232	0.278	0.290	0.302	0.357	0.404	0.425	0.448	0.505	0.539	0.503	0.548	0.552	0.472	0.474	0.447	0.442	0.491	0.470	0.467	0.480	0.498	0.513	0.510	0.591	0.554	0.554	0.522	0.614	0.532	0.545	0.555	0.534	0.541
395.0	55.28	85.11	99.77	122.7	120.9	114.9	103.1	96.60	97.67	96.00	99.61	100.7	103.2	99.00	93.33	88.26	82.86	81.86	78.59	74.80	71.35	67.06	61.30	58.70	60.88	81.49	86.71	38.45	21.19	17.00	13.48	20.16	69.66	190.9	485.1	 1067	223.5	9.203	0.613	0.369	0.350	0.280	0.216	0.272	0.272	0.276	0.345	0.366	0.327	0.413	0.420	0.484	0.506	0.596	0.498	0.476	0.483	0.486	0.521	0.466	0.474	0.441	0.472	0.499	0.514	0.462	0.419	0.538	0.528	0.482	0.475	0.561	0.485	0.495	0.534	0.547	0.437
400.0	55.15	82.43	103.8	111.2	116.1	109.6	106.4	96.43	92.70	89.08	94.63	97.27	99.45	94.52	90.23	85.74	81.15	80.35	78.50	75.27	71.41	66.81	62.67	57.43	52.75	59.02	91.53	69.19	27.86	18.83	14.59	13.17	21.45	47.17	123.6	643.4	 1069	179.2	2.641	0.499	0.431	0.297	0.290	0.267	0.194	0.257	0.321	0.352	0.345	0.383	0.433	0.485	0.525	0.553	0.503	0.486	0.474	0.483	0.492	0.398	0.500	0.400	0.505	0.524	0.492	0.450	0.444	0.452	0.521	0.531	0.511	0.570	0.553	0.568	0.534	0.522	0.517
405.0	53.10	74.23	97.88	107.6	111.9	111.9	103.7	94.09	90.58	89.21	92.82	93.34	95.73	91.79	89.33	82.95	78.54	77.42	75.32	72.49	70.95	67.02	62.63	57.97	52.40	50.21	67.59	88.94	43.68	22.16	16.46	12.76	12.03	15.36	31.66	177.3	807.6	903.1	28.20	1.142	0.426	0.389	0.359	0.318	0.253	0.271	0.322	0.333	0.351	0.363	0.433	0.442	0.541	0.519	0.531	0.496	0.492	0.565	0.494	0.456	0.523	0.414	0.434	0.492	0.490	0.561	0.458	0.418	0.525	0.509	0.534	0.513	0.468	0.472	0.479	0.499	0.489
