Sample:	'1
File name:	Default_20230830_190426.FD3
Run date:	'18:58:05, 08/30/2023
Operator:	dsjg
Comment:	'

Instrument
Model:	F-2700 FL Spectrophotometer
Serial number:	2198-001
ROM Version:	4J14000 07

Instrument parameters
Measurement type:	3-D scan
Data mode:	Fluorescence
EX  Start WL:	220.0 nm
EX  End WL:	600.0 nm
EX Sampling interval:	5.0 nm
EM  Start WL:	230.0 nm
EM  End WL:	650.0 nm
EM Sampling interval:	5.0 nm
Scan speed:	12000 nm/min
EX Slit:	5.0 nm
EM Slit:	5.0 nm
PMT Voltage:	700 V
Response:	Auto 
Corrected spectra:	Off
Contour interval:	50.000

Peak integration
Integration method:	Rectangular
Sensitivity:	1
Threshold:	1.000

Peaks
No.	ApexEX/EM(nm)	Height(Data)
1	225.0/345.0	262.7
2	225.0/495.0	74.13
3	230.0/505.0	65.57
4	235.0/260.0	109.2
5	235.0/520.0	56.48
6	240.0/265.0	119.0
7	240.0/530.0	53.03
8	245.0/540.0	48.40
9	250.0/275.0	154.5
10	250.0/550.0	41.75
11	255.0/285.0	177.6
12	255.0/565.0	38.28
13	260.0/290.0	193.5
14	260.0/575.0	33.38
15	265.0/585.0	30.82
16	270.0/300.0	329.3
17	270.0/595.0	31.13
18	275.0/305.0	351.9
19	275.0/345.0	300.1
20	275.0/610.0	26.16
21	280.0/620.0	22.04
22	305.0/340.0	144.2
23	310.0/350.0	127.8
24	315.0/355.0	126.6
25	320.0/360.0	137.0
26	330.0/375.0	110.7
27	335.0/380.0	116.3
28	340.0/385.0	104.4
29	350.0/400.0	95.90
30	355.0/405.0	94.31
31	365.0/420.0	78.32
32	370.0/425.0	72.41
33	380.0/440.0	50.91
34	385.0/445.0	44.57
35	395.0/460.0	30.18
36	400.0/465.0	27.04
37	410.0/480.0	19.07
38	415.0/485.0	17.09
39	420.0/490.0	14.37
40	425.0/500.0	13.31
41	430.0/505.0	11.84
42	435.0/510.0	10.16
43	440.0/520.0	9.448
44	445.0/525.0	8.212
45	460.0/545.0	5.204
46	545.0/300.0	2.805
47	550.0/305.0	2.892
48	560.0/310.0	2.520
49	570.0/315.0	2.756
50	575.0/320.0	2.538

Data points
	220.0	225.0	230.0	235.0	240.0	245.0	250.0	255.0	260.0	265.0	270.0	275.0	280.0	285.0	290.0	295.0	300.0	305.0	310.0	315.0	320.0	325.0	330.0	335.0	340.0	345.0	350.0	355.0	360.0	365.0	370.0	375.0	380.0	385.0	390.0	395.0	400.0	405.0	410.0	415.0	420.0	425.0	430.0	435.0	440.0	445.0	450.0	455.0	460.0	465.0	470.0	475.0	480.0	485.0	490.0	495.0	500.0	505.0	510.0	515.0	520.0	525.0	530.0	535.0	540.0	545.0	550.0	555.0	560.0	565.0	570.0	575.0	580.0	585.0	590.0	595.0	600.0
230.0	67.38	475.2	616.8	118.0	11.49	8.557	7.011	5.909	4.792	4.080	3.954	3.502	3.098	2.450	2.355	1.782	1.700	1.580	1.491	1.369	1.288	1.225	1.175	1.109	1.086	1.083	1.042	1.026	1.038	0.996	0.997	0.881	0.943	0.851	0.846	0.882	0.889	0.906	0.796	0.771	0.785	0.869	0.871	0.749	0.686	0.689	0.779	1.808	3.126	2.837	1.556	0.721	0.579	0.580	0.572	0.555	0.576	0.605	0.588	0.565	0.585	0.595	0.567	0.563	0.567	0.603	0.599	0.568	0.587	0.589	0.590	0.597	0.594	0.545	0.611	0.651	0.622
235.0	50.49	162.4	546.3	513.0	167.9	12.15	7.110	5.936	4.669	4.798	3.944	3.502	3.149	2.817	2.293	1.883	1.600	1.503	1.447	1.453	1.387	1.343	1.257	1.060	0.992	1.049	1.035	1.044	1.015	0.995	1.037	0.905	0.957	0.857	0.817	0.832	0.893	0.891	0.892	0.729	0.780	0.709	0.841	0.868	0.836	0.642	0.701	0.862	1.333	1.928	2.938	3.683	2.250	0.978	0.538	0.507	0.539	0.565	0.604	0.595	0.548	0.577	0.615	0.625	0.543	0.582	0.572	0.539	0.515	0.594	0.598	0.618	0.625	0.632	0.630	0.665	0.659
240.0	70.05	64.12	227.1	713.4	741.8	129.2	8.718	6.296	4.871	4.935	4.188	3.740	3.213	2.931	2.353	1.989	1.890	1.642	1.563	1.238	1.254	1.355	1.270	1.162	1.104	1.071	0.997	1.014	1.038	0.990	0.999	0.965	0.933	0.779	0.794	0.785	0.820	0.901	0.817	0.784	0.927	0.707	0.795	0.755	0.827	0.862	0.694	0.689	0.722	0.923	1.495	3.578	5.120	4.286	2.088	0.791	0.613	0.594	0.564	0.594	0.531	0.615	0.594	0.595	0.564	0.633	0.570	0.642	0.604	0.565	0.595	0.660	0.669	0.598	0.624	0.598	0.674
245.0	78.76	69.19	72.00	356.7	 1088	773.5	87.14	7.423	6.343	4.810	4.206	3.671	3.396	2.845	2.050	2.307	1.883	1.818	1.477	1.186	1.342	1.431	1.238	1.057	1.081	1.054	1.089	1.167	1.031	1.088	0.992	0.907	0.889	0.929	0.777	0.788	0.736	0.838	0.847	0.775	0.804	0.810	0.776	0.727	0.758	0.803	0.857	0.796	0.671	0.575	0.765	1.554	3.171	5.898	6.671	4.461	1.592	0.679	0.528	0.598	0.615	0.605	0.625	0.548	0.609	0.620	0.582	0.564	0.650	0.621	0.584	0.626	0.619	0.575	0.534	0.641	0.627
250.0	49.78	72.90	77.32	109.3	472.3	 1177	967.9	147.6	17.17	6.056	5.117	3.792	3.456	2.897	2.399	2.244	1.849	1.789	1.610	1.324	1.358	1.317	1.212	1.240	1.178	1.212	0.976	1.098	1.076	1.025	0.984	0.965	0.825	0.910	0.800	0.834	0.768	0.751	0.792	0.762	0.827	0.816	0.774	0.719	0.753	0.730	0.731	0.798	0.827	0.742	0.694	0.808	1.164	2.254	3.918	6.200	8.495	7.577	4.541	1.750	0.656	0.611	0.596	0.582	0.570	0.633	0.620	0.574	0.590	0.640	0.614	0.617	0.631	0.555	0.592	0.573	0.654
255.0	30.49	38.91	89.29	99.03	126.4	381.4	 1367	 1792	198.5	16.02	5.769	4.121	3.606	3.499	2.397	2.361	1.783	1.876	1.627	1.438	1.447	1.217	1.285	1.286	1.128	1.201	1.112	1.095	1.105	1.139	0.905	0.886	0.857	0.815	0.803	0.843	0.812	0.780	0.746	0.744	0.878	0.772	0.790	0.773	0.787	0.732	0.623	0.719	0.754	0.705	0.864	1.015	0.839	0.964	1.334	1.964	3.643	7.507	13.03	13.33	6.992	1.836	0.642	0.617	0.575	0.751	0.675	0.653	0.612	0.622	0.597	0.676	0.596	0.596	0.658	0.585	0.687
260.0	28.50	26.82	54.73	109.2	86.51	104.4	544.6	 2016	 1598	159.0	10.25	5.093	4.568	3.418	2.586	2.279	2.097	1.915	1.621	1.579	1.370	1.234	1.331	1.192	1.116	1.173	1.136	1.057	1.061	1.221	0.968	0.980	0.919	0.856	0.808	0.891	0.789	0.705	0.687	0.734	0.788	0.893	0.847	0.799	0.813	0.643	0.633	0.779	0.687	0.542	0.710	1.090	1.032	0.971	0.808	0.909	1.360	2.527	6.337	13.28	16.91	13.54	4.910	1.046	0.613	0.671	0.585	0.613	0.636	0.577	0.600	0.583	0.567	0.591	0.715	0.653	0.592
265.0	27.79	23.27	27.91	78.45	119.0	66.68	143.6	897.6	 2446	 1376	121.1	6.965	5.017	4.162	2.854	2.385	2.330	2.107	1.768	1.592	1.504	1.263	1.371	1.268	1.047	1.099	1.208	1.248	1.158	1.029	0.993	0.996	1.034	0.928	0.835	0.844	0.825	0.774	0.758	0.776	0.784	0.860	0.896	0.844	0.779	0.726	0.585	0.711	0.634	0.507	0.562	0.829	1.005	1.168	1.123	0.831	0.807	1.125	1.971	4.715	10.35	18.62	18.56	10.07	2.634	0.767	0.584	0.667	0.662	0.574	0.670	0.593	0.627	0.587	0.638	0.617	0.610
270.0	30.92	24.15	20.09	33.45	86.59	119.4	91.12	233.3	966.4	 2082	 1942	521.9	29.76	4.514	3.330	2.703	2.482	2.131	1.877	1.715	1.511	1.373	1.342	1.246	1.151	1.093	1.135	1.157	1.142	1.058	1.093	1.048	0.963	0.950	0.892	0.822	0.840	0.799	0.783	0.779	0.780	0.772	0.865	0.774	0.813	0.756	0.660	0.672	0.696	0.533	0.565	0.664	0.737	0.859	1.075	1.261	1.138	0.975	1.015	1.607	2.970	6.230	10.44	14.76	17.13	13.60	7.748	2.433	0.791	0.613	0.655	0.609	0.605	0.572	0.625	0.613	0.627
275.0	36.56	30.71	19.48	19.30	33.04	93.49	154.5	120.7	239.5	607.0	 1855	 2833	756.3	27.79	4.577	3.426	2.581	2.400	2.055	1.808	1.756	1.505	1.437	1.368	1.155	1.190	1.173	1.154	1.085	1.016	1.049	1.065	0.952	0.919	0.937	0.788	0.834	0.798	0.888	0.815	0.800	0.854	0.842	0.835	0.864	0.885	0.691	0.694	0.676	0.595	0.518	0.588	0.652	0.672	0.734	0.905	1.317	1.447	1.450	1.029	1.240	1.955	2.957	4.093	6.760	12.88	20.72	20.02	10.09	2.097	0.619	0.610	0.639	0.609	0.736	0.638	0.747
280.0	53.62	36.62	23.18	18.40	21.42	46.66	138.0	163.1	107.3	165.9	646.7	 2389	 2778	552.9	12.64	3.973	3.140	2.733	2.124	2.057	1.839	1.703	1.416	1.365	1.418	1.282	1.148	1.165	1.244	1.110	1.121	1.044	1.001	0.906	0.887	0.795	0.817	0.903	0.847	0.888	0.882	0.879	0.877	0.801	0.780	0.903	0.775	0.748	0.730	0.567	0.547	0.599	0.621	0.646	0.662	0.737	0.955	1.209	1.777	1.630	1.119	1.115	1.314	1.503	2.137	4.077	9.458	18.36	24.10	17.19	5.726	1.106	0.724	0.628	0.649	0.617	0.644
285.0	65.61	45.76	30.13	22.47	18.46	29.78	76.98	177.6	155.3	87.43	188.5	896.3	 2618	 2443	89.05	6.103	3.689	2.770	2.340	1.934	1.956	1.901	1.668	1.369	1.347	1.317	1.157	1.193	1.189	1.162	1.146	0.952	0.953	0.995	0.934	0.892	0.799	0.911	0.894	0.941	0.938	0.903	0.855	0.828	0.798	0.856	0.985	0.785	0.713	0.614	0.539	0.602	0.639	0.626	0.661	0.731	0.795	0.880	1.298	1.696	1.793	1.441	1.104	1.002	1.143	1.605	2.848	6.089	13.33	21.75	22.60	12.76	2.733	0.616	0.614	0.620	0.675
290.0	93.30	76.01	48.84	31.68	26.15	30.74	48.90	110.4	193.5	183.6	135.9	277.2	900.1	 1975	 2208	865.8	23.32	3.699	2.924	2.294	2.008	1.907	1.645	1.494	1.408	1.379	1.249	1.234	1.266	1.136	1.113	1.097	0.940	1.025	0.921	0.926	0.944	0.941	0.969	0.968	0.972	0.942	0.888	0.867	0.840	0.890	0.894	0.906	0.760	0.702	0.645	0.708	0.612	0.650	0.698	0.689	0.788	0.879	0.913	1.138	1.422	1.768	1.758	1.575	1.320	1.211	1.521	2.188	3.988	7.184	11.75	16.36	18.26	14.71	8.119	2.279	0.742
295.0	130.1	109.1	72.79	43.65	37.37	43.02	55.55	88.74	146.9	254.9	260.3	184.2	291.1	552.3	 1374	 2777	545.2	24.92	3.624	2.825	2.344	2.199	1.789	1.768	1.485	1.356	1.268	1.275	1.305	1.151	1.153	1.109	1.104	1.049	0.901	0.922	1.015	0.949	1.013	0.979	0.973	0.949	0.953	0.895	0.971	0.984	0.935	1.030	0.919	0.754	0.714	0.758	0.723	0.712	0.782	0.770	0.852	0.961	0.925	1.020	1.028	1.260	1.510	2.258	2.419	1.957	1.503	1.572	1.862	2.653	3.508	4.583	6.756	12.88	22.32	23.03	10.10
300.0	161.6	138.3	89.36	56.94	47.05	59.45	75.02	101.7	140.5	227.7	329.3	256.5	181.7	198.7	448.6	 1812	 2840	429.9	11.18	3.246	2.842	2.198	2.002	1.785	1.779	1.384	1.350	1.237	1.357	1.220	1.196	1.121	1.031	1.055	0.904	0.941	1.018	1.019	1.021	1.020	1.117	1.049	1.022	0.933	1.037	1.158	0.953	0.970	0.965	0.800	0.752	0.861	0.766	0.685	0.786	0.876	0.935	1.006	0.989	1.139	1.088	1.280	1.475	1.796	2.381	2.805	2.311	1.817	1.471	1.789	1.849	1.906	2.350	4.234	10.03	20.82	27.04
305.0	169.6	153.9	102.7	70.00	62.45	77.06	91.34	121.5	152.7	208.0	303.5	351.9	217.4	136.8	154.7	613.9	 2164	 2749	60.89	5.688	3.474	2.703	2.226	1.869	1.780	1.505	1.434	1.323	1.411	1.337	1.229	1.141	1.042	1.147	1.069	0.927	1.033	1.132	1.093	1.077	1.100	1.101	1.069	1.055	1.060	1.039	1.025	1.086	0.929	0.831	0.811	0.881	0.747	0.845	0.888	0.934	0.998	1.037	1.055	1.258	1.204	1.340	1.567	1.627	1.885	2.414	2.892	2.792	1.863	1.800	1.504	1.357	1.344	1.703	3.044	7.032	14.77
310.0	191.3	170.7	122.6	83.98	73.45	89.57	113.0	144.3	174.0	213.5	260.5	327.7	319.9	186.3	106.5	178.0	659.2	 1833	 2397	979.5	18.65	3.206	2.638	2.185	1.824	1.782	1.619	1.498	1.477	1.364	1.293	1.219	1.111	1.118	1.030	1.001	0.985	1.119	1.107	1.107	1.100	1.196	1.104	1.096	1.117	1.098	1.129	1.195	0.997	0.818	0.775	0.901	0.821	0.860	0.903	0.915	1.062	1.106	1.333	1.295	1.404	1.413	1.693	1.726	1.848	1.990	2.225	2.475	2.520	2.421	1.962	1.413	1.225	1.210	1.397	2.250	4.224
315.0	200.1	185.4	134.9	97.98	83.12	99.75	134.5	164.5	193.8	234.8	255.4	276.6	304.4	292.2	145.1	90.43	175.5	456.1	 1189	 2953	409.3	20.51	3.105	2.659	2.299	2.023	1.803	1.611	1.467	1.404	1.367	1.256	1.139	1.123	1.074	0.965	1.028	1.113	1.094	1.099	1.054	1.158	1.116	1.058	1.130	1.244	1.140	1.128	1.123	0.911	0.766	0.925	0.927	0.970	0.910	1.093	1.222	1.255	1.315	1.498	1.507	1.607	1.759	1.834	1.924	1.840	1.998	2.153	2.106	2.484	2.756	2.248	1.616	1.182	1.161	1.326	1.689
320.0	210.5	203.9	149.3	98.69	89.96	104.9	139.6	175.2	204.0	241.2	258.1	267.9	268.7	287.6	225.5	87.19	72.62	122.0	339.2	 1649	 2977	344.3	9.908	3.153	2.794	2.147	1.810	1.846	1.615	1.435	1.416	1.274	1.170	1.245	1.115	1.052	1.125	1.227	1.168	1.148	1.171	1.144	1.214	1.285	1.200	1.264	1.133	1.226	1.185	0.963	0.793	0.967	0.887	1.023	1.034	1.113	1.290	1.169	1.256	1.595	1.601	1.519	1.824	1.984	1.891	2.020	2.034	2.056	1.945	2.252	2.334	2.538	2.429	1.550	1.148	1.166	1.136
325.0	223.4	216.2	160.5	110.0	96.25	107.6	139.4	177.2	210.0	247.5	268.4	272.9	259.9	244.2	249.9	140.5	56.43	51.56	92.03	486.0	 2093	 2864	48.31	4.978	3.325	2.446	2.098	1.818	1.724	1.604	1.410	1.446	1.243	1.122	1.154	1.083	1.103	1.221	1.154	1.122	1.252	1.169	1.249	1.207	1.182	1.316	1.110	1.278	1.243	0.960	0.849	0.972	0.841	0.961	1.028	1.126	1.284	1.308	1.415	1.621	1.684	1.527	1.745	1.856	1.985	2.020	1.978	2.090	2.036	1.872	1.927	2.057	2.300	2.215	1.647	1.270	1.040
330.0	238.3	228.7	176.4	118.8	102.1	116.6	144.2	179.0	214.5	252.2	273.9	280.5	265.1	223.5	202.4	187.8	107.1	45.54	39.91	123.4	580.7	 1825	 2460	996.9	16.70	3.107	2.585	2.120	1.901	1.686	1.510	1.355	1.417	1.251	1.178	1.199	1.123	1.140	1.138	1.183	1.197	1.135	1.164	1.226	1.272	1.337	1.222	1.292	1.187	1.001	0.889	0.949	0.905	0.966	0.953	1.109	1.207	1.360	1.515	1.647	1.650	1.732	1.838	1.898	2.062	2.164	2.005	2.128	2.084	1.985	1.912	1.871	1.886	1.917	1.995	1.880	1.559
335.0	246.6	239.7	192.3	135.6	114.6	124.5	149.4	186.0	216.0	255.3	280.1	292.5	276.0	233.3	184.5	147.6	163.9	72.84	36.15	45.48	144.7	434.9	 1142	 3219	 1370	18.95	3.230	2.681	2.167	2.005	1.687	1.527	1.498	1.346	1.259	1.100	1.197	1.098	1.201	1.207	1.097	1.312	1.217	1.305	1.301	1.316	1.233	1.322	1.335	1.014	0.951	1.011	0.893	1.075	1.003	1.061	1.197	1.317	1.512	1.640	1.705	1.708	1.830	1.925	2.057	2.077	2.079	2.039	2.151	2.233	2.010	2.003	1.729	1.682	1.587	1.680	1.849
340.0	261.3	260.3	201.2	145.6	125.3	133.4	160.3	191.9	221.4	257.6	286.7	296.3	285.5	246.2	192.1	131.5	135.3	144.2	57.68	35.32	52.47	114.2	305.3	 1745	 3478	304.2	9.716	3.316	2.626	1.974	1.784	1.681	1.445	1.378	1.199	1.135	1.225	1.070	1.210	1.105	1.207	1.265	1.198	1.291	1.331	1.332	1.320	1.380	1.318	1.037	1.000	1.137	0.939	1.097	1.010	1.105	1.294	1.346	1.559	1.596	1.791	1.777	1.895	2.046	2.014	2.110	2.224	2.234	2.123	2.111	2.146	2.054	1.814	1.597	1.583	1.379	1.558
345.0	260.8	262.7	206.3	152.5	139.9	142.8	170.8	194.2	218.4	256.0	285.8	300.1	289.2	250.6	200.1	130.8	103.3	144.0	112.7	45.04	37.05	47.32	85.91	488.5	 2412	 2587	42.41	4.994	3.084	2.295	1.925	1.630	1.579	1.497	1.307	1.117	1.269	1.170	1.251	1.164	1.190	1.307	1.140	1.253	1.313	1.430	1.441	1.343	1.314	1.126	0.933	1.152	1.051	1.169	1.108	1.137	1.387	1.462	1.522	1.671	1.729	1.756	1.984	2.014	1.950	2.130	2.272	2.165	2.237	2.074	2.170	2.066	1.803	1.703	1.495	1.352	1.305
350.0	256.7	257.4	208.4	162.9	145.4	148.2	173.1	199.0	220.4	248.2	276.1	293.5	285.0	254.3	203.1	133.8	96.56	101.7	127.8	92.81	47.94	38.61	42.49	127.9	645.4	 1883	 2485	937.1	15.35	3.192	2.352	2.023	1.658	1.505	1.380	1.165	1.156	1.241	1.294	1.211	1.171	1.238	1.150	1.239	1.280	1.391	1.295	1.355	1.338	1.090	1.034	1.107	1.102	1.131	1.109	1.231	1.365	1.386	1.509	1.656	1.664	1.868	1.845	1.993	1.973	2.080	2.223	2.188	2.209	2.107	2.106	1.992	1.869	1.741	1.469	1.454	1.307
355.0	241.6	243.0	208.6	164.0	149.0	154.6	175.8	203.2	220.8	242.4	264.4	280.3	280.9	249.4	202.2	140.4	101.6	90.95	93.42	126.6	101.3	49.17	39.82	52.01	160.5	442.8	 1188	 3294	 1353	19.58	3.123	2.421	1.980	1.639	1.511	1.203	1.270	1.295	1.252	1.218	1.087	1.323	1.171	1.197	1.261	1.273	1.175	1.276	1.251	1.076	1.082	1.159	1.158	1.279	1.140	1.169	1.299	1.438	1.481	1.566	1.696	1.928	1.801	1.928	2.018	2.039	2.152	2.133	1.987	2.219	2.011	2.125	2.019	1.774	1.569	1.494	1.292
360.0	230.2	232.7	194.2	165.4	156.6	160.0	175.7	203.2	212.3	233.2	258.9	269.5	271.3	242.5	200.3	142.1	103.8	91.80	86.01	103.3	137.0	77.74	45.05	38.85	55.01	112.1	304.2	 1833	 3550	293.9	10.01	2.664	2.388	1.916	1.571	1.419	1.323	1.296	1.245	1.157	1.107	1.247	1.224	1.202	1.287	1.256	1.201	1.230	1.209	1.123	1.050	1.167	1.085	1.202	1.071	1.172	1.359	1.500	1.511	1.633	1.722	1.854	1.872	1.944	1.866	2.024	2.052	2.118	1.997	2.050	1.962	1.913	1.980	1.784	1.561	1.401	1.249
365.0	223.0	216.4	195.3	160.5	153.5	158.8	173.3	193.9	208.1	226.7	247.7	262.3	257.9	236.6	197.0	142.1	108.2	95.86	87.17	87.61	123.8	119.9	54.66	39.17	34.71	40.52	79.28	498.9	 2570	 2496	232.0	4.718	2.817	2.169	1.643	1.489	1.466	1.372	1.187	1.147	1.125	1.246	1.118	1.116	1.218	1.202	1.242	1.299	1.191	1.003	1.034	1.129	1.121	1.100	1.149	1.234	1.380	1.396	1.454	1.478	1.618	1.837	1.733	1.926	1.876	1.989	1.795	2.026	1.802	2.054	1.906	1.868	1.924	1.654	1.638	1.435	1.311
370.0	209.4	202.8	181.5	155.6	150.2	157.7	172.1	188.9	203.7	217.8	237.3	246.3	243.0	222.3	189.4	140.5	112.6	101.3	92.30	88.03	94.49	117.3	103.7	55.49	34.82	29.12	32.42	122.3	685.1	 2033	 2655	896.6	13.98	2.727	2.049	1.802	1.595	1.459	1.343	1.268	1.158	1.251	1.122	1.187	1.219	1.256	1.243	1.219	1.149	1.028	1.002	1.130	1.156	1.112	1.213	1.183	1.347	1.367	1.447	1.525	1.641	1.636	1.749	1.876	1.785	1.873	1.868	1.916	1.956	1.918	1.843	1.813	1.851	1.783	1.583	1.522	1.393
375.0	191.6	192.6	167.8	146.0	148.5	155.3	171.1	179.9	193.5	205.9	220.8	229.2	225.4	203.6	175.8	138.1	115.2	104.4	98.22	94.32	90.27	90.88	110.7	100.2	46.21	31.77	26.33	42.32	163.6	473.3	 1348	 3478	 1295	17.19	2.636	1.996	1.705	1.612	1.350	1.379	1.182	1.334	1.180	1.070	1.228	1.259	1.086	1.126	1.087	0.959	1.052	1.039	1.127	1.134	1.223	1.149	1.237	1.446	1.526	1.555	1.578	1.522	1.605	1.701	1.700	1.762	1.849	1.827	2.046	1.856	1.759	1.655	1.754	1.653	1.535	1.517	1.370
380.0	188.8	188.1	162.2	145.0	151.0	158.0	169.0	176.8	185.9	195.9	207.2	216.8	211.9	192.9	169.3	134.1	114.9	105.7	101.8	97.66	91.51	84.90	90.80	116.3	75.27	38.60	29.01	27.51	50.17	116.6	340.4	 2003	 3525	258.1	8.412	2.399	2.010	1.657	1.498	1.442	1.255	1.312	1.284	1.127	1.229	1.236	1.070	1.200	1.047	0.944	0.964	1.073	1.239	1.198	1.215	1.240	1.230	1.386	1.366	1.529	1.444	1.505	1.624	1.688	1.707	1.673	1.897	1.927	1.892	1.760	1.796	1.746	1.572	1.543	1.553	1.471	1.358
385.0	181.6	173.4	154.6	144.1	148.7	157.7	164.9	173.3	180.2	191.2	199.9	208.5	202.2	186.7	162.6	130.7	114.5	107.5	104.3	99.04	94.05	85.17	80.86	99.31	104.4	48.90	34.05	27.25	28.44	38.94	86.63	546.1	 2636	 2152	190.9	3.730	2.174	1.879	1.674	1.417	1.293	1.340	1.155	1.235	1.187	1.227	1.165	1.197	1.158	1.026	0.937	1.133	1.127	1.153	1.216	1.215	1.339	1.298	1.361	1.511	1.532	1.555	1.529	1.567	1.580	1.725	1.730	1.766	1.735	1.731	1.676	1.689	1.481	1.670	1.343	1.470	1.309
390.0	166.2	163.9	149.9	141.3	147.3	154.3	162.2	168.4	171.8	181.7	189.7	196.1	189.7	174.3	155.1	127.2	112.4	107.6	104.2	101.0	95.22	89.19	80.80	80.46	95.49	88.20	52.28	33.88	28.26	26.27	32.31	132.1	705.4	 1872	 2286	730.8	12.12	2.378	1.877	1.638	1.420	1.407	1.234	1.265	1.201	1.203	1.141	1.178	1.146	0.992	0.918	1.153	1.142	1.208	1.217	1.249	1.269	1.316	1.420	1.454	1.468	1.565	1.459	1.581	1.596	1.621	1.664	1.757	1.648	1.721	1.630	1.602	1.501	1.536	1.423	1.487	1.390
395.0	155.7	154.7	143.9	138.1	144.0	150.0	157.0	163.3	162.4	173.3	179.2	182.2	179.0	163.7	146.1	122.8	109.8	106.8	104.7	100.4	97.27	91.16	84.44	77.20	75.78	88.96	89.39	46.50	34.13	28.12	24.52	41.38	166.3	434.0	 1220	 2949	 1087	14.40	2.498	1.722	1.615	1.475	1.296	1.302	1.277	1.211	1.131	1.114	1.018	1.022	0.889	1.180	1.123	1.133	1.225	1.214	1.233	1.351	1.345	1.298	1.442	1.475	1.488	1.525	1.563	1.542	1.552	1.606	1.536	1.646	1.588	1.644	1.712	1.368	1.430	1.428	1.339
400.0	144.9	146.2	140.5	134.1	138.3	145.5	152.8	158.2	157.7	164.7	172.8	172.7	170.3	160.0	140.3	119.7	107.8	103.7	101.9	99.75	96.60	91.91	87.17	78.72	72.13	75.84	95.90	73.61	41.50	31.85	25.55	23.97	47.69	104.8	306.4	 1754	 2940	222.7	7.427	2.136	1.803	1.594	1.405	1.297	1.268	1.230	1.163	1.136	1.034	1.048	0.896	1.096	1.108	1.207	1.237	1.229	1.236	1.387	1.369	1.289	1.420	1.374	1.490	1.569	1.448	1.460	1.518	1.541	1.540	1.511	1.491	1.567	1.571	1.309	1.410	1.382	1.421
405.0	147.8	142.1	133.3	132.7	139.6	138.5	153.2	152.8	154.6	164.4	166.1	167.1	164.2	155.2	136.1	117.4	106.4	102.6	101.5	98.17	96.85	92.85	86.33	79.89	73.02	71.29	82.28	94.31	56.70	36.30	29.10	22.31	23.16	32.25	75.75	475.0	 2164	 1870	170.6	3.625	2.028	1.736	1.536	1.416	1.203	1.227	1.215	1.167	1.109	0.958	0.930	1.043	1.142	1.168	1.220	1.164	1.252	1.452	1.364	1.283	1.360	1.410	1.431	1.545	1.459	1.461	1.558	1.465	1.525	1.567	1.518	1.508	1.501	1.514	1.421	1.320	1.327
410.0	141.4	137.7	128.8	129.2	134.9	141.0	149.2	147.5	152.6	157.7	159.8	161.6	153.7	145.0	129.0	111.0	101.1	98.85	97.19	95.86	94.98	91.31	86.63	81.02	75.87	70.62	69.70	82.83	81.63	51.95	33.39	25.06	20.32	18.32	25.43	112.7	576.0	 1601	 1937	640.1	10.67	2.068	1.673	1.413	1.327	1.213	1.183	1.140	1.081	0.919	0.913	1.057	1.125	1.207	1.177	1.159	1.227	1.320	1.381	1.333	1.328	1.412	1.340	1.535	1.421	1.489	1.451	1.457	1.485	1.573	1.525	1.535	1.372	1.377	1.362	1.372	1.380
