Sample:	'1
File name:	G2025070107ÃÏ‘µ”ÍÀÆπ‹Õ¯.FD3
Run date:	'14:26:41, 07/03/2025
Operator:	Administrator
Comment:	'

Instrument
Model:	F-2700 FL Spectrophotometer
Serial number:	23B8-004
ROM Version:	4J14000 07

Instrument parameters
Measurement type:	3-D scan
Data mode:	Fluorescence
EX  Start WL:	220.0 nm
EX  End WL:	600.0 nm
EX Sampling interval:	5.0 nm
EM  Start WL:	230.0 nm
EM  End WL:	650.0 nm
EM Sampling interval:	5.0 nm
Scan speed:	12000 nm/min
EX Slit:	5.0 nm
EM Slit:	5.0 nm
PMT Voltage:	700 V
Response:	Auto 
Corrected spectra:	Off
Contour interval:	50.000

Peak integration
Integration method:	Rectangular
Sensitivity:	1
Threshold:	1.000

Peaks
No.	ApexEX/EM(nm)	Height(Data)
1	225.0/300.0	712.0
2	230.0/345.0	1487
3	235.0/260.0	317.7
4	240.0/265.0	403.4
5	240.0/380.0	1286
6	245.0/270.0	475.6
7	250.0/275.0	615.9
8	250.0/455.0	1878
9	255.0/285.0	634.3
10	255.0/560.0	174.8
11	260.0/290.0	613.7
12	260.0/575.0	128.3
13	265.0/295.0	723.7
14	265.0/585.0	106.6
15	270.0/300.0	961.5
16	270.0/600.0	93.13
17	275.0/305.0	954.5
18	275.0/610.0	76.75
19	280.0/625.0	64.58
20	285.0/320.0	831.8
21	285.0/635.0	46.82
22	290.0/325.0	742.0
23	305.0/345.0	489.3
24	310.0/350.0	410.6
25	315.0/355.0	392.8
26	320.0/365.0	378.7
27	325.0/370.0	358.6
28	330.0/375.0	352.5
29	335.0/380.0	349.5
30	340.0/390.0	318.5
31	365.0/420.0	263.8
32	425.0/500.0	35.50
33	440.0/520.0	20.59
34	455.0/540.0	11.94
35	475.0/365.0	5.121
36	480.0/360.0	5.271
37	485.0/265.0	2.389
38	495.0/270.0	2.587
39	505.0/275.0	3.804
40	505.0/460.0	8.736
41	510.0/280.0	4.201
42	515.0/285.0	4.033
43	530.0/290.0	3.997
44	540.0/295.0	5.355
45	545.0/300.0	5.578
46	550.0/305.0	6.008
47	560.0/310.0	5.286
48	570.0/315.0	5.253
49	575.0/320.0	4.968
50	585.0/325.0	5.236

Data points
	220.0	225.0	230.0	235.0	240.0	245.0	250.0	255.0	260.0	265.0	270.0	275.0	280.0	285.0	290.0	295.0	300.0	305.0	310.0	315.0	320.0	325.0	330.0	335.0	340.0	345.0	350.0	355.0	360.0	365.0	370.0	375.0	380.0	385.0	390.0	395.0	400.0	405.0	410.0	415.0	420.0	425.0	430.0	435.0	440.0	445.0	450.0	455.0	460.0	465.0	470.0	475.0	480.0	485.0	490.0	495.0	500.0	505.0	510.0	515.0	520.0	525.0	530.0	535.0	540.0	545.0	550.0	555.0	560.0	565.0	570.0	575.0	580.0	585.0	590.0	595.0	600.0
230.0	61.56	882.5	1996	538.8	22.75	7.061	5.676	5.153	4.562	3.638	3.236	3.202	2.815	2.281	2.084	1.768	1.506	1.478	1.226	1.118	0.999	1.012	1.000	0.882	0.846	0.822	0.743	0.624	0.764	0.646	0.639	0.619	0.565	0.585	0.525	0.525	0.490	0.490	0.445	0.432	0.475	0.653	0.580	0.462	0.348	0.427	1.417	5.524	8.506	5.824	2.066	0.540	0.352	0.322	0.280	0.309	0.335	0.288	0.292	0.292	0.306	0.332	0.312	0.329	0.325	0.331	0.287	0.309	0.305	0.316	0.301	0.293	0.318	0.309	0.328	0.308	0.304
235.0	104.7	261.2	1348	2060	460.4	31.63	6.704	5.831	4.938	3.762	3.439	3.886	3.240	2.686	2.175	1.914	1.504	1.474	1.327	1.207	1.114	1.037	0.975	0.933	0.798	0.890	0.799	0.691	0.798	0.675	0.721	0.678	0.564	0.513	0.490	0.535	0.495	0.553	0.539	0.368	0.455	0.472	0.593	0.726	0.594	0.475	0.606	1.639	3.484	6.205	8.467	8.788	3.572	0.849	0.303	0.375	0.339	0.328	0.286	0.351	0.344	0.345	0.319	0.318	0.323	0.307	0.294	0.278	0.301	0.302	0.325	0.296	0.338	0.351	0.382	0.365	0.332
240.0	171.1	155.6	439.9	1944	2173	335.1	15.59	6.965	4.779	5.305	3.970	3.685	3.442	2.435	1.969	1.718	1.596	1.411	1.411	1.331	1.184	0.981	0.899	0.883	0.809	0.871	0.800	0.665	0.741	0.711	0.655	0.646	0.619	0.604	0.483	0.520	0.499	0.497	0.506	0.427	0.511	0.476	0.476	0.584	0.826	0.781	0.576	0.755	1.057	2.115	5.240	12.18	13.20	8.532	2.819	0.577	0.361	0.306	0.296	0.306	0.309	0.362	0.274	0.361	0.338	0.327	0.319	0.298	0.310	0.340	0.319	0.323	0.335	0.290	0.326	0.381	0.328
245.0	155.6	222.7	160.6	722.7	2648	2142	233.5	9.601	5.279	5.403	4.353	3.651	3.758	2.690	2.242	1.895	1.723	1.528	1.235	1.189	1.083	1.051	1.030	0.956	0.836	0.868	0.747	0.712	0.635	0.667	0.554	0.603	0.602	0.545	0.550	0.487	0.507	0.515	0.487	0.510	0.475	0.443	0.409	0.408	0.662	0.850	0.887	0.784	0.607	0.723	1.432	4.473	10.81	16.76	15.11	7.558	1.851	0.471	0.321	0.327	0.295	0.320	0.321	0.327	0.339	0.316	0.276	0.308	0.367	0.351	0.334	0.359	0.315	0.278	0.349	0.343	0.304
250.0	70.19	171.4	236.5	240.6	933.3	2574	2842	813.9	35.12	6.902	5.349	4.642	3.627	3.015	2.613	2.090	1.749	1.767	1.405	1.233	1.217	1.120	1.024	0.894	0.926	0.893	0.816	0.849	0.693	0.705	0.688	0.614	0.617	0.544	0.535	0.485	0.466	0.492	0.515	0.492	0.511	0.443	0.453	0.398	0.486	0.549	0.612	0.912	1.064	0.805	0.763	1.341	2.867	5.926	10.73	15.65	19.09	15.58	7.693	1.943	0.427	0.389	0.340	0.333	0.325	0.288	0.319	0.366	0.332	0.326	0.311	0.355	0.392	0.322	0.300	0.345	0.338
255.0	41.82	61.73	203.4	306.1	283.6	720.3	2800	4436	275.3	31.07	6.336	5.860	4.199	3.561	2.773	2.489	2.248	1.676	1.416	1.458	1.265	1.115	0.986	1.017	0.861	0.948	0.970	0.796	0.857	0.743	0.761	0.591	0.572	0.496	0.624	0.483	0.482	0.531	0.481	0.466	0.576	0.471	0.442	0.437	0.437	0.424	0.425	0.445	0.645	0.984	1.614	1.375	1.206	1.674	2.762	4.144	8.818	19.47	29.57	25.30	12.27	1.931	0.469	0.378	0.357	0.410	0.330	0.334	0.366	0.328	0.304	0.328	0.367	0.367	0.314	0.385	0.360
260.0	42.45	35.92	85.16	317.7	297.1	235.2	976.1	4378	4437	229.0	16.30	7.220	5.385	3.881	3.197	2.619	2.419	1.635	1.422	1.606	1.440	1.368	1.090	1.070	0.936	0.929	0.870	0.863	0.652	0.728	0.687	0.695	0.618	0.588	0.663	0.529	0.554	0.501	0.533	0.457	0.472	0.511	0.403	0.490	0.392	0.400	0.403	0.367	0.444	0.591	1.207	1.991	1.748	1.226	1.129	1.331	2.465	5.887	15.06	29.71	32.85	22.72	7.958	0.963	0.466	0.423	0.350	0.395	0.315	0.354	0.344	0.282	0.350	0.392	0.328	0.363	0.406
265.0	40.14	31.14	38.85	172.1	403.4	253.5	292.7	1699	5891	4229	169.1	10.94	6.534	4.363	3.708	3.076	2.429	2.253	1.785	1.700	1.221	1.322	1.125	1.091	0.913	0.863	0.887	0.953	0.754	0.833	0.767	0.643	0.714	0.646	0.539	0.585	0.544	0.484	0.472	0.433	0.429	0.463	0.431	0.448	0.474	0.483	0.398	0.432	0.402	0.361	0.633	1.154	1.956	2.389	1.629	0.996	1.058	1.899	4.015	9.605	22.25	39.99	32.12	19.35	4.268	0.575	0.370	0.392	0.360	0.404	0.358	0.335	0.356	0.362	0.305	0.344	0.354
270.0	80.32	68.10	55.39	88.56	269.8	475.6	315.3	474.5	2067	5391	4807	708.2	32.65	6.680	5.038	4.017	3.076	2.450	1.987	1.867	1.488	1.504	1.285	1.280	0.993	1.078	0.945	0.870	0.883	0.880	0.833	0.733	0.768	0.712	0.622	0.667	0.622	0.564	0.585	0.516	0.500	0.563	0.482	0.506	0.531	0.512	0.491	0.477	0.467	0.414	0.471	0.616	1.074	1.722	2.329	2.587	2.175	1.543	1.586	2.717	5.728	12.46	20.68	34.13	34.49	34.73	14.12	4.090	0.580	0.458	0.468	0.394	0.382	0.376	0.387	0.365	0.392
275.0	206.7	199.7	137.1	96.48	165.4	350.2	615.9	357.8	538.8	1438	4950	8498	939.2	24.85	6.784	5.137	3.614	3.322	2.295	2.070	1.687	1.379	1.357	1.493	1.035	1.111	1.082	0.877	0.944	1.051	0.836	0.832	0.785	1.049	0.965	0.860	0.669	0.648	0.702	0.681	0.615	0.620	0.727	0.752	0.675	0.811	0.671	0.801	0.656	0.583	0.518	0.577	0.791	1.080	1.290	1.981	3.090	3.804	2.595	1.718	1.985	3.316	5.132	8.414	12.00	28.46	53.46	33.04	21.73	4.108	0.568	0.461	0.355	0.452	0.426	0.370	0.403
280.0	344.8	331.2	229.4	118.7	143.0	235.3	508.9	603.7	282.2	409.5	1553	7740	7561	139.2	13.24	6.571	4.385	3.443	2.807	2.179	1.672	1.700	1.459	1.446	1.385	1.184	1.065	1.114	1.035	0.977	0.843	1.011	1.038	1.104	1.194	0.931	1.075	0.851	0.930	0.836	0.784	0.823	0.826	0.924	0.870	1.203	1.079	1.088	1.001	0.657	0.649	0.578	0.682	0.920	1.045	1.308	1.917	3.108	4.201	3.428	1.737	1.491	1.809	2.617	3.394	7.577	19.97	40.05	62.53	31.56	15.79	1.727	0.432	0.466	0.451	0.379	0.421
285.0	499.0	481.3	322.7	151.7	138.3	193.4	309.5	634.3	480.8	224.8	464.9	2617	9270	5680	99.36	9.933	5.781	4.106	3.116	2.664	2.129	1.858	1.644	1.543	1.451	1.360	1.080	1.221	1.062	0.836	0.799	0.965	1.062	1.198	1.358	1.201	1.124	1.114	0.940	0.899	0.945	0.955	1.000	1.020	1.308	1.542	1.518	1.399	1.204	0.873	0.762	0.763	0.695	0.869	0.974	1.158	1.343	1.714	2.747	4.033	3.956	2.324	1.249	1.354	1.574	2.631	5.275	11.41	28.62	52.35	65.13	27.33	8.803	0.877	0.645	0.453	0.431
290.0	601.6	596.9	406.1	196.1	144.8	178.9	207.4	337.4	613.7	488.3	283.5	746.4	2971	6881	6273	417.3	21.05	5.719	4.185	3.380	2.634	2.162	1.881	1.614	1.496	1.291	1.201	1.053	1.174	1.022	0.954	0.988	1.097	1.365	1.549	1.444	1.304	1.278	1.087	0.983	1.036	1.096	1.160	1.239	1.539	1.696	1.706	1.851	1.544	1.169	0.863	0.804	0.833	0.781	0.990	1.030	1.157	1.261	1.469	2.011	2.820	3.894	3.997	2.987	1.864	1.666	2.306	3.623	7.549	14.54	27.39	38.88	36.69	43.25	18.12	7.501	1.032
295.0	632.7	662.5	492.8	253.6	168.0	174.3	188.9	221.0	347.4	723.7	640.6	408.2	839.2	1769	5213	6459	574.2	16.78	5.952	4.201	3.218	2.591	2.159	1.727	1.669	1.635	1.441	1.330	1.192	1.175	1.136	0.964	1.306	1.567	1.618	1.611	1.535	1.408	1.245	1.166	1.168	1.008	1.291	1.281	1.815	1.891	1.810	2.126	1.784	1.387	1.153	1.020	0.915	0.884	1.048	0.970	1.031	1.134	1.171	1.425	1.655	2.181	2.731	4.781	5.355	3.297	2.004	2.270	2.896	4.451	7.065	9.687	10.81	25.64	50.91	65.88	28.12
300.0	638.1	712.0	530.7	301.9	193.0	187.5	206.2	225.7	282.9	525.0	961.5	552.9	419.1	527.0	1529	6755	5464	83.45	9.709	5.456	4.383	3.282	2.445	2.129	1.723	1.738	1.353	1.347	1.129	1.149	1.188	0.986	1.174	1.604	1.570	1.644	1.516	1.398	1.346	1.167	1.168	1.205	1.321	1.568	1.571	1.985	1.862	2.139	1.814	1.463	1.200	1.294	1.079	1.163	1.047	1.185	1.229	1.268	1.306	1.566	1.564	1.722	2.112	3.124	4.705	5.578	4.287	2.538	2.217	2.512	2.768	3.223	3.297	6.808	16.26	39.75	65.83
305.0	633.2	693.4	543.6	346.8	239.5	231.1	251.6	270.5	318.5	441.5	818.5	954.5	443.1	313.3	459.5	2220	7798	4262	63.42	7.170	5.228	3.662	2.835	2.571	1.814	1.682	1.478	1.325	1.311	1.084	1.164	1.199	1.277	1.514	1.638	1.732	1.643	1.405	1.351	1.493	1.261	1.290	1.233	1.512	1.682	1.939	1.989	1.978	1.724	1.596	1.288	1.359	1.336	1.218	1.216	1.219	1.477	1.469	1.476	1.771	1.901	1.807	2.269	2.432	3.108	4.467	6.008	5.331	3.370	2.339	2.156	2.013	1.731	2.528	4.439	10.41	25.06
310.0	628.8	696.2	596.4	397.6	310.2	300.9	319.1	340.8	371.1	452.5	608.0	887.0	831.9	407.6	270.0	603.0	2441	5649	5247	295.1	16.77	4.959	3.593	3.029	2.353	2.052	1.653	1.548	1.471	1.329	1.277	1.290	1.237	1.527	1.626	1.678	1.558	1.409	1.462	1.317	1.222	1.334	1.282	1.551	1.682	1.914	2.012	2.045	1.970	1.592	1.485	1.490	1.482	1.391	1.491	1.568	1.673	1.671	1.958	1.979	1.955	2.133	2.359	2.502	2.783	3.236	3.974	4.940	5.286	4.782	3.510	2.418	1.824	1.838	2.037	3.275	6.519
315.0	610.0	712.6	628.7	473.3	374.8	373.1	386.6	403.7	425.0	484.5	570.6	661.3	816.3	762.1	327.8	273.8	639.4	1402	4296	6665	447.0	14.93	5.250	3.751	2.905	2.236	1.874	1.752	1.512	1.348	1.240	1.308	1.245	1.412	1.786	1.561	1.608	1.399	1.253	1.327	1.290	1.410	1.264	1.476	1.750	1.908	2.006	2.288	1.991	1.712	1.506	1.707	1.790	1.711	1.719	1.806	1.931	1.958	2.220	2.133	2.164	2.309	2.510	2.613	2.775	3.119	3.229	3.793	3.725	4.064	5.253	4.755	3.077	1.966	1.654	1.900	2.416
320.0	641.2	791.4	700.4	525.4	418.8	414.2	432.2	446.5	466.9	516.6	586.0	634.5	677.3	831.8	548.5	242.8	257.6	386.9	1202	5640	4163	65.43	8.772	4.849	3.457	2.420	2.148	1.770	1.898	1.515	1.376	1.258	1.267	1.434	1.567	1.540	1.606	1.390	1.178	1.321	1.395	1.498	1.286	1.606	1.720	1.990	2.091	2.420	2.236	1.997	1.816	2.044	1.918	1.914	2.009	1.979	2.232	2.179	2.333	2.312	2.563	2.463	2.784	2.709	2.711	3.308	3.191	3.346	3.369	3.721	4.248	4.968	4.810	3.729	2.185	1.760	1.768
325.0	739.3	972.5	859.2	657.4	503.5	474.2	472.3	489.0	502.9	547.4	615.9	658.5	655.8	691.2	742.0	359.5	205.0	180.1	327.3	1743	5999	3477	53.72	6.614	4.255	3.036	2.278	2.161	1.849	1.541	1.451	1.307	1.423	1.448	1.489	1.436	1.514	1.436	1.269	1.295	1.340	1.455	1.368	1.590	1.741	2.379	2.508	2.815	2.983	2.507	2.173	2.251	2.296	2.193	2.112	2.232	2.345	2.497	2.423	2.406	2.511	2.790	2.712	2.919	3.223	3.373	3.336	3.332	3.437	3.604	3.699	3.742	4.312	5.236	4.000	2.654	1.933
330.0	850.4	1131	1136	874.7	636.2	540.7	507.8	518.5	535.9	585.1	653.0	708.0	688.8	633.7	632.0	579.8	327.7	172.6	156.1	448.2	1831	4408	4350	1003	16.93	4.573	3.171	2.556	2.055	1.767	1.693	1.393	1.581	1.490	1.556	1.473	1.506	1.355	1.362	1.326	1.390	1.380	1.549	1.732	1.978	2.513	2.894	3.437	3.539	3.120	2.894	2.976	2.868	2.546	2.456	2.429	2.566	2.584	2.643	2.537	2.678	2.810	3.009	3.270	3.285	3.494	3.610	3.750	3.798	3.631	3.569	3.516	3.387	3.975	4.113	4.153	3.562
335.0	931.8	1231	1311	1082	776.3	627.7	555.1	563.8	572.5	617.8	688.8	749.3	744.8	662.8	563.3	520.7	540.0	276.2	153.9	187.1	470.1	1085	3400	5979	404.8	16.64	4.711	3.403	2.448	2.145	1.929	1.568	1.611	1.563	1.568	1.448	1.577	1.355	1.305	1.399	1.327	1.503	1.569	1.867	2.255	2.859	3.320	3.828	4.195	3.845	3.538	3.807	3.451	3.045	2.915	2.695	2.753	2.847	2.930	2.903	3.023	3.096	3.064	3.273	3.560	3.523	3.750	3.794	3.860	3.753	3.677	3.618	3.709	3.453	3.441	3.350	3.856
340.0	984.1	1310	1421	1193	898.4	688.4	597.4	591.6	606.3	637.8	719.7	777.8	765.4	690.0	572.3	470.8	512.3	441.7	201.6	146.7	185.7	301.2	943.2	4691	3518	329.0	8.698	3.935	2.830	2.411	2.037	1.835	1.583	1.558	1.679	1.523	1.519	1.544	1.332	1.426	1.351	1.526	1.702	1.756	2.357	2.817	3.387	4.093	4.256	4.003	3.754	4.312	3.796	3.400	3.155	2.901	2.935	2.830	2.923	3.001	3.146	3.019	3.272	3.281	3.378	3.553	3.726	3.995	3.941	4.090	3.718	3.665	3.587	3.541	3.299	3.082	3.234
345.0	1013	1344	1487	1279	986.6	752.8	633.5	616.3	621.6	664.3	738.7	779.5	778.0	707.5	589.7	476.4	419.4	489.3	321.2	163.6	137.6	142.4	269.2	1404	4871	3195	50.37	6.278	3.510	2.790	2.192	1.925	1.540	1.609	1.646	1.523	1.449	1.555	1.418	1.399	1.522	1.616	1.699	1.872	2.178	3.048	3.375	4.326	4.453	4.089	4.093	4.844	4.111	3.788	3.389	3.269	3.234	2.918	3.027	3.046	3.057	3.125	3.355	3.255	3.479	3.695	4.028	4.034	4.154	4.278	3.957	3.796	3.454	3.587	3.258	3.246	2.924
350.0	959.4	1316	1477	1328	1080	856.0	724.2	686.5	676.8	696.1	756.8	785.6	775.8	720.3	617.4	500.9	406.9	395.0	410.6	285.3	167.0	131.7	140.1	371.9	1451	3547	3697	991.8	16.82	3.933	2.586	2.045	1.855	1.655	1.488	1.585	1.463	1.504	1.364	1.348	1.431	1.456	1.594	1.828	2.073	2.862	3.405	4.170	4.348	3.948	4.109	4.855	4.299	4.277	3.793	3.507	3.389	3.256	3.464	3.309	3.311	3.483	3.436	3.507	3.922	3.742	3.949	4.047	4.068	4.200	4.158	4.105	3.937	3.830	3.466	3.427	3.043
355.0	936.5	1291	1447	1365	1175	980.3	840.9	779.7	772.6	770.6	787.4	812.1	785.4	738.9	644.7	533.5	437.2	378.0	353.9	392.8	277.1	164.4	135.6	162.7	379.3	855.8	2487	4960	388.8	18.64	3.733	2.763	2.201	1.836	1.786	1.513	1.415	1.336	1.417	1.293	1.417	1.530	1.682	1.736	2.265	2.778	3.173	3.733	4.177	4.051	4.009	4.846	4.798	4.592	3.969	3.784	3.707	3.791	4.005	3.737	3.780	3.856	3.803	3.816	4.297	4.162	4.296	4.022	4.016	4.163	4.250	4.397	3.991	3.983	3.557	3.437	3.355
360.0	895.9	1230	1424	1355	1202	1042	914.7	853.5	844.0	825.2	834.4	831.9	800.7	746.2	660.3	555.0	466.7	393.4	341.3	360.2	378.3	227.9	155.6	132.3	155.4	238.6	660.6	3443	4540	334.1	9.362	3.372	2.549	2.089	1.713	1.488	1.481	1.411	1.453	1.335	1.452	1.522	1.631	1.747	2.388	2.906	2.944	3.720	3.907	3.866	4.364	5.017	5.271	4.797	4.336	4.226	4.260	4.104	4.140	3.884	3.990	4.159	4.109	4.034	4.150	4.102	4.098	3.914	4.100	4.487	4.310	4.495	3.792	3.973	3.767	3.674	3.392
365.0	875.6	1189	1379	1360	1250	1092	983.8	894.8	892.9	868.8	863.4	834.4	803.9	750.0	668.9	575.4	486.4	414.7	352.3	329.3	378.7	328.9	189.4	143.6	120.9	114.0	189.8	973.2	4135	3076	49.65	5.795	2.766	2.314	1.947	1.678	1.687	1.584	1.489	1.363	1.320	1.581	1.592	1.720	2.238	2.620	2.897	3.650	3.995	3.761	4.176	5.121	4.944	4.794	4.432	4.666	4.768	4.357	4.541	4.134	4.182	4.361	4.336	4.345	4.202	4.220	4.171	4.236	4.163	4.476	4.174	4.278	4.043	4.120	4.017	3.866	3.736
370.0	835.7	1134	1321	1344	1256	1139	1034	954.8	928.5	902.2	882.8	852.2	816.6	748.0	671.9	585.9	508.5	445.5	385.3	340.1	331.7	358.6	297.2	188.5	137.9	107.5	98.58	257.4	1157	3022	3434	996.4	16.35	3.081	2.453	1.951	1.640	1.585	1.444	1.350	1.422	1.583	1.631	1.775	2.190	2.612	2.773	3.498	3.832	3.777	3.978	4.984	4.873	4.906	4.650	4.634	4.864	4.525	4.678	4.333	4.528	4.536	4.605	4.617	4.605	4.383	4.295	4.179	4.263	4.412	4.161	4.211	4.166	3.998	4.044	3.908	3.993
375.0	859.3	1109	1263	1320	1283	1193	1079	1002	963.4	928.3	907.9	861.9	817.5	749.7	675.0	601.1	537.9	469.8	416.4	370.8	337.7	323.1	352.5	293.2	181.6	132.3	102.8	112.9	297.3	716.7	2071	4416	345.3	18.62	3.271	2.542	1.996	1.842	1.664	1.706	1.517	1.651	1.719	1.975	2.064	2.537	2.795	3.567	3.614	3.488	3.904	4.847	4.670	4.975	4.884	4.885	5.210	4.771	4.559	4.556	4.741	4.758	4.743	4.802	4.615	4.489	4.493	4.235	4.581	4.220	4.454	4.158	4.267	4.188	3.993	4.096	3.942
380.0	850.2	1080	1235	1285	1286	1208	1098	1025	969.2	945.1	911.7	866.9	813.8	740.3	677.8	603.0	548.2	488.9	433.9	391.3	353.0	325.2	327.3	349.5	244.8	162.2	122.9	95.54	115.1	195.0	538.9	2880	3840	294.6	9.604	2.999	2.084	2.136	1.578	1.626	1.418	1.565	1.792	1.964	2.188	2.464	2.943	3.314	3.707	3.423	3.868	4.564	4.667	5.086	4.755	4.868	5.017	5.159	4.760	4.832	5.018	4.702	4.788	4.798	4.369	4.389	4.367	4.304	4.724	4.422	4.489	4.186	4.127	4.337	4.149	3.890	3.852
385.0	845.4	1037	1204	1252	1244	1201	1107	1032	977.9	949.4	901.2	863.5	799.7	740.8	672.1	604.3	551.6	501.1	449.3	404.5	364.9	338.3	313.3	333.5	317.9	200.4	142.1	108.2	89.68	88.12	150.8	788.5	3241	2591	219.8	5.067	2.619	2.216	1.834	1.707	1.548	1.784	1.667	1.931	2.180	2.370	2.638	3.160	3.448	3.377	3.767	4.484	4.595	4.931	4.970	4.753	4.985	5.205	4.843	4.821	4.741	4.695	4.659	4.742	4.488	4.623	4.160	4.134	4.121	4.283	4.280	4.025	4.111	4.144	4.025	4.091	3.945
390.0	827.3	1038	1168	1213	1223	1204	1109	1026	960.9	924.1	884.7	842.0	789.7	731.5	666.4	610.5	558.6	514.1	467.5	428.0	388.8	355.6	322.7	308.0	318.5	280.4	186.5	132.4	102.8	81.73	76.03	205.8	882.8	2279	2632	792.3	14.45	2.952	2.373	1.806	1.646	1.752	1.909	2.080	2.055	2.568	2.743	3.071	3.335	3.394	3.697	4.439	4.449	4.844	4.995	4.755	5.070	4.974	5.092	4.745	4.700	4.742	4.795	4.455	4.522	4.490	4.284	4.281	4.176	4.157	4.418	4.146	4.119	4.109	4.042	4.014	4.059
395.0	797.8	1021	1120	1193	1211	1205	1119	1027	964.8	907.8	868.8	834.3	766.5	720.0	661.9	605.7	560.4	520.4	480.3	441.9	408.1	380.6	340.1	317.4	297.3	303.6	265.1	174.7	130.7	100.4	79.86	88.59	225.2	540.8	1523	3219	287.1	16.63	2.987	2.266	1.881	1.732	1.876	2.089	2.027	2.500	2.710	2.986	3.440	3.465	3.360	4.462	4.499	4.812	5.033	4.815	5.116	4.950	5.285	4.663	4.675	4.536	4.441	4.480	4.324	4.046	4.261	4.324	4.515	4.089	4.044	4.272	4.050	4.068	4.203	4.160	3.923
400.0	788.9	986.6	1117	1174	1200	1193	1125	1034	937.1	900.5	859.1	818.7	764.9	706.4	657.9	604.9	563.2	525.4	487.0	452.5	417.6	388.3	356.5	326.2	302.2	289.7	301.1	229.6	156.8	121.6	94.05	74.64	88.29	148.2	395.8	2047	2809	250.5	8.589	2.742	2.332	1.867	1.803	2.170	2.283	2.545	2.747	3.000	3.429	3.158	3.454	4.415	4.253	4.902	4.956	4.977	5.311	4.924	4.845	4.791	4.862	4.418	4.323	4.416	4.458	4.289	4.130	4.268	4.200	3.986	4.149	4.127	3.901	4.207	3.948	3.785	4.056
405.0	780.4	961.9	1071	1168	1168	1166	1107	1027	945.6	888.1	839.7	802.8	754.2	699.4	653.8	600.2	557.9	522.2	489.9	459.8	422.1	396.9	365.6	340.6	309.9	286.6	291.1	280.6	196.8	144.1	112.0	83.86	68.98	67.05	113.6	563.6	2330	2142	187.8	4.530	2.385	2.118	2.014	2.006	2.300	2.488	2.446	2.965	3.254	3.171	3.397	4.117	4.307	4.738	4.729	4.704	5.325	4.891	4.716	4.867	4.571	4.559	4.583	4.299	4.130	4.068	4.272	3.788	4.324	3.877	4.090	4.262	3.666	3.996	3.823	3.737	3.679
410.0	786.9	936.7	1036	1117	1152	1163	1116	1044	940.2	874.7	822.5	784.7	730.7	692.9	640.6	590.8	551.3	520.8	488.1	460.0	427.5	400.3	374.7	351.0	326.0	297.5	279.4	282.5	256.8	186.0	137.0	104.3	79.23	61.33	59.07	150.1	634.6	1722	2031	616.0	12.82	2.754	2.332	2.167	2.356	2.471	2.526	3.052	3.178	3.123	3.342	4.170	4.320	4.695	4.664	4.670	5.073	5.058	5.004	4.870	4.684	4.502	4.377	4.181	4.224	4.022	3.988	3.795	3.906	3.756	3.944	3.954	3.920	3.887	3.773	3.727	3.829
415.0	738.3	922.0	1004	1083	1127	1176	1131	1075	951.2	860.9	806.8	758.5	703.2	667.1	623.7	573.8	545.1	515.2	488.6	456.6	423.3	397.6	371.6	354.7	330.5	305.5	280.7	264.6	264.1	245.7	167.6	121.9	94.31	69.41	55.25	63.96	162.4	407.1	1123	2337	259.3	14.35	2.822	2.370	2.326	2.432	2.650	2.939	3.029	3.072	3.213	4.292	4.121	4.482	4.735	4.888	4.764	4.923	5.280	4.864	4.752	4.565	4.461	4.171	4.058	3.776	3.869	3.705	3.761	3.692	3.812	3.948	3.781	3.913	3.702	3.743	3.797
