Sample:	'1
File name:	t2025060604¶«Íõ¹«Ä¼  20±¶.FD3
Run date:	'14:42:34, 06/09/2025
Operator:	Administrator
Comment:	'

Instrument
Model:	F-2700 FL Spectrophotometer
Serial number:	23B8-004
ROM Version:	4J14000 07

Instrument parameters
Measurement type:	3-D scan
Data mode:	Fluorescence
EX  Start WL:	220.0 nm
EX  End WL:	600.0 nm
EX Sampling interval:	5.0 nm
EM  Start WL:	230.0 nm
EM  End WL:	650.0 nm
EM Sampling interval:	5.0 nm
Scan speed:	12000 nm/min
EX Slit:	5.0 nm
EM Slit:	5.0 nm
PMT Voltage:	700 V
Response:	Auto 
Corrected spectra:	Off
Contour interval:	50.000

Peak integration
Integration method:	Rectangular
Sensitivity:	1
Threshold:	1.000

Peaks
No.	ApexEX/EM(nm)	Height(Data)
1	225.0/490.0	168.9
2	230.0/500.0	153.0
3	235.0/515.0	131.8
4	240.0/265.0	351.3
5	240.0/525.0	130.0
6	245.0/270.0	372.0
7	245.0/535.0	117.8
8	250.0/275.0	501.3
9	250.0/550.0	109.1
10	255.0/565.0	125.9
11	270.0/300.0	4772
12	270.0/600.0	346.8
13	275.0/305.0	5301
14	275.0/605.0	330.6
15	305.0/345.0	325.0
16	310.0/350.0	244.5
17	315.0/355.0	219.2
18	320.0/360.0	206.5
19	325.0/370.0	173.8
20	330.0/375.0	172.1
21	335.0/380.0	173.6
22	345.0/395.0	131.2
23	350.0/400.0	138.5
24	355.0/405.0	124.3
25	365.0/420.0	106.9
26	370.0/425.0	96.77
27	380.0/440.0	72.18
28	385.0/445.0	65.23
29	390.0/305.0	11.29
30	390.0/450.0	53.45
31	395.0/455.0	48.21
32	400.0/465.0	41.79
33	405.0/470.0	32.95
34	410.0/475.0	26.54
35	415.0/485.0	23.14
36	420.0/490.0	19.47
37	425.0/495.0	17.11
38	430.0/505.0	15.14
39	435.0/510.0	12.28
40	440.0/520.0	10.38
41	445.0/305.0	9.047
42	445.0/525.0	9.534
43	450.0/530.0	7.802
44	455.0/540.0	6.509
45	470.0/560.0	3.346
46	480.0/575.0	2.019
47	495.0/270.0	2.154
48	505.0/275.0	3.377
49	555.0/305.0	24.61

Data points
	220.0	225.0	230.0	235.0	240.0	245.0	250.0	255.0	260.0	265.0	270.0	275.0	280.0	285.0	290.0	295.0	300.0	305.0	310.0	315.0	320.0	325.0	330.0	335.0	340.0	345.0	350.0	355.0	360.0	365.0	370.0	375.0	380.0	385.0	390.0	395.0	400.0	405.0	410.0	415.0	420.0	425.0	430.0	435.0	440.0	445.0	450.0	455.0	460.0	465.0	470.0	475.0	480.0	485.0	490.0	495.0	500.0	505.0	510.0	515.0	520.0	525.0	530.0	535.0	540.0	545.0	550.0	555.0	560.0	565.0	570.0	575.0	580.0	585.0	590.0	595.0	600.0
230.0	60.26	661.1	1920	727.8	40.39	6.273	4.419	3.810	3.434	3.661	3.666	3.134	2.464	2.172	1.631	1.322	1.077	1.043	0.809	0.870	0.714	0.663	0.544	0.644	0.518	0.535	0.496	0.445	0.431	0.393	0.436	0.382	0.417	0.412	0.339	0.346	0.397	0.341	0.301	0.333	0.421	0.632	0.587	0.395	0.269	0.282	0.806	3.927	6.516	4.683	1.878	0.462	0.218	0.176	0.195	0.191	0.190	0.190	0.200	0.184	0.202	0.208	0.228	0.204	0.187	0.209	0.191	0.182	0.192	0.192	0.180	0.200	0.200	0.177	0.204	0.201	0.197
235.0	155.6	206.5	986.9	1943	574.8	74.24	5.477	4.900	4.306	3.483	3.406	3.647	3.053	2.214	1.476	1.516	1.398	0.938	0.809	0.958	0.796	0.663	0.638	0.544	0.603	0.577	0.441	0.434	0.366	0.393	0.544	0.420	0.390	0.369	0.317	0.347	0.369	0.354	0.315	0.289	0.346	0.369	0.472	0.676	0.539	0.440	0.352	1.086	2.427	4.061	5.989	6.232	3.715	1.020	0.259	0.190	0.214	0.193	0.211	0.179	0.225	0.174	0.219	0.234	0.190	0.205	0.209	0.234	0.165	0.180	0.229	0.180	0.142	0.163	0.182	0.261	0.202
240.0	192.2	167.2	284.8	1419	2612	479.5	40.77	5.221	4.306	4.427	3.517	3.671	3.507	2.366	1.633	1.437	1.199	1.104	0.853	0.918	0.677	0.705	0.682	0.651	0.666	0.541	0.547	0.504	0.442	0.403	0.476	0.457	0.475	0.367	0.332	0.288	0.425	0.406	0.342	0.313	0.335	0.355	0.317	0.501	0.609	0.789	0.527	0.477	0.703	1.249	2.872	7.354	12.08	8.423	3.290	0.654	0.193	0.197	0.207	0.170	0.245	0.167	0.237	0.232	0.261	0.154	0.200	0.176	0.181	0.203	0.213	0.217	0.148	0.190	0.158	0.206	0.253
245.0	118.2	236.7	146.2	442.9	2543	3093	367.4	18.05	5.374	5.350	4.428	3.639	3.597	2.755	1.981	1.729	1.265	1.304	0.874	1.013	0.887	0.690	0.666	0.616	0.623	0.620	0.491	0.495	0.406	0.393	0.389	0.465	0.440	0.390	0.314	0.288	0.424	0.408	0.347	0.347	0.305	0.289	0.309	0.356	0.448	0.721	0.797	0.724	0.481	0.423	0.817	2.343	7.270	12.72	14.10	8.156	2.686	0.359	0.267	0.205	0.310	0.161	0.262	0.182	0.246	0.185	0.190	0.179	0.188	0.230	0.188	0.209	0.215	0.213	0.167	0.226	0.240
250.0	49.65	146.8	232.4	202.7	778.0	2583	3810	1264	85.47	7.344	5.885	5.077	4.393	3.146	2.244	1.833	1.286	1.315	1.115	1.027	0.770	0.768	0.613	0.661	0.644	0.633	0.544	0.539	0.450	0.430	0.459	0.422	0.438	0.389	0.398	0.307	0.400	0.344	0.377	0.354	0.349	0.340	0.288	0.323	0.320	0.414	0.501	0.773	0.874	0.764	0.609	0.799	1.888	3.954	7.721	11.54	19.52	14.66	8.597	2.846	0.514	0.252	0.230	0.231	0.227	0.213	0.209	0.225	0.196	0.187	0.214	0.193	0.225	0.206	0.164	0.198	0.219
255.0	32.83	54.57	142.8	299.9	288.3	637.0	2480	5350	1793	103.3	8.328	6.227	5.513	3.803	2.644	2.121	1.447	1.504	1.231	1.025	0.734	0.920	0.629	0.794	0.660	0.586	0.578	0.653	0.517	0.482	0.500	0.496	0.463	0.435	0.448	0.355	0.398	0.401	0.397	0.345	0.372	0.390	0.330	0.303	0.241	0.320	0.295	0.390	0.507	0.789	1.228	1.282	0.951	1.168	1.953	2.874	6.400	12.03	23.57	26.86	17.68	3.818	0.424	0.266	0.243	0.325	0.249	0.230	0.245	0.184	0.207	0.232	0.254	0.225	0.190	0.227	0.219
260.0	34.08	34.84	54.11	231.1	338.7	215.0	702.0	3728	6054	1403	54.65	8.642	5.940	3.887	3.214	2.482	1.888	1.694	1.268	1.353	0.925	0.920	0.813	0.851	0.685	0.736	0.558	0.651	0.628	0.512	0.558	0.499	0.496	0.603	0.493	0.398	0.392	0.404	0.371	0.392	0.303	0.424	0.323	0.337	0.247	0.321	0.278	0.336	0.306	0.409	0.727	1.465	1.889	1.118	0.769	0.895	1.734	3.246	9.616	22.30	41.72	27.73	13.52	2.143	0.328	0.266	0.284	0.241	0.253	0.222	0.249	0.249	0.289	0.204	0.282	0.188	0.235
265.0	53.96	32.22	28.98	102.6	351.3	271.9	199.7	1130	5207	6589	230.4	23.40	8.228	5.662	3.773	2.732	1.900	1.805	1.462	1.256	1.013	0.997	0.897	0.822	0.779	0.716	0.598	0.536	0.635	0.563	0.515	0.545	0.647	0.560	0.512	0.489	0.438	0.447	0.449	0.437	0.471	0.384	0.416	0.350	0.344	0.413	0.285	0.322	0.281	0.259	0.362	0.725	1.446	1.833	1.502	0.762	0.712	1.048	2.500	6.277	19.53	37.14	46.51	25.10	8.520	0.854	0.368	0.318	0.292	0.246	0.283	0.250	0.283	0.237	0.276	0.207	0.293
270.0	165.2	78.72	38.76	43.78	152.8	372.0	316.4	337.2	1534	5026	6760	2711	66.41	8.856	5.981	3.861	2.636	2.219	1.814	1.627	1.236	1.152	1.034	0.957	0.826	0.744	0.741	0.558	0.632	0.696	0.671	0.673	0.872	1.004	0.883	0.770	0.776	0.803	0.834	0.870	0.760	0.782	0.710	0.690	0.607	0.521	0.411	0.402	0.378	0.288	0.296	0.421	0.611	1.027	1.680	2.154	1.985	1.215	1.056	1.848	4.863	10.28	20.04	31.50	32.16	33.95	16.42	7.221	1.035	0.310	0.314	0.280	0.256	0.282	0.264	0.271	0.248
275.0	351.7	179.4	77.68	45.73	67.43	170.4	501.3	389.2	479.6	1305	3656	9999.9	1261	79.00	10.38	5.944	3.547	3.011	2.122	1.622	1.516	1.224	1.156	0.940	0.961	0.937	0.800	0.613	0.888	0.655	0.703	0.768	1.081	1.528	1.609	1.546	1.358	1.407	1.548	1.606	1.196	1.330	1.175	1.138	1.145	0.784	0.642	0.634	0.449	0.351	0.331	0.356	0.419	0.489	0.690	1.190	2.172	3.377	2.615	1.554	1.791	3.019	5.185	7.850	9.474	20.64	42.91	58.02	27.11	7.919	0.806	0.378	0.354	0.332	0.293	0.266	0.272
280.0	675.4	378.1	175.5	78.14	61.52	103.7	336.3	734.0	388.1	536.4	1312	6448	9963	988.1	49.07	8.995	4.601	3.709	2.407	1.956	1.842	1.374	1.156	0.939	0.941	1.021	0.917	0.804	0.774	0.724	0.688	1.046	1.645	2.326	2.520	2.308	2.180	2.078	2.140	2.205	1.944	1.969	2.058	2.032	1.544	1.473	1.091	0.914	0.641	0.465	0.459	0.408	0.437	0.442	0.481	0.748	1.336	2.292	3.907	4.140	2.548	2.276	2.885	3.770	3.996	6.783	15.08	36.29	63.01	34.02	21.22	4.428	0.506	0.462	0.445	0.398	0.396
285.0	1246	789.3	399.7	161.2	97.95	122.9	263.7	741.5	1074	945.8	1233	2632	8437	8543	695.6	19.09	6.968	4.592	3.049	2.566	2.032	1.620	1.419	1.168	1.050	1.117	0.916	1.055	0.806	0.704	0.764	1.090	2.341	3.394	3.842	3.924	3.519	3.237	2.892	2.914	2.805	3.207	3.312	3.001	2.955	2.447	2.083	1.844	1.310	0.934	0.613	0.639	0.591	0.536	0.612	0.821	1.077	1.646	2.688	4.527	5.705	5.042	4.276	4.876	5.293	5.975	7.845	12.95	25.55	40.61	60.78	31.59	15.48	2.725	0.592	0.455	0.522
290.0	2319	1646	942.7	390.2	196.9	207.1	364.3	776.6	1561	2221	2372	2584	3690	7355	8919	2354	35.94	7.229	4.443	3.448	2.633	1.975	1.688	1.526	1.342	1.156	1.033	1.043	0.963	0.892	0.961	1.551	3.272	5.520	6.812	6.724	5.675	4.859	4.296	4.544	4.252	4.945	4.817	5.080	5.129	4.875	4.400	3.891	2.817	1.933	1.339	1.049	0.963	0.864	0.956	1.098	1.660	2.263	2.949	4.250	6.171	8.248	10.08	10.79	10.83	10.53	11.31	12.46	14.27	16.65	24.60	31.94	45.29	51.24	34.17	12.40	2.406
295.0	3470	2744	1563	655.0	311.9	292.6	511.3	983.3	1790	3078	4071	3800	3198	2808	4781	9999.9	705.7	39.47	6.755	5.177	3.676	2.497	2.345	1.829	1.466	1.518	1.269	1.228	1.145	0.985	1.034	1.792	4.093	7.623	9.813	9.177	7.360	6.183	5.978	5.861	5.848	6.309	6.606	7.344	7.380	6.916	6.682	6.384	4.688	3.028	2.088	1.597	1.348	1.136	1.247	1.438	2.163	2.792	4.279	5.272	6.994	9.284	12.01	15.95	18.83	18.55	17.52	17.23	15.99	14.24	13.55	12.53	13.59	22.49	41.53	74.00	33.16
300.0	3935	3302	1906	827.2	374.0	336.6	573.0	1107	1961	3244	4772	4734	3449	2001	1554	6623	8391	568.9	17.96	6.700	4.251	3.301	2.636	2.035	1.735	1.649	1.374	1.275	1.236	1.125	1.113	2.004	4.586	8.732	11.19	10.15	8.919	7.157	6.182	6.562	6.607	7.097	7.573	7.992	8.664	8.545	8.400	7.358	5.650	3.799	2.534	2.040	1.557	1.427	1.465	1.779	2.385	3.226	4.540	5.868	7.621	10.00	12.97	16.35	19.56	22.78	23.02	21.28	18.32	15.36	12.53	9.134	6.385	7.134	12.33	32.36	53.11
305.0	4157	3541	2043	879.1	413.5	366.1	609.3	1139	2029	3262	4652	5301	3789	1945	782.8	1883	7162	5252	77.78	9.777	5.473	3.942	2.806	2.330	1.952	1.954	1.393	1.466	1.333	1.233	1.226	2.095	4.562	8.848	11.29	10.33	8.682	7.289	6.331	6.599	6.498	7.002	7.990	8.246	8.923	9.047	8.371	7.647	5.859	3.975	2.834	2.123	1.662	1.653	1.716	1.888	2.597	3.412	4.494	6.135	7.475	10.58	13.21	16.20	19.19	22.40	24.49	24.61	20.77	16.71	13.36	8.993	5.227	4.024	4.169	8.517	16.73
310.0	3859	3321	1962	877.8	408.4	381.0	595.6	1088	1894	3014	4156	4774	3960	2034	645.5	553.0	2004	5445	5511	1524	24.31	5.269	3.733	2.818	2.283	1.989	1.582	1.451	1.233	1.215	1.102	2.043	4.338	8.118	10.33	9.762	8.027	6.886	6.100	5.983	6.223	6.496	7.209	7.887	8.353	8.663	7.822	7.391	5.786	3.776	2.615	2.096	1.804	1.442	1.681	1.968	2.488	3.182	4.357	5.727	7.438	9.859	12.49	14.78	17.39	19.73	20.91	21.84	21.04	18.20	14.48	9.265	5.270	3.423	2.507	3.088	4.681
315.0	3405	2861	1720	771.1	384.5	365.2	553.9	993.2	1691	2608	3548	3948	3372	2202	705.0	275.3	525.4	1296	3335	8275	517.7	20.82	5.085	3.516	2.716	2.248	1.880	1.773	1.229	1.264	1.175	2.018	3.820	6.721	8.641	8.560	6.760	5.673	5.219	5.053	4.981	6.116	6.461	6.976	7.598	7.592	7.225	6.351	5.410	3.332	2.366	2.139	1.712	1.479	1.646	1.868	2.471	3.134	3.682	5.196	6.843	8.454	10.83	12.80	14.95	16.31	17.39	17.68	16.78	15.77	14.18	11.05	6.642	3.572	2.278	1.851	1.827
320.0	2999	2602	1555	709.6	373.8	356.5	520.8	907.2	1512	2279	3063	3382	2849	1994	916.2	249.5	203.8	341.3	878.6	5763	7036	397.0	10.21	4.590	3.365	2.786	2.078	1.988	1.355	1.335	1.327	1.899	3.529	5.838	7.618	7.231	5.857	4.905	4.655	4.484	4.582	5.000	5.651	6.024	6.754	7.057	6.194	5.497	4.527	3.129	2.153	1.922	1.529	1.532	1.606	1.652	2.287	2.861	3.517	4.844	6.076	7.903	9.352	11.43	13.01	14.55	15.31	15.15	14.19	12.95	11.53	9.996	8.047	5.218	2.828	1.821	1.476
325.0	2641	2314	1392	656.9	367.7	348.9	496.2	837.6	1359	2011	2660	2930	2467	1655	999.2	375.5	146.3	132.2	228.6	1644	6580	3811	57.46	6.621	4.099	3.027	2.524	1.936	1.687	1.625	1.342	1.973	3.483	4.875	6.699	6.015	5.056	4.478	4.057	4.174	4.230	4.730	5.029	5.388	5.978	6.137	5.328	5.091	4.011	3.056	1.965	1.752	1.602	1.430	1.547	1.624	2.213	2.553	3.571	4.341	5.449	6.771	8.487	9.899	11.82	12.55	13.48	13.30	12.48	10.71	9.954	8.143	6.677	6.170	4.491	2.646	1.520
330.0	2278	1997	1226	615.9	364.2	350.8	480.8	766.7	1198	1716	2237	2451	2098	1395	788.6	530.3	256.3	96.70	85.47	394.4	1857	4158	4354	1059	17.43	4.148	2.927	2.251	1.910	1.753	1.509	1.749	2.648	4.130	5.605	5.050	4.402	3.741	3.442	3.496	3.706	3.895	4.321	4.763	5.067	5.183	4.730	4.444	3.698	2.610	1.875	1.727	1.482	1.397	1.469	1.684	2.199	2.550	3.204	4.039	4.968	5.815	7.578	8.339	9.673	10.39	11.22	10.99	10.67	9.488	8.233	6.984	5.307	4.383	3.985	3.465	2.957
335.0	2050	1721	1091	584.9	373.9	358.7	460.7	711.1	1056	1496	1882	2055	1804	1245	663.0	401.0	418.5	183.7	63.27	117.3	436.0	981.4	3142	5964	411.4	17.29	3.992	3.001	2.121	1.980	1.652	1.924	2.275	3.315	4.323	3.689	3.945	3.283	2.942	3.125	3.115	3.539	3.830	4.250	4.258	4.620	4.293	3.835	3.246	2.245	1.807	1.645	1.629	1.410	1.606	1.649	2.072	2.583	3.015	3.667	4.379	5.352	6.273	7.310	8.501	8.915	9.360	9.207	9.377	8.269	7.411	5.863	4.691	3.771	2.897	2.385	2.749
340.0	1846	1559	984.1	553.2	373.8	354.6	463.1	671.1	986.6	1344	1673	1814	1598	1152	628.6	321.0	342.7	319.5	83.62	58.11	121.7	239.3	843.6	4537	3504	334.0	7.402	3.795	2.819	2.150	1.824	2.027	2.218	3.054	3.548	3.346	3.367	2.993	2.655	2.916	3.002	3.455	3.458	3.922	4.078	4.386	3.875	3.541	2.889	2.153	1.755	1.595	1.478	1.547	1.469	1.592	1.960	2.489	2.757	3.633	4.286	5.079	5.730	6.474	7.230	7.812	7.757	8.512	8.014	7.588	6.803	5.423	4.488	3.495	2.693	2.196	1.981
345.0	1690	1414	909.0	533.1	353.1	348.5	447.6	635.5	921.7	1229	1496	1628	1447	1076	601.3	296.3	228.9	325.0	192.9	55.83	53.89	74.50	208.3	1345	4934	3219	49.03	5.380	3.287	2.290	2.304	2.080	2.064	2.497	3.217	2.733	2.888	2.695	2.574	2.602	2.909	3.203	3.219	3.426	3.763	3.907	3.438	3.384	2.722	1.993	1.573	1.451	1.510	1.538	1.429	1.619	2.077	2.272	2.909	3.325	3.848	4.668	5.176	6.352	6.455	6.899	7.205	7.601	7.129	6.786	6.210	5.245	4.310	3.457	2.725	2.156	1.726
350.0	1508	1264	782.2	477.0	352.7	340.9	421.4	591.6	819.2	1087	1301	1403	1263	966.1	566.6	284.8	180.0	187.4	244.5	136.7	53.19	42.08	67.76	319.1	1468	3990	3717	982.4	14.82	3.172	2.537	2.272	2.110	2.283	2.605	2.493	2.457	2.488	2.284	2.353	2.486	2.786	3.017	3.178	3.490	3.533	2.995	3.054	2.386	1.802	1.373	1.410	1.465	1.450	1.439	1.483	1.973	2.023	2.787	3.064	3.602	4.182	4.805	5.338	5.733	6.137	6.053	6.500	6.415	5.922	5.585	4.638	4.051	3.190	2.546	1.960	1.529
355.0	1349	1124	674.3	428.5	338.1	329.6	411.2	530.5	744.1	944.7	1131	1203	1086	866.0	534.0	274.7	164.3	125.9	138.4	219.2	130.1	44.92	41.24	91.50	342.9	944.7	2725	5265	375.0	14.90	3.476	2.857	2.416	2.258	2.454	2.179	2.181	2.337	2.113	2.110	2.204	2.448	2.781	3.107	3.256	3.221	2.701	2.726	1.963	1.576	1.332	1.384	1.456	1.310	1.406	1.463	1.789	1.930	2.247	2.886	3.156	3.533	4.288	4.647	5.031	5.100	5.607	5.574	5.376	5.101	4.874	4.504	3.919	3.043	2.438	1.842	1.515
360.0	1247	987.0	598.4	394.9	314.6	313.5	387.0	504.3	684.2	859.7	1011	1066	976.1	786.7	494.2	264.3	159.4	111.1	97.23	161.6	206.5	69.35	39.44	43.81	95.38	226.0	726.4	3979	3215	313.0	6.943	3.551	2.515	2.628	2.327	2.338	1.961	2.134	1.943	1.975	1.874	2.222	2.384	2.804	2.750	2.955	2.586	2.539	1.928	1.490	1.213	1.333	1.410	1.447	1.481	1.456	1.682	2.106	2.210	2.630	2.848	3.376	3.831	4.214	4.505	4.843	5.316	4.718	5.127	4.456	4.402	4.289	3.862	2.907	2.178	1.630	1.431
365.0	1136	923.1	570.6	365.7	289.3	293.9	366.9	474.8	629.3	774.9	909.7	961.6	888.4	720.9	470.2	257.3	155.6	111.2	87.41	101.7	194.4	158.7	53.48	36.28	43.52	67.68	177.1	1186	4326	2946	46.80	5.377	3.153	2.801	2.207	2.034	2.004	1.663	1.794	1.992	1.740	2.091	2.180	2.429	2.551	2.730	2.268	2.202	1.756	1.377	1.189	1.140	1.200	1.316	1.461	1.394	1.593	1.930	2.071	2.506	2.605	3.051	3.578	3.837	4.315	4.585	4.757	4.520	4.660	4.352	3.914	3.736	3.180	2.730	2.014	1.668	1.421
370.0	1006	809.7	508.3	334.1	273.3	277.3	340.5	431.2	562.5	690.2	796.3	839.5	781.2	637.9	425.4	242.8	154.6	114.0	92.17	85.80	117.5	173.8	136.5	52.01	37.49	36.87	56.43	280.6	1287	3245	3671	960.1	14.57	3.542	2.724	2.209	2.023	1.802	1.853	1.909	1.802	1.908	2.191	2.418	2.298	2.388	2.110	2.107	1.554	1.252	1.082	1.205	1.227	1.231	1.445	1.242	1.548	1.688	1.957	2.344	2.518	2.682	3.050	3.469	3.894	3.898	3.940	3.881	4.036	4.070	3.543	3.303	2.965	2.519	1.923	1.528	1.410
375.0	920.1	709.8	454.9	308.6	258.4	265.9	316.1	385.6	490.9	591.9	686.5	720.2	668.4	552.8	382.9	228.9	155.1	116.4	97.94	90.25	91.03	108.4	172.1	125.1	49.61	34.54	33.24	79.31	299.5	768.7	2675	5199	335.6	14.79	3.320	2.547	2.196	1.894	1.839	1.870	1.670	1.780	1.963	2.135	2.165	2.328	1.809	1.785	1.403	1.194	0.990	1.210	1.137	1.080	1.337	1.150	1.543	1.733	1.652	2.150	2.293	2.450	2.732	3.013	2.998	3.369	3.296	3.589	3.383	3.494	3.260	2.930	2.668	2.278	1.778	1.415	1.286
380.0	797.0	665.0	423.5	293.7	245.0	253.3	292.4	362.3	441.8	527.9	610.9	631.7	592.8	499.2	352.9	216.1	151.2	122.1	102.6	94.89	88.78	88.73	128.2	173.6	86.95	40.31	31.82	37.12	82.04	183.5	711.3	3938	4284	274.7	7.171	2.782	2.215	1.888	1.771	1.990	1.877	1.946	1.737	2.025	1.933	1.920	1.667	1.512	1.296	1.088	0.949	1.029	1.152	1.007	1.209	1.132	1.345	1.575	1.809	2.033	2.173	2.245	2.517	2.597	2.901	2.978	3.103	3.282	3.248	3.074	2.801	2.692	2.520	2.091	1.642	1.438	1.334
385.0	752.5	588.1	397.7	271.1	231.1	244.6	273.3	334.7	406.4	479.7	537.2	566.0	536.2	452.3	328.5	208.4	150.8	124.0	109.5	100.3	94.51	85.95	93.98	149.8	142.8	56.52	35.48	30.32	36.02	54.26	170.5	1154	4270	2584	39.53	3.919	2.728	2.248	1.908	2.034	1.810	1.844	1.672	1.885	1.873	1.813	1.513	1.583	1.174	1.039	0.902	0.952	0.987	0.989	1.270	1.086	1.273	1.288	1.628	1.787	2.118	2.048	2.391	2.479	2.647	2.717	2.715	2.848	2.866	2.744	2.537	2.330	2.240	2.117	1.633	1.485	1.242
390.0	682.0	540.5	353.6	257.2	225.0	237.3	260.8	299.6	356.7	416.5	464.1	487.3	459.5	400.1	296.0	197.9	149.3	128.6	115.2	107.0	100.4	92.50	87.23	101.2	137.8	120.1	51.54	34.44	30.11	29.79	51.41	268.9	1211	2643	2902	724.7	13.07	2.790	2.100	2.032	1.637	1.774	1.646	1.715	1.739	1.679	1.495	1.401	1.192	0.981	0.837	1.066	1.049	1.001	1.102	1.084	1.290	1.220	1.582	1.652	1.770	1.843	1.950	2.322	2.179	2.302	2.240	2.424	2.407	2.306	2.087	2.089	2.048	1.848	1.585	1.481	1.315
395.0	572.7	497.8	321.6	229.0	221.7	223.4	240.2	269.7	316.5	364.8	395.0	420.4	394.4	349.7	270.2	186.1	146.3	129.1	118.2	112.5	105.6	99.45	90.91	87.50	94.50	131.2	112.6	49.55	33.31	27.63	28.72	73.12	279.7	617.3	1982	3237	280.4	15.95	2.756	2.421	1.720	1.694	1.768	1.580	1.460	1.502	1.522	1.366	1.166	1.036	0.837	0.878	1.080	0.994	1.217	1.004	1.229	1.290	1.513	1.457	1.642	1.588	1.613	1.831	1.825	1.937	1.798	2.063	2.200	1.980	1.903	2.032	1.753	1.777	1.505	1.394	1.452
400.0	522.9	421.8	288.7	219.8	213.1	216.4	238.2	252.8	293.9	329.5	352.4	376.1	356.4	311.1	254.7	183.1	146.8	130.1	121.9	115.6	110.7	103.6	94.59	88.34	82.43	99.06	138.5	86.48	41.43	31.75	26.90	32.24	73.96	147.2	515.1	2152	3076	254.4	8.782	2.809	1.930	1.770	1.609	1.585	1.485	1.437	1.434	1.243	1.145	1.014	0.897	0.946	1.113	0.970	1.101	1.006	1.191	1.285	1.423	1.520	1.406	1.518	1.829	1.711	1.855	1.696	1.664	1.943	1.859	1.897	1.875	1.879	1.776	1.623	1.259	1.329	1.542
405.0	474.5	383.1	281.4	222.7	216.2	216.6	226.4	245.6	271.6	298.6	331.5	342.8	330.0	292.2	238.4	178.2	144.2	129.8	124.2	117.7	112.1	105.1	97.85	90.17	82.14	80.51	114.3	124.3	57.08	38.56	30.13	25.79	30.66	44.12	124.4	589.4	2660	2219	200.1	4.821	2.291	1.754	1.626	1.528	1.514	1.312	1.297	1.292	1.068	0.982	0.880	0.926	0.969	0.929	1.072	1.026	1.273	1.280	1.318	1.451	1.355	1.373	1.609	1.515	1.756	1.572	1.491	1.615	1.841	1.609	1.635	1.612	1.374	1.547	1.243	1.279	1.246
410.0	420.7	367.1	264.9	203.5	207.0	209.6	216.9	235.0	250.3	274.0	294.4	304.2	297.3	261.1	224.4	169.6	141.8	128.0	121.1	118.0	112.7	108.1	101.0	92.79	85.08	77.75	82.00	109.1	104.8	59.15	35.29	27.74	23.56	23.21	38.22	140.2	719.1	1859	2421	808.0	13.05	2.313	1.860	1.624	1.499	1.313	1.213	1.193	1.056	0.929	0.832	0.886	1.077	0.917	1.051	0.975	1.125	1.105	1.232	1.305	1.329	1.297	1.355	1.347	1.580	1.412	1.422	1.604	1.547	1.512	1.539	1.610	1.426	1.446	1.304	1.225	1.203
415.0	360.1	327.4	248.2	194.4	190.0	196.8	201.7	217.8	232.7	246.2	260.9	271.7	262.5	234.0	205.8	159.9	135.4	122.8	117.4	114.6	110.0	105.3	100.2	92.26	84.84	75.95	73.21	76.53	101.9	100.2	48.70	31.96	24.77	20.15	21.33	40.72	167.7	428.4	1348	2920	262.1	17.16	2.131	1.702	1.527	1.412	1.241	1.185	1.025	0.886	0.792	0.919	0.975	0.974	1.058	0.961	0.938	1.124	1.148	1.202	1.147	1.239	1.311	1.410	1.366	1.268	1.428	1.424	1.375	1.317	1.461	1.435	1.282	1.397	1.180	1.219	1.159
