Sample:	'1
File name:	t2025022713Ò»²ã³Ø2  8Íò±¶.FD3
Run date:	'10:25:44, 02/28/2025
Operator:	Administrator
Comment:	'

Instrument
Model:	F-2700 FL Spectrophotometer
Serial number:	23B8-004
ROM Version:	4J14000 07

Instrument parameters
Measurement type:	3-D scan
Data mode:	Fluorescence
EX  Start WL:	220.0 nm
EX  End WL:	600.0 nm
EX Sampling interval:	5.0 nm
EM  Start WL:	230.0 nm
EM  End WL:	650.0 nm
EM Sampling interval:	5.0 nm
Scan speed:	12000 nm/min
EX Slit:	5.0 nm
EM Slit:	5.0 nm
PMT Voltage:	700 V
Response:	Auto 
Corrected spectra:	Off
Contour interval:	50.000

Peak integration
Integration method:	Rectangular
Sensitivity:	1
Threshold:	1.000

Peaks
No.	ApexEX/EM(nm)	Height(Data)
1	225.0/490.0	182.0
2	230.0/500.0	162.6
3	235.0/255.0	398.9
4	235.0/515.0	132.7
5	240.0/265.0	487.3
6	240.0/525.0	125.4
7	245.0/270.0	500.7
8	245.0/540.0	119.0
9	250.0/275.0	689.7
10	250.0/550.0	114.3
11	255.0/565.0	159.0
12	265.0/585.0	342.2
13	270.0/300.0	4513
14	270.0/595.0	338.4
15	295.0/330.0	323.4
16	300.0/335.0	299.5
17	305.0/345.0	256.6
18	310.0/350.0	182.4
19	315.0/355.0	181.7
20	320.0/360.0	167.4
21	325.0/370.0	129.8
22	330.0/375.0	119.9
23	335.0/380.0	134.1
24	340.0/385.0	107.7
25	350.0/400.0	90.52
26	355.0/405.0	82.11
27	360.0/410.0	60.09
28	365.0/420.0	62.56
29	370.0/425.0	59.71
30	375.0/430.0	45.39
31	380.0/440.0	41.70
32	385.0/300.0	11.27
33	385.0/445.0	39.08
34	390.0/450.0	29.69
35	395.0/460.0	25.95
36	400.0/465.0	24.44
37	405.0/470.0	18.51
38	410.0/475.0	16.62
39	415.0/485.0	14.70
40	420.0/490.0	12.14
41	425.0/500.0	11.24
42	430.0/505.0	10.35
43	435.0/510.0	8.172
44	440.0/300.0	7.418
45	440.0/520.0	7.821
46	445.0/525.0	6.890
47	455.0/540.0	4.300
48	460.0/545.0	4.088
49	470.0/560.0	2.638
50	475.0/260.0	2.037
51	480.0/265.0	2.177
52	480.0/575.0	1.624
53	485.0/585.0	1.517
54	495.0/270.0	2.237
55	510.0/280.0	5.196
56	545.0/300.0	20.95
57	550.0/305.0	19.24
58	585.0/325.0	3.794

Data points
	220.0	225.0	230.0	235.0	240.0	245.0	250.0	255.0	260.0	265.0	270.0	275.0	280.0	285.0	290.0	295.0	300.0	305.0	310.0	315.0	320.0	325.0	330.0	335.0	340.0	345.0	350.0	355.0	360.0	365.0	370.0	375.0	380.0	385.0	390.0	395.0	400.0	405.0	410.0	415.0	420.0	425.0	430.0	435.0	440.0	445.0	450.0	455.0	460.0	465.0	470.0	475.0	480.0	485.0	490.0	495.0	500.0	505.0	510.0	515.0	520.0	525.0	530.0	535.0	540.0	545.0	550.0	555.0	560.0	565.0	570.0	575.0	580.0	585.0	590.0	595.0	600.0
230.0	87.98	1151	2631	681.0	23.26	4.182	3.056	2.618	2.404	2.467	2.599	2.014	1.503	0.970	0.808	0.662	0.594	0.579	0.489	0.487	0.448	0.373	0.300	0.280	0.292	0.308	0.340	0.233	0.270	0.261	0.220	0.224	0.244	0.210	0.192	0.184	0.225	0.190	0.203	0.227	0.421	0.760	0.742	0.386	0.191	0.191	1.208	4.886	8.057	5.375	1.687	0.305	0.135	0.151	0.120	0.125	0.142	0.119	0.100	0.124	0.115	0.118	0.130	0.117	0.126	0.125	0.111	0.123	0.114	0.140	0.116	0.117	0.122	0.112	0.100	0.129	0.123
235.0	231.9	328.2	1561	2196	479.1	29.92	4.452	3.018	2.793	1.905	3.241	2.200	1.693	1.073	0.715	0.747	0.621	0.565	0.429	0.365	0.450	0.394	0.302	0.299	0.304	0.300	0.320	0.206	0.282	0.227	0.212	0.204	0.219	0.212	0.215	0.214	0.182	0.194	0.167	0.191	0.259	0.348	0.642	0.796	0.593	0.379	0.431	1.320	3.208	5.321	6.865	6.114	2.461	0.485	0.131	0.127	0.140	0.125	0.135	0.156	0.104	0.102	0.102	0.136	0.112	0.115	0.109	0.143	0.086	0.167	0.131	0.104	0.136	0.142	0.136	0.153	0.148
240.0	327.1	231.9	474.3	1850	2027	346.8	17.20	3.933	3.260	2.751	3.251	2.502	1.497	1.152	0.807	0.988	0.630	0.542	0.404	0.352	0.440	0.372	0.325	0.376	0.308	0.305	0.397	0.217	0.244	0.292	0.227	0.194	0.233	0.192	0.244	0.171	0.225	0.216	0.165	0.186	0.179	0.189	0.351	0.590	0.818	0.858	0.484	0.474	0.873	1.618	4.088	8.662	9.556	6.344	1.654	0.242	0.131	0.140	0.139	0.139	0.104	0.127	0.119	0.159	0.120	0.142	0.133	0.121	0.122	0.132	0.119	0.103	0.125	0.133	0.149	0.115	0.128
245.0	219.8	337.0	194.1	636.0	2305	1922	255.4	6.939	3.963	3.160	3.484	2.281	1.692	0.932	0.931	0.960	0.561	0.658	0.397	0.414	0.426	0.451	0.327	0.353	0.321	0.349	0.347	0.243	0.271	0.295	0.308	0.232	0.233	0.238	0.237	0.187	0.182	0.192	0.189	0.196	0.140	0.199	0.254	0.298	0.489	0.836	1.056	0.757	0.478	0.496	1.104	3.006	7.441	12.06	10.01	5.181	1.075	0.184	0.158	0.139	0.156	0.124	0.119	0.125	0.142	0.176	0.152	0.104	0.133	0.127	0.135	0.123	0.146	0.138	0.109	0.119	0.117
250.0	77.51	238.5	318.3	252.4	760.7	2037	2906	709.5	34.00	4.723	4.147	3.045	2.002	1.361	1.316	0.966	0.764	0.763	0.552	0.506	0.522	0.398	0.370	0.440	0.321	0.322	0.331	0.285	0.314	0.263	0.239	0.173	0.270	0.243	0.213	0.212	0.187	0.196	0.206	0.209	0.182	0.167	0.185	0.207	0.236	0.346	0.572	0.925	1.035	0.909	0.636	0.867	1.950	4.112	6.888	10.80	12.03	9.553	4.519	1.110	0.219	0.158	0.154	0.116	0.144	0.167	0.151	0.118	0.128	0.131	0.144	0.118	0.111	0.150	0.128	0.121	0.150
255.0	39.21	69.23	229.0	398.9	275.4	540.3	2507	2737	280.1	30.94	5.669	4.155	2.501	1.936	1.417	1.009	0.878	0.968	0.644	0.546	0.541	0.454	0.416	0.357	0.340	0.427	0.372	0.320	0.357	0.330	0.279	0.272	0.279	0.269	0.231	0.196	0.241	0.170	0.215	0.237	0.230	0.175	0.189	0.227	0.214	0.231	0.256	0.351	0.560	1.056	1.303	1.230	0.906	1.114	1.788	2.795	5.177	12.01	18.88	16.87	7.193	1.089	0.214	0.196	0.165	0.179	0.249	0.120	0.179	0.138	0.127	0.107	0.095	0.170	0.139	0.103	0.145
260.0	28.95	31.19	88.98	356.3	366.2	193.0	800.1	2958	3781	227.2	14.04	4.830	3.848	2.152	1.522	1.085	1.190	0.898	0.689	0.506	0.700	0.462	0.428	0.403	0.287	0.366	0.371	0.405	0.382	0.320	0.295	0.245	0.279	0.275	0.254	0.192	0.218	0.227	0.191	0.222	0.257	0.182	0.205	0.213	0.208	0.190	0.206	0.207	0.250	0.434	0.917	2.037	1.844	0.958	0.715	0.905	1.437	3.462	9.402	20.21	25.06	15.13	4.815	0.534	0.202	0.152	0.217	0.152	0.191	0.159	0.148	0.141	0.130	0.139	0.122	0.127	0.180
265.0	26.06	21.72	30.89	171.0	487.3	286.6	247.5	1096	4739	1910	163.3	7.599	4.049	2.689	1.814	1.151	1.198	1.109	0.875	0.721	0.781	0.547	0.514	0.468	0.393	0.358	0.493	0.383	0.255	0.300	0.284	0.306	0.299	0.324	0.307	0.280	0.234	0.218	0.215	0.174	0.201	0.260	0.215	0.226	0.277	0.208	0.170	0.171	0.190	0.216	0.408	1.099	2.177	2.176	1.269	0.653	0.690	1.144	2.457	6.520	15.59	25.28	25.36	12.13	2.408	0.279	0.215	0.164	0.219	0.127	0.150	0.158	0.147	0.155	0.120	0.141	0.173
270.0	40.28	25.48	24.28	66.84	268.1	500.7	327.1	329.8	1626	3362	3734	627.0	25.84	4.126	2.374	1.718	1.436	1.205	0.959	0.754	0.927	0.635	0.579	0.439	0.486	0.403	0.440	0.426	0.337	0.423	0.293	0.349	0.333	0.345	0.338	0.334	0.306	0.281	0.293	0.234	0.250	0.267	0.247	0.239	0.267	0.259	0.218	0.198	0.168	0.209	0.215	0.440	0.834	1.441	2.089	2.237	1.936	1.086	1.006	1.795	3.975	8.014	14.54	19.58	22.63	18.00	9.392	2.294	0.351	0.175	0.188	0.158	0.157	0.161	0.132	0.152	0.160
275.0	211.3	123.8	70.35	68.11	142.0	322.0	689.7	364.0	535.5	1049	3759	5541	800.1	20.30	3.667	2.528	1.986	1.503	1.048	0.869	0.983	0.642	0.562	0.425	0.534	0.453	0.452	0.512	0.444	0.444	0.360	0.570	0.649	0.751	0.824	0.723	0.615	0.592	0.562	0.529	0.489	0.563	0.559	0.545	0.622	0.474	0.447	0.345	0.288	0.343	0.248	0.345	0.520	0.779	1.123	1.749	3.057	3.640	2.521	1.430	1.687	2.730	4.118	5.518	8.563	17.63	30.81	27.30	13.95	2.373	0.366	0.238	0.178	0.229	0.199	0.202	0.203
280.0	696.1	420.7	263.3	179.3	173.9	263.6	628.3	927.7	694.5	900.5	1807	5334	4912	129.0	9.147	3.834	2.927	2.241	1.302	0.993	1.249	0.762	0.608	0.578	0.661	0.616	0.522	0.451	0.432	0.441	0.550	1.003	1.461	2.124	2.265	1.587	1.410	1.247	1.203	1.324	1.345	1.365	1.496	1.589	1.550	1.288	0.847	0.923	0.688	0.647	0.593	0.698	0.661	0.776	0.862	1.226	1.918	3.396	5.196	4.333	3.056	3.194	3.616	4.557	5.621	7.563	14.92	26.02	36.35	24.20	9.649	1.272	0.313	0.300	0.214	0.249	0.249
285.0	1519	926.1	568.1	411.8	305.5	322.5	560.1	1218	1509	1565	1838	2836	6117	3301	83.59	5.708	3.670	2.548	1.685	1.217	1.410	0.906	0.760	0.645	0.674	0.640	0.544	0.525	0.519	0.441	0.760	1.609	3.179	4.615	4.413	3.455	2.571	2.696	2.305	2.431	2.659	2.699	2.815	3.021	2.961	2.585	2.004	1.981	1.500	1.326	1.206	1.368	1.163	0.999	1.183	1.567	1.924	2.748	4.472	6.646	7.592	6.744	6.514	7.282	8.270	8.260	9.432	12.12	19.88	30.21	33.24	21.17	5.370	0.724	0.322	0.355	0.343
290.0	2649	1704	1086	751.9	499.8	448.8	680.0	1284	2327	2942	2895	2605	2648	4075	2564	346.9	12.27	3.935	2.458	1.850	1.773	1.114	0.992	0.868	0.736	0.744	0.624	0.741	0.543	0.610	0.895	2.508	5.524	7.836	7.580	5.794	4.914	4.370	4.029	4.255	4.480	4.643	5.017	5.206	5.186	4.591	3.870	3.379	2.783	2.428	2.164	2.276	1.929	1.694	1.660	1.925	2.532	3.182	4.477	6.426	8.978	11.72	13.23	13.62	13.58	12.58	12.19	12.34	11.32	11.30	16.01	23.32	25.43	25.60	12.75	3.956	0.751
295.0	3422	2359	1518	1056	653.1	544.4	795.1	1404	2457	3807	4035	3054	1632	1258	2611	3989	90.21	9.233	3.237	2.656	2.404	1.173	1.164	1.059	0.967	0.780	0.854	0.821	0.575	0.636	1.237	3.238	6.902	10.61	9.700	7.945	6.605	5.802	5.361	5.533	5.475	6.210	6.312	6.848	6.755	6.277	5.024	4.483	3.999	3.260	2.987	2.983	2.542	2.146	1.870	2.236	2.878	3.728	4.922	6.906	8.842	11.93	14.77	18.64	20.55	17.69	15.50	14.48	11.34	7.319	6.164	6.799	7.875	16.14	25.12	29.99	17.86
300.0	3667	2586	1695	1161	727.4	557.4	806.2	1444	2433	3658	4513	3387	1486	594.7	848.2	3631	3605	73.03	4.918	2.612	2.817	1.488	1.280	1.055	0.930	0.761	0.938	0.810	0.652	0.677	1.132	3.482	7.810	11.27	10.80	8.973	7.014	6.761	5.728	5.477	5.948	6.651	6.797	7.264	7.418	6.873	5.439	5.226	4.421	3.698	3.344	3.435	2.782	2.274	2.083	2.254	3.022	3.892	5.001	6.833	8.900	11.68	14.08	17.59	20.88	20.95	18.43	15.33	11.28	6.658	4.205	3.420	2.990	4.850	8.500	19.06	30.81
305.0	3702	2541	1678	1146	710.8	539.4	762.0	1362	2296	3323	4119	3656	1501	469.1	299.4	1225	4706	3061	50.30	3.663	3.366	2.039	1.595	1.170	1.119	1.002	0.945	0.773	0.679	0.664	1.108	3.090	7.391	10.73	10.38	8.582	6.803	6.648	5.574	5.700	5.796	6.425	7.028	7.139	6.940	6.537	5.391	4.844	4.476	3.652	3.293	3.506	2.913	2.377	1.936	2.109	2.938	3.854	4.878	6.555	8.556	11.18	13.26	15.69	18.30	18.82	19.24	17.24	11.89	6.487	3.942	2.912	2.223	2.242	2.733	5.328	12.10
310.0	3173	2223	1511	1017	622.9	459.7	640.1	1136	1919	2726	3229	3048	1714	523.5	186.7	323.3	1519	3619	1863	241.0	12.62	2.603	1.822	1.450	1.217	1.141	1.034	0.851	0.791	0.630	1.062	2.828	6.281	9.059	9.199	8.129	6.444	5.757	5.014	4.898	5.087	5.622	5.597	5.958	6.027	5.548	4.625	4.374	4.016	3.325	2.876	3.110	2.520	2.071	1.751	1.882	2.462	3.049	4.179	5.541	7.147	9.154	10.97	13.29	14.59	14.70	14.27	14.33	11.89	8.187	5.065	2.939	1.974	1.537	1.416	1.894	3.296
315.0	2497	1776	1238	832.2	506.6	364.5	493.0	852.7	1443	2084	2393	2177	1411	815.1	206.2	118.5	365.4	885.6	1886	3016	396.5	6.221	2.363	1.913	1.327	1.134	1.154	0.942	0.807	0.876	0.853	2.399	5.089	7.278	7.631	6.448	5.355	4.924	4.129	3.861	4.196	4.514	4.519	4.717	4.875	4.871	3.915	3.574	3.044	2.778	2.411	2.666	1.971	1.647	1.558	1.626	1.987	2.427	3.225	4.374	5.542	7.013	8.299	10.17	10.90	11.07	10.58	10.29	7.894	6.485	5.996	5.069	2.747	1.516	1.096	1.086	1.303
320.0	2003	1445	1021	672.2	416.5	292.5	398.7	674.5	1140	1625	1871	1681	998.3	790.1	396.5	82.62	105.7	214.6	548.1	2712	3598	55.89	3.643	2.178	1.613	1.358	1.107	1.126	0.973	0.743	0.882	1.985	4.010	6.262	6.074	5.215	4.606	4.251	3.465	3.285	3.415	3.565	3.945	4.108	3.865	3.803	3.322	3.014	2.662	2.251	1.948	2.294	1.699	1.383	1.294	1.259	1.570	1.898	2.460	3.465	4.175	5.476	6.565	7.918	8.792	8.763	8.477	7.815	6.400	4.679	3.817	4.610	4.575	2.872	1.259	0.858	0.693
325.0	1650	1206	848.4	561.1	341.9	235.0	310.4	521.1	872.7	1268	1474	1316	757.2	511.3	538.6	115.1	48.54	62.85	136.0	882.4	4326	2019	42.83	3.044	2.061	1.545	1.240	1.200	0.865	0.717	0.946	1.591	3.174	4.806	4.951	4.574	4.022	3.605	2.972	2.769	2.797	2.971	3.167	3.271	3.112	3.164	2.670	2.652	2.347	1.906	1.794	1.971	1.367	1.168	1.006	1.057	1.155	1.614	1.995	2.615	3.453	4.225	5.426	6.091	7.075	6.717	6.616	6.273	5.133	3.422	2.930	2.751	3.397	3.794	3.051	1.391	0.734
330.0	1235	924.3	674.8	438.3	271.7	183.7	227.3	375.9	631.0	909.3	1062	959.3	558.7	312.5	316.3	323.4	130.2	32.51	41.91	209.8	1320	2199	1543	208.3	8.939	2.121	1.694	1.310	1.020	0.828	0.827	1.430	2.529	3.645	3.988	3.533	3.166	2.742	2.293	2.109	2.120	2.328	2.430	2.517	2.327	2.382	2.083	2.021	1.781	1.549	1.396	1.448	1.128	0.903	0.789	0.874	0.986	1.267	1.524	1.938	2.496	3.178	3.768	4.372	5.001	4.926	4.785	4.629	3.723	2.823	2.074	1.830	1.833	1.910	2.360	2.415	2.146
335.0	948.2	718.5	526.5	326.4	213.3	136.5	168.3	264.6	438.6	627.9	740.4	684.9	417.1	223.7	150.9	195.2	299.5	75.93	21.80	56.91	304.6	534.9	1488	2527	299.1	7.720	2.536	1.687	1.215	1.028	0.944	1.272	1.928	2.771	2.946	2.758	2.328	2.203	1.912	1.517	1.705	1.738	1.766	1.724	1.732	1.884	1.613	1.685	1.499	1.298	1.056	1.104	0.902	0.773	0.608	0.622	0.764	0.911	1.094	1.403	1.719	2.136	2.479	3.160	3.595	3.379	3.481	3.287	2.820	2.213	1.665	1.543	1.165	1.124	1.157	1.182	2.028
340.0	737.3	585.8	428.1	272.3	168.7	115.6	132.3	203.8	329.8	459.6	556.0	516.6	332.8	182.2	100.8	90.54	235.7	227.5	39.53	21.98	78.78	128.5	420.9	2067	1997	51.15	4.411	2.180	1.541	1.117	0.949	1.248	1.626	2.355	2.434	2.216	2.057	1.802	1.503	1.406	1.318	1.416	1.406	1.467	1.505	1.611	1.369	1.406	1.253	1.092	0.868	0.963	0.799	0.677	0.539	0.517	0.638	0.737	0.866	1.085	1.301	1.744	1.942	2.389	2.635	2.535	2.789	2.541	2.258	1.799	1.332	1.265	0.961	0.863	0.751	0.723	0.908
345.0	609.9	491.7	361.6	228.2	156.3	94.82	108.6	161.5	248.9	357.2	427.1	401.6	265.7	157.1	83.02	52.91	103.8	256.6	81.23	20.59	26.65	37.44	103.3	634.3	2123	1931	41.52	3.041	1.796	1.225	1.116	1.108	1.603	1.969	2.011	2.077	1.727	1.633	1.439	1.156	1.174	1.202	1.121	1.144	1.274	1.396	1.164	1.126	1.109	0.796	0.740	0.812	0.659	0.632	0.500	0.488	0.478	0.653	0.782	0.819	1.063	1.392	1.540	1.912	2.067	2.198	2.042	2.066	1.807	1.487	1.099	1.129	0.882	0.675	0.630	0.517	0.569
350.0	495.5	385.4	289.7	192.3	119.7	76.90	85.27	120.1	182.0	250.1	305.7	292.2	200.0	125.9	66.87	39.84	43.59	112.9	182.4	105.2	23.94	16.38	30.83	150.0	631.5	1771	2267	205.4	11.45	1.621	1.178	1.109	1.396	1.630	1.760	1.513	1.438	1.199	1.212	0.878	0.970	0.927	0.925	0.985	1.031	1.057	0.920	0.934	0.884	0.700	0.649	0.697	0.572	0.511	0.398	0.407	0.452	0.513	0.656	0.715	0.803	1.031	1.176	1.457	1.499	1.608	1.575	1.542	1.420	1.165	0.898	0.848	0.684	0.570	0.508	0.439	0.456
355.0	392.2	310.2	232.7	160.4	98.14	63.16	66.56	84.69	127.4	178.8	218.3	212.4	152.2	99.85	58.43	35.05	27.64	39.88	83.55	181.7	67.02	16.13	14.69	40.79	146.9	417.5	1592	2799	330.6	9.912	1.602	1.153	1.335	1.455	1.483	1.363	1.225	0.971	0.972	0.747	0.816	0.746	0.834	0.806	0.855	0.752	0.745	0.779	0.701	0.649	0.531	0.608	0.573	0.445	0.412	0.357	0.434	0.418	0.565	0.521	0.680	0.674	0.829	1.127	1.145	1.208	1.209	1.087	1.087	0.875	0.764	0.734	0.607	0.558	0.488	0.425	0.392
360.0	309.5	272.6	193.0	137.6	86.23	58.35	59.24	72.38	101.2	135.3	171.3	170.6	124.1	84.88	52.11	32.78	24.67	23.87	34.77	114.3	167.4	47.88	12.03	16.11	39.01	99.88	416.5	1977	2503	253.9	4.173	1.388	1.429	1.329	1.315	1.293	0.957	1.060	0.844	0.750	0.827	0.700	0.741	0.668	0.753	0.682	0.702	0.718	0.636	0.600	0.478	0.519	0.474	0.392	0.351	0.321	0.354	0.439	0.415	0.562	0.563	0.672	0.811	0.888	0.861	0.964	0.951	0.840	0.934	0.762	0.666	0.593	0.580	0.543	0.401	0.447	0.382
365.0	295.8	245.4	179.2	116.2	77.35	57.26	55.53	60.69	84.12	110.3	138.4	139.1	105.3	75.74	48.48	30.84	24.82	21.11	22.46	48.12	148.4	129.2	24.13	10.68	14.86	28.62	99.87	555.1	2300	1886	43.34	2.341	1.647	1.454	1.258	1.311	0.955	1.011	0.862	0.756	0.786	0.625	0.681	0.690	0.637	0.646	0.638	0.634	0.565	0.479	0.442	0.453	0.396	0.392	0.326	0.374	0.287	0.413	0.419	0.455	0.560	0.559	0.683	0.736	0.777	0.899	0.685	0.826	0.721	0.726	0.678	0.543	0.533	0.489	0.407	0.420	0.397
370.0	246.7	218.4	163.7	107.0	71.30	54.88	50.41	52.34	68.89	88.33	107.3	109.5	87.43	67.13	46.40	32.93	25.96	23.21	22.03	26.86	64.16	129.8	94.17	25.87	10.11	12.76	27.87	130.0	641.9	1514	1566	183.7	11.74	1.469	1.374	1.236	1.030	0.969	0.812	0.696	0.671	0.597	0.682	0.599	0.610	0.602	0.567	0.543	0.510	0.427	0.384	0.439	0.384	0.381	0.368	0.299	0.304	0.362	0.360	0.400	0.441	0.473	0.552	0.645	0.630	0.680	0.630	0.671	0.652	0.611	0.602	0.513	0.529	0.468	0.387	0.369	0.428
375.0	215.5	191.1	143.1	102.0	70.41	55.17	50.92	46.40	56.56	69.51	83.11	88.66	71.15	57.32	42.91	34.01	29.04	26.79	24.20	23.89	30.91	56.06	119.9	96.62	19.13	8.982	11.60	33.97	147.4	351.4	916.3	1612	290.1	11.66	1.698	1.364	1.032	1.016	0.745	0.738	0.668	0.538	0.602	0.689	0.585	0.555	0.572	0.527	0.523	0.433	0.374	0.386	0.400	0.372	0.337	0.302	0.295	0.427	0.346	0.318	0.396	0.454	0.531	0.605	0.559	0.532	0.595	0.575	0.568	0.521	0.601	0.502	0.501	0.461	0.334	0.341	0.404
380.0	202.7	170.0	132.6	97.04	71.89	52.39	47.05	43.88	49.66	60.14	69.63	74.60	63.72	53.24	41.92	35.15	31.94	29.81	25.63	24.53	24.48	28.37	68.63	134.1	49.31	11.09	8.086	11.97	37.27	83.10	233.0	1049	1547	224.6	4.609	1.389	1.077	1.192	0.849	0.797	0.662	0.580	0.596	0.623	0.522	0.495	0.521	0.433	0.570	0.437	0.355	0.367	0.374	0.329	0.382	0.337	0.408	0.351	0.343	0.345	0.351	0.412	0.408	0.435	0.458	0.446	0.495	0.592	0.532	0.494	0.465	0.456	0.510	0.384	0.375	0.422	0.404
385.0	189.1	147.8	122.5	98.78	76.34	53.42	44.43	42.42	44.17	52.11	61.99	65.50	59.91	52.11	41.20	34.10	32.04	31.46	27.44	25.14	23.35	22.09	32.88	96.63	107.7	28.58	7.181	6.755	12.46	22.31	56.14	284.2	1227	1290	36.87	2.371	1.281	1.208	0.834	0.833	0.675	0.574	0.549	0.564	0.551	0.435	0.518	0.481	0.505	0.373	0.357	0.394	0.420	0.387	0.378	0.354	0.355	0.314	0.343	0.296	0.367	0.330	0.355	0.355	0.421	0.421	0.482	0.392	0.517	0.432	0.481	0.413	0.507	0.466	0.373	0.393	0.420
390.0	182.3	145.6	118.5	90.36	73.15	53.47	45.06	39.67	39.65	45.94	52.05	56.89	50.72	45.97	38.77	34.65	32.94	32.64	30.05	27.08	23.39	21.40	21.39	39.97	87.75	75.36	25.98	6.269	6.239	8.261	15.67	66.98	326.5	892.6	1079	406.7	10.79	1.470	0.951	0.781	0.759	0.645	0.614	0.640	0.522	0.430	0.446	0.419	0.431	0.404	0.335	0.415	0.384	0.378	0.328	0.367	0.357	0.298	0.296	0.327	0.330	0.294	0.374	0.353	0.402	0.352	0.476	0.444	0.465	0.396	0.420	0.413	0.492	0.470	0.465	0.433	0.457
395.0	167.5	144.5	116.6	89.54	67.52	54.39	42.91	36.89	35.85	38.65	45.01	47.18	45.07	41.54	37.02	34.90	34.77	32.36	31.40	28.15	25.04	20.57	18.93	20.27	34.32	76.03	77.07	18.04	5.074	4.950	6.741	17.68	75.43	205.9	562.2	1380	252.1	14.72	1.105	0.780	0.735	0.565	0.620	0.647	0.518	0.445	0.491	0.446	0.419	0.380	0.387	0.376	0.386	0.406	0.346	0.316	0.288	0.373	0.315	0.313	0.329	0.236	0.338	0.334	0.369	0.390	0.432	0.413	0.419	0.399	0.405	0.391	0.419	0.389	0.407	0.539	0.538
400.0	156.3	137.0	105.7	84.32	69.57	50.09	42.69	32.94	33.33	36.14	42.08	44.02	42.33	39.07	35.08	34.71	34.39	32.75	30.98	28.43	24.64	21.26	17.92	15.28	17.11	38.92	90.52	46.77	7.864	3.942	4.321	6.573	19.26	48.97	139.7	796.4	1143	230.8	4.667	0.971	0.719	0.695	0.646	0.631	0.503	0.575	0.435	0.420	0.412	0.401	0.341	0.405	0.368	0.319	0.311	0.313	0.295	0.320	0.293	0.289	0.267	0.247	0.282	0.295	0.358	0.305	0.443	0.390	0.300	0.318	0.371	0.347	0.419	0.336	0.341	0.464	0.487
405.0	159.1	114.2	107.5	82.21	70.67	48.70	39.21	33.61	32.21	33.33	39.77	39.73	40.22	38.33	34.22	34.49	32.81	32.54	30.85	28.50	24.56	20.79	17.18	14.03	12.68	18.12	57.41	82.11	25.92	4.550	3.628	3.890	6.887	13.30	34.01	210.1	842.9	1450	33.29	1.756	0.952	0.688	0.659	0.698	0.518	0.541	0.456	0.444	0.441	0.404	0.336	0.355	0.321	0.307	0.311	0.351	0.279	0.337	0.351	0.284	0.260	0.238	0.251	0.314	0.329	0.289	0.371	0.315	0.365	0.317	0.410	0.377	0.423	0.325	0.414	0.365	0.408
410.0	152.4	118.6	103.8	80.39	62.73	46.95	36.31	31.36	28.76	29.26	34.14	36.12	34.57	34.54	33.50	31.67	31.24	30.69	28.76	26.88	24.35	20.22	16.45	13.26	10.68	10.97	22.50	55.99	60.09	22.68	4.350	2.873	3.717	5.325	9.692	49.18	220.0	955.2	891.6	141.4	9.700	0.860	0.724	0.643	0.517	0.546	0.453	0.446	0.428	0.374	0.384	0.373	0.373	0.294	0.310	0.316	0.305	0.277	0.280	0.299	0.263	0.262	0.272	0.316	0.314	0.308	0.322	0.337	0.320	0.301	0.354	0.352	0.407	0.348	0.414	0.413	0.392
