Sample:	'1
File name:	F2025070401Áù·áÏû·À³Ø.FD3
Run date:	'09:11:14, 07/09/2025
Operator:	Administrator
Comment:	'

Instrument
Model:	F-2700 FL Spectrophotometer
Serial number:	23B8-004
ROM Version:	4J14000 07

Instrument parameters
Measurement type:	3-D scan
Data mode:	Fluorescence
EX  Start WL:	220.0 nm
EX  End WL:	600.0 nm
EX Sampling interval:	5.0 nm
EM  Start WL:	230.0 nm
EM  End WL:	650.0 nm
EM Sampling interval:	5.0 nm
Scan speed:	12000 nm/min
EX Slit:	5.0 nm
EM Slit:	5.0 nm
PMT Voltage:	700 V
Response:	Auto 
Corrected spectra:	Off
Contour interval:	50.000

Peak integration
Integration method:	Rectangular
Sensitivity:	1
Threshold:	1.000

Peaks
No.	ApexEX/EM(nm)	Height(Data)
1	225.0/305.0	643.7
2	225.0/575.0	57.12
3	225.0/595.0	58.94
4	225.0/635.0	33.73
5	230.0/345.0	1118
6	230.0/505.0	264.6
7	235.0/515.0	230.6
8	240.0/265.0	422.1
9	240.0/525.0	205.3
10	245.0/270.0	417.2
11	245.0/540.0	177.9
12	245.0/640.0	15.94
13	250.0/275.0	543.7
14	250.0/550.0	143.6
15	255.0/285.0	632.8
16	255.0/565.0	127.9
17	260.0/290.0	642.5
18	260.0/375.0	685.4
19	260.0/575.0	119.6
20	265.0/295.0	845.9
21	265.0/380.0	689.7
22	265.0/590.0	103.1
23	270.0/300.0	1102
24	270.0/375.0	687.5
25	270.0/600.0	98.27
26	275.0/305.0	1059
27	275.0/335.0	679.1
28	275.0/610.0	78.62
29	280.0/345.0	672.1
30	280.0/625.0	66.10
31	285.0/320.0	884.7
32	285.0/640.0	46.14
33	290.0/325.0	765.2
34	300.0/335.0	526.0
35	305.0/345.0	465.7
36	310.0/350.0	382.4
37	315.0/355.0	369.8
38	320.0/365.0	355.8
39	325.0/370.0	332.6
40	330.0/375.0	322.3
41	335.0/380.0	321.0
42	345.0/395.0	247.2
43	350.0/400.0	238.7
44	365.0/420.0	183.2
45	395.0/460.0	76.07
46	410.0/480.0	43.93
47	425.0/500.0	26.92
48	430.0/505.0	23.57
49	440.0/520.0	16.24
50	455.0/540.0	8.709
51	470.0/560.0	4.221
52	475.0/350.0	3.383
53	485.0/265.0	2.180
54	495.0/270.0	2.154
55	505.0/275.0	3.159
56	510.0/280.0	3.797
57	515.0/285.0	4.038
58	530.0/290.0	3.882
59	540.0/295.0	5.211
60	545.0/300.0	6.671
61	550.0/305.0	6.277
62	560.0/310.0	5.498
63	570.0/315.0	5.497
64	575.0/320.0	5.490
65	585.0/325.0	5.107

Data points
	220.0	225.0	230.0	235.0	240.0	245.0	250.0	255.0	260.0	265.0	270.0	275.0	280.0	285.0	290.0	295.0	300.0	305.0	310.0	315.0	320.0	325.0	330.0	335.0	340.0	345.0	350.0	355.0	360.0	365.0	370.0	375.0	380.0	385.0	390.0	395.0	400.0	405.0	410.0	415.0	420.0	425.0	430.0	435.0	440.0	445.0	450.0	455.0	460.0	465.0	470.0	475.0	480.0	485.0	490.0	495.0	500.0	505.0	510.0	515.0	520.0	525.0	530.0	535.0	540.0	545.0	550.0	555.0	560.0	565.0	570.0	575.0	580.0	585.0	590.0	595.0	600.0
230.0	51.98	979.8	1944	494.6	17.79	3.242	2.486	2.294	1.999	1.832	1.687	1.802	1.479	1.223	1.064	0.759	0.764	0.663	0.571	0.601	0.498	0.383	0.361	0.322	0.308	0.322	0.236	0.269	0.222	0.194	0.208	0.162	0.163	0.185	0.137	0.195	0.198	0.162	0.165	0.157	0.254	0.412	0.364	0.212	0.153	0.162	1.112	4.374	6.602	4.309	1.635	0.277	0.105	0.121	0.077	0.086	0.073	0.095	0.050	0.098	0.080	0.058	0.070	0.086	0.066	0.081	0.054	0.069	0.047	0.049	0.054	0.070	0.065	0.076	0.063	0.066	0.088
235.0	99.72	284.1	1399	1966	461.8	25.83	2.992	2.578	1.691	2.649	1.916	1.496	1.645	1.418	1.137	0.665	0.857	0.607	0.661	0.563	0.462	0.372	0.343	0.364	0.353	0.331	0.240	0.290	0.308	0.238	0.244	0.102	0.213	0.173	0.116	0.200	0.149	0.229	0.176	0.111	0.276	0.249	0.281	0.348	0.447	0.227	0.352	1.172	2.772	4.878	7.041	6.841	2.959	0.565	0.149	0.103	0.093	0.111	0.073	0.080	0.098	0.097	0.036	0.098	0.103	0.072	0.054	0.069	0.070	0.097	0.056	0.082	0.056	0.065	0.074	0.041	0.072
240.0	173.1	141.0	468.3	1961	2139	343.9	12.58	3.604	2.435	2.904	1.893	1.776	1.441	1.444	1.209	0.985	0.824	0.576	0.624	0.595	0.427	0.428	0.379	0.284	0.322	0.247	0.266	0.364	0.239	0.260	0.245	0.130	0.168	0.205	0.118	0.172	0.171	0.189	0.180	0.180	0.194	0.145	0.258	0.288	0.554	0.556	0.382	0.403	0.714	1.627	4.472	9.551	10.93	6.725	2.101	0.234	0.062	0.117	0.092	0.104	0.090	0.084	0.084	0.099	0.095	0.100	0.067	0.062	0.060	0.064	0.063	0.069	0.066	0.094	0.090	0.058	0.091
245.0	131.9	215.5	163.1	769.7	2712	2078	230.5	6.988	4.029	2.879	3.052	2.296	1.890	1.813	1.353	0.945	0.856	0.588	0.638	0.567	0.516	0.443	0.388	0.451	0.399	0.294	0.262	0.262	0.225	0.271	0.277	0.228	0.234	0.171	0.217	0.132	0.111	0.170	0.142	0.180	0.237	0.108	0.110	0.214	0.332	0.564	0.705	0.572	0.367	0.513	1.166	3.650	8.619	13.58	12.20	6.225	1.374	0.159	0.084	0.093	0.111	0.079	0.091	0.094	0.091	0.083	0.057	0.066	0.086	0.087	0.073	0.053	0.104	0.080	0.088	0.074	0.068
250.0	48.56	182.8	263.9	258.3	982.2	2558	2776	798.3	31.75	3.938	3.501	2.674	2.390	1.742	1.283	1.111	0.909	0.657	0.731	0.766	0.542	0.534	0.438	0.425	0.351	0.273	0.281	0.280	0.250	0.237	0.242	0.217	0.178	0.186	0.150	0.146	0.139	0.187	0.143	0.190	0.193	0.159	0.177	0.153	0.198	0.280	0.446	0.776	0.907	0.777	0.565	1.010	2.226	5.024	9.080	13.74	16.57	13.61	6.063	1.600	0.145	0.108	0.119	0.077	0.110	0.095	0.098	0.085	0.080	0.072	0.078	0.074	0.083	0.081	0.086	0.086	0.065
255.0	19.32	58.49	214.6	339.0	289.0	698.7	2866	4351	278.0	24.97	4.927	3.689	2.498	1.981	1.552	1.244	1.148	0.929	0.928	0.760	0.721	0.613	0.509	0.534	0.476	0.405	0.348	0.260	0.325	0.239	0.259	0.263	0.266	0.165	0.149	0.149	0.159	0.154	0.108	0.211	0.234	0.162	0.162	0.172	0.194	0.197	0.196	0.284	0.509	1.014	1.298	1.312	0.899	1.272	2.231	3.544	7.756	17.80	27.81	23.49	9.611	1.472	0.240	0.084	0.116	0.156	0.123	0.090	0.089	0.071	0.095	0.062	0.099	0.068	0.067	0.095	0.063
260.0	18.81	20.20	91.56	337.0	306.6	202.9	964.2	4432	4305	225.0	13.72	5.193	3.369	2.663	1.865	1.709	1.119	0.982	0.854	0.688	0.775	0.657	0.602	0.618	0.383	0.467	0.348	0.307	0.399	0.360	0.312	0.244	0.265	0.183	0.172	0.187	0.188	0.159	0.195	0.142	0.204	0.189	0.192	0.167	0.165	0.169	0.171	0.193	0.259	0.442	0.873	1.731	1.685	0.994	0.662	0.960	1.938	5.174	14.66	28.67	31.71	20.77	6.293	0.575	0.130	0.116	0.162	0.074	0.125	0.080	0.082	0.117	0.107	0.093	0.105	0.101	0.103
265.0	20.01	13.15	33.38	178.8	422.1	207.4	251.2	1699	5919	1950	164.9	7.934	5.044	3.227	2.530	1.865	1.343	1.074	0.994	0.727	0.741	0.802	0.565	0.534	0.489	0.451	0.379	0.390	0.391	0.323	0.403	0.223	0.312	0.278	0.173	0.177	0.163	0.212	0.199	0.147	0.262	0.210	0.198	0.214	0.196	0.131	0.157	0.173	0.123	0.179	0.329	0.962	1.975	2.180	1.193	0.534	0.577	1.371	3.654	9.254	22.16	37.44	30.34	16.89	3.200	0.296	0.177	0.094	0.156	0.147	0.103	0.105	0.128	0.109	0.123	0.118	0.125
270.0	31.89	25.22	24.03	60.52	236.7	417.2	251.3	430.3	2094	4914	4584	670.1	27.48	5.125	3.362	2.497	2.074	1.389	1.006	0.930	0.906	0.734	0.632	0.604	0.505	0.467	0.432	0.392	0.410	0.437	0.311	0.326	0.281	0.245	0.300	0.228	0.243	0.267	0.250	0.215	0.218	0.205	0.189	0.176	0.233	0.223	0.212	0.183	0.178	0.177	0.185	0.335	0.678	1.297	1.944	2.154	1.609	0.889	1.096	2.297	5.455	11.87	20.79	32.09	33.36	29.27	11.89	2.813	0.309	0.190	0.122	0.148	0.142	0.114	0.112	0.109	0.093
275.0	89.69	76.34	61.64	41.70	78.84	238.7	543.7	292.7	514.2	1327	5059	7542	858.6	20.11	5.417	3.284	2.486	1.987	1.315	1.113	1.060	0.911	0.647	0.702	0.685	0.471	0.413	0.421	0.490	0.351	0.357	0.328	0.341	0.350	0.350	0.412	0.301	0.381	0.321	0.318	0.253	0.274	0.248	0.279	0.388	0.308	0.381	0.277	0.329	0.230	0.172	0.243	0.335	0.454	0.698	1.223	2.864	3.159	1.942	1.008	1.559	2.985	5.010	7.781	11.84	28.90	49.52	31.33	17.94	2.906	0.258	0.156	0.167	0.104	0.156	0.152	0.087
280.0	154.9	165.6	120.9	60.84	50.30	97.17	425.2	568.1	250.3	379.4	1611	7495	6447	135.5	11.30	5.061	3.131	2.347	1.914	1.315	1.124	0.852	0.822	0.573	0.570	0.655	0.490	0.486	0.488	0.339	0.434	0.441	0.362	0.411	0.425	0.515	0.538	0.489	0.457	0.428	0.391	0.372	0.437	0.467	0.524	0.521	0.557	0.487	0.530	0.339	0.315	0.289	0.278	0.242	0.414	0.539	1.196	2.546	3.797	3.008	1.178	1.113	1.526	2.256	3.182	7.684	20.11	40.02	55.87	28.76	12.34	1.036	0.221	0.157	0.157	0.217	0.095
285.0	246.3	259.8	199.9	101.0	59.49	67.52	202.4	632.8	327.8	218.1	491.6	2605	8601	4626	95.60	7.229	3.937	3.057	2.159	1.517	1.379	1.061	0.861	0.538	0.686	0.607	0.484	0.478	0.584	0.323	0.454	0.389	0.435	0.459	0.557	0.679	0.648	0.695	0.697	0.435	0.548	0.464	0.589	0.568	0.713	0.813	0.786	0.734	0.676	0.551	0.459	0.333	0.340	0.292	0.361	0.379	0.638	1.040	2.354	4.038	3.414	1.815	1.067	1.182	1.394	2.444	5.210	11.47	28.24	49.76	56.55	23.66	6.028	0.516	0.252	0.198	0.206
290.0	400.6	444.2	329.5	172.3	95.23	85.26	129.5	313.6	642.5	524.5	351.9	787.1	2842	6166	4089	396.7	18.01	4.468	3.123	2.052	1.659	1.281	0.928	0.851	0.732	0.648	0.608	0.582	0.511	0.448	0.511	0.392	0.442	0.502	0.792	0.875	0.981	0.994	0.823	0.665	0.720	0.669	0.685	0.856	1.016	1.183	1.161	1.143	1.052	0.870	0.646	0.556	0.453	0.401	0.428	0.441	0.571	0.688	1.040	1.782	2.799	3.664	3.882	2.927	1.809	1.627	2.184	3.522	7.314	14.04	25.93	36.08	35.35	36.91	15.75	5.288	0.600
295.0	505.9	566.1	443.0	241.8	143.9	120.5	145.2	213.2	382.7	845.9	729.7	475.5	848.2	1614	4490	6039	525.5	13.41	4.223	3.168	2.238	1.721	1.252	1.096	0.957	0.789	0.760	0.638	0.587	0.500	0.496	0.427	0.335	0.643	0.967	1.081	1.149	1.218	0.958	0.879	0.897	0.771	0.838	1.038	1.091	1.396	1.405	1.510	1.236	1.047	0.870	0.856	0.630	0.583	0.659	0.636	0.722	0.851	0.862	1.214	1.482	1.910	3.023	5.116	5.211	3.451	2.153	2.248	3.074	4.427	6.794	8.920	10.47	24.73	47.28	52.28	24.05
300.0	564.9	620.9	489.2	287.2	173.4	156.2	181.1	231.3	319.6	622.0	1102	630.8	462.6	522.8	1354	6033	4828	80.82	7.627	3.865	2.430	2.028	1.335	1.508	1.186	0.850	0.833	0.636	0.668	0.577	0.443	0.415	0.482	0.596	0.952	1.142	1.309	1.308	1.057	0.928	0.954	0.740	0.974	1.178	1.275	1.526	1.531	1.792	1.527	1.232	0.990	0.981	0.791	0.768	0.754	0.752	0.928	0.979	1.056	1.159	1.305	1.526	1.884	3.307	5.119	6.671	4.320	2.854	2.188	2.407	2.740	3.000	3.083	6.541	15.88	36.15	55.47
305.0	568.8	643.7	542.3	319.9	211.4	193.6	227.5	272.2	351.3	495.4	966.2	1059	500.7	335.9	437.3	2026	6597	3512	59.48	5.454	3.324	2.298	1.795	1.484	1.017	0.921	0.766	0.713	0.647	0.603	0.478	0.542	0.491	0.608	0.863	1.139	1.338	1.312	0.994	0.951	1.021	1.035	0.965	1.224	1.279	1.620	1.686	1.984	1.684	1.297	1.087	1.021	0.904	0.917	0.851	0.939	1.047	1.059	1.310	1.494	1.517	1.589	2.010	2.498	3.185	5.058	6.277	5.697	3.563	2.291	2.015	2.071	1.652	2.316	4.370	9.541	22.98
310.0	567.5	640.3	544.3	347.0	245.4	228.6	265.3	312.9	382.2	489.8	681.9	1007	909.2	432.2	284.1	565.9	2133	4570	3843	274.8	12.74	2.993	2.101	1.764	1.267	1.033	0.838	0.809	0.729	0.602	0.537	0.540	0.501	0.604	0.803	1.127	1.267	1.252	1.125	1.074	0.957	0.953	1.143	1.200	1.299	1.548	1.591	1.905	1.655	1.377	1.175	1.140	1.064	0.992	1.010	1.069	1.235	1.315	1.435	1.569	1.775	1.895	2.146	2.560	2.789	3.266	4.107	4.996	5.498	4.977	3.545	2.228	1.736	1.684	2.019	2.897	5.920
315.0	539.6	613.2	553.6	375.0	276.3	259.1	293.6	341.3	396.3	492.4	604.4	722.2	898.8	800.9	331.9	271.0	573.0	1150	3460	4275	386.0	9.747	3.009	2.320	1.734	1.196	1.092	0.694	0.707	0.643	0.716	0.512	0.579	0.690	0.734	1.118	1.175	1.081	1.105	1.019	1.062	0.912	0.955	1.021	1.277	1.573	1.494	1.854	1.635	1.342	1.171	1.233	1.118	1.176	1.198	1.144	1.393	1.405	1.551	1.611	1.945	1.954	2.288	2.383	2.905	2.813	3.201	3.392	3.871	4.566	5.497	4.876	2.870	1.916	1.702	1.614	2.144
320.0	542.5	657.6	590.7	403.9	306.6	270.4	322.7	353.6	404.5	492.6	586.4	658.3	702.5	884.7	562.4	239.0	246.6	325.0	987.6	4201	3566	61.50	5.519	2.798	1.916	1.491	1.089	1.032	0.840	0.761	0.682	0.634	0.555	0.652	0.719	0.899	1.007	1.109	1.121	0.928	0.865	0.867	1.012	1.086	1.396	1.521	1.664	1.974	1.817	1.449	1.257	1.449	1.197	1.282	1.267	1.354	1.432	1.514	1.765	1.696	2.076	1.966	2.356	2.242	2.792	2.862	3.035	3.170	3.320	3.464	3.922	5.490	4.774	3.592	2.228	1.503	1.468
325.0	578.0	704.1	683.8	484.3	331.6	292.8	332.2	366.3	416.9	500.6	595.3	648.7	638.1	707.9	765.2	357.0	194.5	155.6	270.8	1356	4526	2712	47.41	4.226	2.733	1.731	1.317	1.116	0.951	0.863	0.700	0.606	0.591	0.686	0.723	0.875	0.972	0.996	0.967	1.012	0.909	0.959	1.046	1.040	1.401	1.700	1.844	1.951	2.021	1.608	1.418	1.664	1.299	1.403	1.299	1.427	1.465	1.521	1.636	1.819	1.940	2.049	2.220	2.428	2.579	2.698	3.096	3.061	3.191	3.113	3.098	3.681	4.307	5.107	3.887	2.366	1.451
330.0	618.9	840.8	865.1	664.9	425.1	334.6	341.6	383.9	435.4	513.2	604.6	669.4	647.8	598.3	618.9	579.8	306.2	151.9	133.0	351.7	1413	3200	2780	230.8	11.84	2.606	1.872	1.324	0.989	0.947	0.798	0.659	0.634	0.623	0.727	0.868	0.933	0.985	0.879	0.869	0.893	0.954	1.017	1.170	1.569	1.731	2.104	2.453	2.450	2.164	2.062	1.998	1.759	1.621	1.397	1.470	1.554	1.573	1.701	1.834	1.900	2.112	2.438	2.512	2.647	2.953	3.274	3.096	3.183	3.207	3.024	3.243	3.322	3.695	3.958	4.122	3.383
335.0	657.1	905.2	1013	832.3	541.5	396.3	364.9	391.2	446.6	530.1	620.2	679.1	668.1	593.9	512.7	493.8	526.0	247.9	126.2	146.5	366.3	798.3	2405	3447	347.5	10.00	2.618	1.738	1.597	1.121	0.964	0.740	0.592	0.669	0.691	0.756	0.864	0.963	0.865	0.800	0.836	0.875	1.035	1.193	1.635	1.820	2.115	2.932	2.901	2.768	2.447	2.617	2.181	1.970	1.743	1.622	1.614	1.741	1.774	2.119	1.940	2.111	2.542	2.618	3.088	2.944	3.308	3.224	3.400	3.315	3.177	3.359	3.096	3.056	2.949	2.889	3.414
340.0	716.5	901.7	1075	936.8	621.5	455.4	395.1	418.3	461.4	533.5	626.0	673.8	668.6	606.3	497.2	416.5	487.9	410.5	167.3	118.7	143.8	227.2	689.1	3073	2997	53.95	5.325	2.415	1.765	1.210	1.097	0.948	0.737	0.841	0.675	0.771	0.939	0.880	0.894	0.798	0.981	1.008	1.029	1.265	1.519	1.991	2.207	3.066	3.043	2.934	2.710	2.930	2.559	2.048	1.835	1.744	1.833	1.955	1.823	1.965	2.136	2.196	2.485	2.674	2.860	2.872	3.063	3.186	3.391	3.692	3.397	3.259	3.187	3.068	2.946	2.542	2.532
345.0	685.5	946.6	1118	982.3	675.1	502.0	435.7	450.0	475.6	554.4	630.5	668.8	672.1	609.6	507.6	404.6	380.1	465.7	287.1	133.2	110.9	111.8	201.9	967.0	3369	2280	44.90	3.550	2.039	1.641	1.038	0.830	0.790	0.873	0.724	0.834	0.925	0.974	0.814	0.841	0.855	0.922	1.035	1.360	1.541	1.983	2.407	3.104	2.969	3.079	2.967	3.236	2.795	2.347	2.141	1.844	2.092	1.928	1.971	2.106	2.298	2.393	2.484	2.780	2.913	2.926	3.301	3.119	3.371	3.501	3.504	3.307	3.227	2.997	2.614	2.419	2.450
350.0	675.2	927.9	1104	1016	762.7	573.1	500.2	493.7	519.5	579.5	631.0	670.9	665.4	611.2	517.6	417.9	347.2	355.4	382.4	259.1	140.4	111.7	110.9	263.7	1026	2336	2230	210.1	12.14	2.122	1.285	1.207	0.894	0.852	0.733	0.716	0.817	0.955	0.814	0.821	0.878	0.912	1.060	1.241	1.541	1.822	2.165	2.862	3.129	2.886	3.103	3.383	3.034	2.649	2.402	2.259	2.473	2.259	2.234	2.272	2.400	2.508	2.604	2.874	2.962	2.997	3.265	3.072	3.475	3.391	3.460	3.288	3.161	3.000	2.843	2.606	2.573
355.0	620.8	858.6	1062	994.4	828.0	660.4	569.8	550.4	565.4	607.4	640.2	666.7	659.0	607.5	528.6	436.4	361.3	314.0	306.7	369.8	247.5	142.3	113.9	123.5	273.3	575.4	1608	2732	334.0	10.96	1.953	1.411	1.181	0.790	0.837	0.766	0.900	0.878	0.911	0.882	0.792	0.953	0.991	1.165	1.531	1.732	2.118	2.603	2.930	2.882	2.884	3.290	3.025	2.917	2.726	2.648	2.672	2.465	2.549	2.608	2.635	2.669	2.817	2.949	2.959	2.982	3.300	3.237	3.314	3.212	3.368	3.186	3.267	3.120	2.978	2.693	2.477
360.0	621.3	824.5	982.6	962.7	834.9	697.7	610.0	595.1	600.1	630.9	656.9	662.0	653.8	608.4	528.1	446.7	378.4	319.8	282.1	327.1	355.1	199.4	131.3	106.2	118.5	168.4	443.3	2089	2479	264.3	5.347	1.928	1.196	0.862	1.001	0.849	0.870	0.839	0.958	0.790	0.730	0.980	1.057	1.048	1.513	1.571	1.880	2.409	2.773	2.745	2.832	3.370	3.333	3.083	2.790	2.688	2.886	2.743	2.666	2.654	2.753	2.872	3.103	2.955	2.968	2.820	3.155	3.162	3.128	3.053	3.470	3.416	3.342	3.056	2.849	2.783	2.569
365.0	597.7	784.3	949.5	960.4	843.1	727.3	636.1	621.9	635.8	646.1	664.3	662.3	653.4	602.4	529.4	457.0	394.1	338.9	295.7	282.5	355.8	302.1	162.8	119.1	97.03	86.35	132.4	617.4	2413	2113	45.31	3.503	1.604	1.073	0.983	0.962	0.870	0.806	0.885	0.888	0.780	0.911	1.073	1.088	1.515	1.505	1.785	2.160	2.601	2.601	2.888	3.344	3.245	2.965	2.821	2.730	2.929	2.888	3.026	2.792	2.789	2.774	3.078	3.100	3.005	2.910	2.968	3.065	3.427	3.148	3.214	3.533	3.355	2.897	2.763	2.797	2.657
370.0	596.3	769.2	903.7	933.8	846.2	750.5	671.6	656.3	666.0	671.2	679.1	669.2	646.8	598.7	533.9	464.9	409.3	359.3	316.9	289.6	294.2	332.6	271.6	161.2	112.5	88.02	75.53	171.1	699.2	1830	1934	196.3	12.49	1.705	1.249	1.024	0.975	0.948	0.824	0.908	0.871	0.901	1.108	1.098	1.416	1.483	1.780	2.154	2.407	2.468	2.723	3.120	3.334	2.931	2.967	2.787	2.974	3.051	2.976	2.836	2.910	3.156	3.192	3.203	3.093	3.104	3.064	3.172	3.381	3.199	3.031	3.339	3.144	2.978	3.068	3.045	2.812
375.0	563.7	723.5	851.2	898.4	851.8	762.0	702.0	682.5	685.4	683.2	687.5	670.2	635.5	593.4	526.6	468.1	420.1	379.2	340.3	308.2	285.0	280.2	322.3	265.4	153.3	110.9	84.35	84.70	187.0	444.1	1226	2243	306.2	11.81	1.678	1.248	1.156	0.899	0.877	0.882	0.945	0.875	1.162	1.186	1.378	1.528	1.731	2.162	2.253	2.265	2.621	2.799	3.152	3.157	3.077	3.017	3.053	3.034	3.250	3.038	3.201	3.191	3.316	3.339	3.189	3.410	3.259	3.248	3.116	3.065	3.238	3.128	2.883	3.010	2.771	3.054	2.796
380.0	560.6	693.1	805.3	854.0	841.9	765.0	708.6	692.5	674.4	689.7	684.0	668.3	632.4	579.7	523.5	465.9	425.7	386.1	351.0	320.7	293.6	271.7	286.7	321.0	210.5	132.5	97.18	76.70	81.57	126.1	329.6	1585	1970	232.5	4.988	1.713	1.381	0.952	1.146	1.019	0.951	0.956	1.154	1.136	1.297	1.570	1.812	2.195	2.250	2.083	2.461	2.963	3.149	2.953	3.011	3.098	3.205	3.091	3.113	3.229	3.136	3.006	3.030	3.250	3.066	3.140	3.231	3.031	3.043	3.147	3.112	3.210	3.101	2.982	2.869	3.065	2.944
385.0	555.6	654.3	758.6	823.8	812.7	772.5	711.3	686.5	670.4	675.7	676.1	653.0	619.4	571.1	520.7	464.8	424.8	386.7	356.4	327.6	301.3	276.7	258.0	294.6	276.1	162.9	108.2	83.18	66.26	61.56	96.77	452.7	1737	1596	37.82	2.568	1.545	1.023	1.091	0.979	1.063	1.022	1.042	1.037	1.312	1.707	1.619	1.962	2.132	1.983	2.242	2.900	3.172	2.876	2.979	3.137	3.129	3.057	2.917	3.144	3.106	3.053	3.272	3.072	3.102	3.194	3.006	3.048	3.129	3.145	3.144	3.073	3.165	2.861	2.956	3.098	2.696
390.0	533.5	634.7	739.2	770.6	794.2	757.5	704.9	676.2	664.7	666.8	653.5	633.7	604.4	561.2	511.5	453.1	418.0	386.6	357.5	331.5	305.5	280.6	257.6	251.8	271.2	236.9	145.1	97.49	74.24	57.82	53.81	123.1	485.7	1258	1354	157.1	10.90	1.672	1.314	1.202	0.949	1.033	1.069	1.146	1.242	1.510	1.545	1.851	1.975	2.047	2.309	2.787	2.901	2.853	2.926	2.921	3.132	3.129	3.045	3.096	3.120	3.032	3.157	3.040	3.104	3.023	3.050	3.041	3.067	3.052	2.941	3.033	2.845	2.925	2.862	2.937	2.911
395.0	510.2	599.2	697.3	740.9	759.8	733.9	700.3	673.8	656.7	648.3	635.9	622.1	584.7	540.1	485.6	441.4	407.0	380.5	355.1	331.4	304.8	287.3	264.4	243.1	232.6	247.2	216.2	126.4	90.39	68.75	53.38	56.55	128.2	302.6	811.9	1547	252.4	10.59	1.814	1.339	1.131	1.137	1.055	1.191	1.214	1.476	1.550	1.751	1.895	1.977	2.026	2.709	2.790	2.934	2.810	2.990	3.243	2.983	3.132	3.069	3.054	2.886	3.149	3.300	2.977	2.824	2.958	3.021	2.805	2.938	2.807	2.784	2.749	2.845	2.619	2.729	2.739
400.0	491.7	582.2	663.2	706.9	727.1	722.0	692.1	651.6	632.4	634.7	627.2	602.1	569.4	525.9	478.9	431.6	397.7	366.0	350.8	326.3	303.3	283.1	263.9	243.0	223.0	218.4	238.7	171.3	105.3	79.59	60.79	47.19	53.63	84.83	215.9	1045	1403	193.3	4.581	1.593	1.248	1.203	1.098	1.143	1.113	1.361	1.546	1.810	1.773	1.905	1.975	2.391	2.484	2.781	2.891	3.072	2.878	2.849	2.981	2.677	2.929	3.059	3.169	3.140	3.028	2.742	2.746	2.830	2.829	2.800	2.711	2.970	2.700	2.868	2.867	2.901	2.752
405.0	451.1	584.2	643.7	696.8	696.2	698.2	661.2	653.4	624.6	618.2	605.0	584.7	553.0	513.3	471.5	425.5	386.3	360.0	338.7	319.7	297.2	281.2	262.8	242.4	219.0	201.3	214.9	213.9	133.3	91.04	70.10	51.44	41.82	39.18	62.76	295.8	1192	1146	33.49	2.457	1.550	1.151	0.941	1.271	1.217	1.300	1.539	1.615	1.950	1.858	1.793	2.291	2.627	2.748	2.585	3.001	2.927	2.713	3.101	2.854	2.947	3.055	3.098	2.897	2.901	2.826	2.699	2.804	2.939	2.803	3.096	2.610	2.791	2.852	2.623	2.705	2.580
410.0	460.4	550.1	605.9	659.0	658.0	667.1	647.5	636.8	609.2	596.4	585.2	563.7	530.5	493.2	446.6	402.1	373.8	349.3	326.5	306.0	289.3	273.5	257.5	240.5	217.9	198.9	185.8	200.8	186.3	122.2	82.94	61.41	45.93	36.21	33.55	80.08	331.2	889.5	990.0	144.6	9.216	1.482	1.322	1.224	1.238	1.298	1.406	1.605	1.828	1.738	1.741	2.141	2.344	2.526	2.668	2.622	2.983	2.841	2.799	2.858	3.075	2.686	2.859	2.758	2.887	2.752	2.532	2.740	2.802	2.663	2.669	2.638	2.676	2.522	2.622	2.554	2.511
