Sample:	'1
File name:	支脉河北支新河汇入后9.FD3
Run date:	'17:58:08, 06/11/2025
Operator:	Administrator
Comment:	'

Instrument
Model:	F-2700 FL Spectrophotometer
Serial number:	23B8-004
ROM Version:	4J14000 07

Instrument parameters
Measurement type:	3-D scan
Data mode:	Fluorescence
EX  Start WL:	220.0 nm
EX  End WL:	600.0 nm
EX Sampling interval:	5.0 nm
EM  Start WL:	230.0 nm
EM  End WL:	650.0 nm
EM Sampling interval:	5.0 nm
Scan speed:	12000 nm/min
EX Slit:	5.0 nm
EM Slit:	5.0 nm
PMT Voltage:	700 V
Response:	Auto 
Corrected spectra:	Off
Contour interval:	50.000

Peak integration
Integration method:	Rectangular
Sensitivity:	1
Threshold:	1.000

Peaks
No.	ApexEX/EM(nm)	Height(Data)
1	225.0/335.0	1280
2	225.0/565.0	70.47
3	230.0/340.0	1301
4	230.0/500.0	337.9
5	240.0/265.0	331.2
6	240.0/525.0	226.5
7	245.0/270.0	336.7
8	245.0/535.0	187.3
9	250.0/275.0	413.3
10	250.0/545.0	148.5
11	255.0/280.0	549.5
12	255.0/560.0	131.5
13	260.0/285.0	545.3
14	260.0/575.0	103.8
15	265.0/585.0	98.98
16	270.0/300.0	920.0
17	270.0/600.0	87.92
18	275.0/305.0	1205
19	275.0/610.0	87.97
20	280.0/310.0	1145
21	280.0/620.0	76.03
22	285.0/315.0	1092
23	285.0/635.0	59.74
24	290.0/325.0	970.0
25	305.0/345.0	490.2
26	315.0/355.0	365.3
27	320.0/365.0	349.1
28	325.0/370.0	333.3
29	330.0/375.0	322.9
30	335.0/380.0	320.3
31	340.0/390.0	291.7
32	345.0/395.0	281.4
33	350.0/400.0	291.6
34	355.0/410.0	289.2
35	365.0/420.0	259.1
36	430.0/505.0	28.86
37	435.0/510.0	24.49
38	440.0/515.0	21.28
39	445.0/525.0	18.04
40	460.0/345.0	3.661
41	460.0/545.0	9.653
42	505.0/275.0	2.714
43	515.0/280.0	3.288
44	520.0/285.0	3.656
45	530.0/290.0	3.405
46	540.0/295.0	4.805
47	545.0/300.0	5.106
48	555.0/305.0	6.030
49	560.0/310.0	6.045
50	575.0/315.0	6.045
51	580.0/320.0	6.193
52	585.0/325.0	5.847

Data points
	220.0	225.0	230.0	235.0	240.0	245.0	250.0	255.0	260.0	265.0	270.0	275.0	280.0	285.0	290.0	295.0	300.0	305.0	310.0	315.0	320.0	325.0	330.0	335.0	340.0	345.0	350.0	355.0	360.0	365.0	370.0	375.0	380.0	385.0	390.0	395.0	400.0	405.0	410.0	415.0	420.0	425.0	430.0	435.0	440.0	445.0	450.0	455.0	460.0	465.0	470.0	475.0	480.0	485.0	490.0	495.0	500.0	505.0	510.0	515.0	520.0	525.0	530.0	535.0	540.0	545.0	550.0	555.0	560.0	565.0	570.0	575.0	580.0	585.0	590.0	595.0	600.0
230.0	73.71	842.6	3136	1416	81.51	6.051	5.396	4.003	3.768	3.001	3.144	2.719	2.436	1.984	1.753	1.448	1.309	1.161	0.961	0.993	0.945	0.703	0.615	0.691	0.702	0.629	0.497	0.504	0.543	0.463	0.478	0.445	0.402	0.398	0.348	0.342	0.367	0.306	0.325	0.282	0.380	0.602	0.704	0.439	0.309	0.277	0.685	4.632	9.999	8.760	3.928	0.928	0.236	0.200	0.210	0.188	0.189	0.171	0.186	0.187	0.183	0.176	0.156	0.169	0.173	0.183	0.198	0.171	0.165	0.174	0.183	0.182	0.165	0.171	0.167	0.176	0.169
235.0	196.3	253.7	1418	2941	646.1	120.1	6.851	5.240	4.012	3.629	3.149	2.397	2.542	2.052	1.846	1.561	1.298	1.026	1.218	0.946	0.805	0.706	0.785	0.852	0.698	0.570	0.549	0.483	0.433	0.403	0.467	0.375	0.401	0.388	0.379	0.315	0.401	0.357	0.422	0.294	0.334	0.353	0.525	0.697	0.701	0.453	0.409	1.298	3.119	5.445	9.306	10.71	6.287	1.782	0.279	0.216	0.233	0.167	0.201	0.243	0.178	0.181	0.222	0.264	0.174	0.176	0.192	0.171	0.171	0.191	0.154	0.203	0.165	0.175	0.191	0.170	0.210
240.0	243.4	200.4	393.4	1865	3111	529.3	69.15	5.124	4.681	4.315	3.347	3.224	2.879	2.115	1.869	1.722	1.379	0.919	1.147	1.149	0.882	0.822	0.722	0.914	0.674	0.544	0.580	0.491	0.472	0.531	0.444	0.407	0.381	0.381	0.349	0.356	0.343	0.414	0.352	0.308	0.340	0.277	0.313	0.497	0.713	0.802	0.637	0.636	0.876	1.474	3.936	9.821	14.94	11.99	5.452	1.220	0.270	0.201	0.212	0.190	0.193	0.183	0.221	0.203	0.213	0.168	0.206	0.214	0.167	0.190	0.209	0.209	0.229	0.149	0.171	0.169	0.200
245.0	123.4	273.3	190.9	538.2	2578	3412	407.9	26.85	5.247	4.795	4.202	3.252	2.923	2.676	2.130	2.044	1.390	1.007	1.081	1.036	0.814	0.835	0.671	0.869	0.675	0.629	0.660	0.561	0.510	0.504	0.466	0.418	0.368	0.352	0.383	0.365	0.380	0.343	0.317	0.338	0.273	0.308	0.301	0.317	0.436	0.658	0.899	0.909	0.622	0.503	1.088	2.817	7.481	15.26	18.70	12.37	3.971	0.554	0.206	0.194	0.191	0.205	0.234	0.186	0.210	0.165	0.180	0.224	0.235	0.208	0.164	0.201	0.194	0.187	0.176	0.173	0.155
250.0	53.49	155.6	258.7	244.6	731.0	2470	3633	1425	108.3	6.897	5.880	4.353	3.446	2.834	2.721	1.938	1.634	1.387	1.123	1.112	0.862	0.921	0.808	0.947	0.699	0.642	0.565	0.598	0.563	0.460	0.528	0.418	0.489	0.406	0.399	0.360	0.309	0.306	0.271	0.341	0.280	0.377	0.314	0.320	0.329	0.397	0.470	0.748	0.869	0.888	0.728	0.957	1.912	4.342	8.769	14.14	19.29	19.27	12.13	4.134	0.611	0.249	0.224	0.194	0.212	0.169	0.207	0.213	0.172	0.200	0.173	0.207	0.188	0.180	0.186	0.211	0.179
255.0	36.44	51.17	139.3	323.5	288.3	598.1	2066	5659	2043	135.2	8.860	5.298	4.469	3.171	2.557	2.059	2.123	1.633	1.433	1.166	1.018	0.762	0.759	0.759	0.829	0.682	0.630	0.689	0.614	0.546	0.460	0.540	0.454	0.380	0.371	0.344	0.357	0.323	0.336	0.396	0.344	0.435	0.320	0.324	0.338	0.349	0.301	0.384	0.417	0.792	1.179	1.380	1.055	1.240	2.163	3.398	5.702	13.14	27.48	30.12	19.44	5.201	0.549	0.278	0.278	0.205	0.221	0.247	0.212	0.164	0.275	0.177	0.227	0.219	0.205	0.162	0.171
260.0	26.22	28.94	56.65	224.7	329.3	209.7	559.5	3525	6942	1635	81.25	8.596	6.085	3.992	3.226	2.956	2.247	1.956	1.618	1.372	1.115	0.966	0.911	0.800	0.778	0.722	0.734	0.678	0.709	0.606	0.518	0.510	0.416	0.552	0.413	0.487	0.349	0.358	0.343	0.318	0.350	0.376	0.336	0.381	0.297	0.302	0.267	0.361	0.253	0.367	0.633	1.484	1.837	1.246	0.889	0.971	1.563	3.411	9.540	23.30	39.18	29.42	16.85	2.902	0.389	0.250	0.231	0.229	0.248	0.208	0.242	0.208	0.251	0.218	0.263	0.208	0.175
265.0	31.94	23.71	28.04	92.41	331.2	281.4	174.1	1010	5452	7638	1209	30.99	8.222	5.098	4.034	2.862	2.561	1.574	1.634	1.280	1.162	1.102	0.853	0.931	0.924	0.710	0.818	0.620	0.662	0.640	0.619	0.546	0.548	0.562	0.424	0.424	0.384	0.370	0.349	0.343	0.382	0.285	0.334	0.357	0.388	0.323	0.250	0.290	0.275	0.232	0.336	0.693	1.432	1.984	1.522	0.733	0.641	1.034	2.423	6.506	16.41	33.41	50.34	27.68	11.52	1.421	0.303	0.277	0.266	0.243	0.229	0.233	0.245	0.303	0.221	0.186	0.199
270.0	51.85	40.04	30.11	39.86	136.8	336.7	307.5	290.6	1521	5302	8221	3132	73.18	8.715	5.799	3.756	3.230	2.282	2.070	1.695	1.282	1.238	1.011	0.971	0.974	0.902	0.742	0.673	0.809	0.834	0.621	0.519	0.535	0.545	0.481	0.478	0.409	0.417	0.394	0.421	0.406	0.347	0.359	0.387	0.349	0.369	0.314	0.302	0.315	0.269	0.294	0.336	0.609	0.910	1.542	1.783	1.854	1.130	0.944	1.783	4.053	8.824	19.70	31.22	43.57	40.85	18.55	8.695	1.486	0.331	0.275	0.354	0.223	0.330	0.212	0.251	0.219
275.0	92.49	89.47	55.43	45.45	55.48	133.9	413.3	359.3	393.7	1256	3992	9999.9	1322	82.97	9.342	5.389	3.922	2.730	2.510	1.924	1.558	1.430	1.063	1.079	0.982	1.094	0.738	0.772	0.722	0.832	0.799	0.668	0.762	0.561	0.541	0.535	0.583	0.559	0.446	0.547	0.464	0.423	0.449	0.487	0.464	0.529	0.508	0.438	0.464	0.297	0.336	0.295	0.413	0.459	0.674	0.889	1.780	2.714	2.493	1.311	1.248	2.312	4.718	7.471	11.36	20.68	46.97	67.76	29.32	12.09	1.148	0.359	0.291	0.307	0.227	0.294	0.335
280.0	160.3	146.8	99.80	64.53	46.11	66.90	222.7	549.5	288.2	344.2	1047	6084	9999.9	1029	44.13	8.525	5.214	3.677	2.992	2.370	1.838	1.415	1.263	1.327	1.130	1.119	0.929	0.881	0.779	0.648	0.695	0.818	0.755	0.701	0.773	0.636	0.737	0.673	0.592	0.586	0.567	0.484	0.550	0.499	0.611	0.717	0.674	0.606	0.449	0.436	0.419	0.362	0.374	0.322	0.513	0.469	0.828	1.656	2.836	3.288	1.750	1.040	1.559	2.120	3.047	5.216	14.14	35.12	63.54	70.16	25.68	6.203	0.548	0.352	0.318	0.308	0.276
285.0	228.2	230.8	158.6	90.74	54.85	53.25	104.4	404.4	545.3	218.2	329.5	1686	8253	8684	706.4	18.36	7.314	5.263	3.437	2.471	2.088	1.907	1.758	1.284	1.144	1.255	0.934	0.806	0.813	0.860	0.682	0.685	0.762	0.765	0.786	0.791	0.949	0.961	0.711	0.760	0.688	0.556	0.677	0.666	0.735	0.747	0.830	0.736	0.584	0.575	0.444	0.477	0.419	0.397	0.450	0.326	0.588	0.766	1.471	2.916	3.656	2.494	1.212	1.120	1.235	1.754	3.801	8.922	21.51	48.99	71.68	34.04	19.77	2.988	0.477	0.382	0.317
290.0	374.3	337.6	251.5	156.8	87.78	78.00	93.46	192.0	474.9	570.0	257.1	534.4	2252	6546	8238	2421	40.99	7.294	4.677	3.219	2.841	2.158	1.889	1.535	1.341	1.261	1.059	0.964	0.963	0.917	0.866	0.791	0.841	0.840	0.931	0.934	1.035	1.078	0.947	0.958	0.911	0.777	0.929	0.795	0.867	0.957	0.994	1.083	0.870	0.745	0.618	0.595	0.552	0.517	0.508	0.508	0.616	0.610	0.845	1.357	1.962	3.057	3.405	3.076	1.830	1.297	1.792	2.910	5.609	12.28	23.01	33.23	52.71	46.08	41.47	13.38	3.526
295.0	465.2	446.1	352.4	231.3	138.5	123.6	126.5	165.3	260.9	581.7	744.7	425.2	718.5	1630	3986	9999.9	730.7	45.55	6.706	4.993	3.387	2.746	1.910	1.926	1.599	1.313	1.178	1.281	1.020	1.147	0.856	0.746	0.885	0.939	1.063	1.192	1.296	1.323	1.233	1.066	1.060	1.129	1.293	1.025	1.103	1.304	1.215	1.172	1.142	1.023	0.858	0.869	0.884	0.769	0.644	0.627	0.809	0.773	0.914	1.084	1.426	1.498	2.004	3.620	4.805	3.477	2.308	1.954	2.581	4.033	6.170	8.337	12.96	17.12	43.76	72.76	36.04
300.0	562.7	546.8	438.8	293.5	194.6	168.6	183.8	216.5	279.7	448.4	920.0	750.7	500.6	597.9	1116	5858	9590	610.0	23.25	6.532	4.539	3.009	2.268	2.134	1.755	1.748	1.267	1.209	1.129	1.128	0.889	0.779	0.755	0.868	0.960	1.252	1.334	1.374	1.402	1.160	1.150	1.522	1.228	1.188	1.313	1.366	1.403	1.422	1.412	1.349	1.034	1.067	0.981	0.889	0.852	0.887	1.041	1.125	1.249	1.227	1.401	1.567	1.823	2.440	3.906	5.106	4.927	3.238	2.534	2.575	2.787	3.144	4.169	4.933	11.83	29.43	56.27
305.0	644.7	655.8	547.3	357.1	249.6	224.7	269.9	314.2	352.2	511.1	815.1	1205	726.6	496.8	512.1	1675	7529	5399	435.4	11.44	5.654	3.788	2.805	2.218	1.819	2.082	1.682	1.384	1.207	1.156	0.947	0.873	0.770	0.984	1.057	1.353	1.530	1.502	1.507	1.504	1.384	1.552	1.384	1.278	1.364	1.682	1.514	1.734	1.692	1.328	1.198	1.252	1.189	1.073	1.256	1.309	1.335	1.339	1.567	1.763	1.847	2.003	2.239	2.749	3.190	4.273	5.957	6.030	4.843	3.392	2.932	2.696	2.756	2.836	4.103	7.971	16.66
310.0	722.5	745.8	650.2	436.7	312.4	284.1	325.0	386.9	458.2	578.5	757.0	1057	1145	711.0	469.0	598.6	2126	5303	6168	1676	26.58	5.403	3.941	2.938	2.359	1.975	1.681	1.335	1.352	1.142	1.101	0.968	0.941	0.952	1.133	1.243	1.594	1.757	1.634	1.532	1.587	1.470	1.427	1.558	1.558	1.923	1.887	2.010	1.902	1.584	1.366	1.470	1.426	1.258	1.376	1.326	1.571	1.675	1.842	1.946	2.163	2.305	2.762	3.041	3.332	3.630	4.394	5.411	6.045	5.913	4.713	3.619	3.071	2.813	2.717	3.178	4.982
315.0	814.3	852.9	734.0	509.2	362.3	326.8	383.9	441.1	503.8	625.0	776.6	916.9	1057	1092	602.3	406.4	678.3	1323	3530	8187	530.2	27.79	5.956	3.824	2.635	2.112	1.745	1.507	1.460	1.132	1.166	0.946	0.970	0.953	1.121	1.285	1.610	1.763	1.752	1.753	1.651	1.630	1.489	1.536	1.637	2.026	2.047	2.222	2.011	1.813	1.477	1.570	1.597	1.497	1.456	1.540	1.818	1.941	2.141	2.172	2.276	2.870	3.075	3.263	3.464	3.508	4.119	4.442	4.810	5.298	5.981	6.045	4.655	3.419	2.833	2.463	2.814
320.0	896.8	957.4	857.9	551.8	398.0	363.4	411.8	468.5	544.3	650.5	793.1	907.5	947.9	1063	860.4	430.9	384.2	430.4	929.0	5184	7117	438.2	13.28	4.724	3.782	2.489	2.058	1.799	1.584	1.437	1.129	0.954	0.924	0.995	1.134	1.217	1.520	1.812	1.816	1.803	1.607	1.761	1.647	1.809	1.833	2.094	2.350	2.500	2.463	2.032	1.687	1.642	1.651	1.635	1.735	1.616	1.916	2.183	2.257	2.262	2.488	2.822	3.112	3.431	3.475	3.561	4.057	4.378	4.393	4.917	4.940	5.552	6.193	4.952	3.507	2.611	2.394
325.0	996.1	1080	968.4	643.6	442.8	387.5	426.6	485.5	541.3	652.3	802.0	886.7	911.5	902.5	970.0	573.2	334.9	245.0	276.4	1434	6227	3984	62.03	8.128	4.732	3.151	2.469	2.068	1.676	1.448	1.270	1.133	1.153	1.082	1.196	1.405	1.505	1.952	1.767	1.680	1.704	1.706	1.755	1.882	2.013	2.371	2.451	3.034	2.751	2.309	1.828	1.962	1.857	1.817	1.799	1.786	1.972	2.067	2.208	2.289	2.475	2.920	3.209	3.598	3.522	3.863	4.122	4.115	4.472	4.354	4.479	4.537	5.365	5.847	4.943	3.380	2.485
330.0	1032	1215	1146	817.7	543.9	438.9	442.2	495.2	557.4	654.7	787.5	875.2	887.2	823.3	782.5	713.0	451.7	229.3	153.7	379.1	1726	4341	4823	1276	20.46	4.459	3.294	2.508	2.013	1.810	1.516	1.256	1.244	1.115	1.284	1.286	1.416	1.746	1.633	1.678	1.637	1.687	1.905	2.005	2.135	2.653	2.840	3.224	3.188	2.806	2.440	2.505	2.186	1.998	1.884	1.798	2.136	2.166	2.409	2.461	2.514	2.776	2.967	3.281	3.485	3.768	3.890	4.089	4.249	4.412	4.319	4.342	4.245	4.415	4.548	4.639	3.954
335.0	1115	1280	1235	956.3	653.5	514.8	469.8	504.3	562.8	650.7	766.4	853.9	870.3	797.7	689.3	596.2	615.6	337.4	158.2	165.6	439.5	1035	3174	6665	434.8	22.64	4.548	3.275	2.378	2.332	1.851	1.434	1.508	1.279	1.190	1.248	1.574	1.383	1.560	1.591	1.646	1.859	2.070	2.109	2.364	2.813	3.042	3.627	3.652	3.143	2.804	2.850	2.513	2.337	2.173	2.147	2.041	2.267	2.433	2.590	2.622	2.707	2.991	3.189	3.710	3.678	4.072	3.904	4.348	4.396	4.478	4.433	4.013	4.017	3.580	3.671	3.903
340.0	1127	1274	1301	998.1	722.9	542.7	498.0	521.9	556.6	642.7	744.4	823.3	835.7	774.9	659.5	526.3	543.2	480.9	208.0	134.8	165.6	279.6	837.5	4576	6019	370.7	10.17	4.159	2.860	2.437	2.031	1.435	1.423	1.209	1.251	1.201	1.369	1.357	1.758	1.677	1.627	1.735	1.768	2.109	2.424	2.671	3.243	3.611	3.653	3.219	2.858	3.008	2.831	2.438	2.173	2.191	2.171	2.302	2.479	2.588	2.403	2.721	2.922	3.089	3.445	3.598	3.911	3.966	4.054	4.372	4.289	4.062	3.953	3.989	3.513	3.207	3.223
345.0	1108	1269	1279	1028	748.1	569.2	516.0	521.2	553.0	627.3	710.8	784.4	800.9	747.5	639.3	509.1	449.2	490.2	329.3	153.0	119.2	122.5	229.2	1300	5660	3353	53.23	6.333	3.921	2.714	2.172	1.707	1.529	1.304	1.305	1.225	1.396	1.404	1.574	1.573	1.572	1.839	1.798	2.205	2.417	2.748	2.800	3.544	3.661	3.218	2.899	2.993	2.926	2.508	2.375	2.125	2.370	2.334	2.275	2.632	2.463	2.710	2.817	3.314	3.359	3.572	3.619	3.663	4.014	3.939	4.091	3.791	3.560	3.924	3.539	3.075	3.005
350.0	1069	1189	1222	1036	798.4	616.3	543.7	531.5	556.5	606.4	681.2	734.6	751.0	703.3	618.9	500.9	417.1	384.4	395.3	276.2	144.8	110.2	112.4	333.4	1605	3655	3974	1092	17.95	3.952	2.576	2.104	1.747	1.342	1.319	1.275	1.407	1.374	1.428	1.508	1.496	1.783	1.898	1.950	2.188	2.764	2.796	3.276	3.390	3.167	2.880	3.116	3.055	2.721	2.536	2.302	2.435	2.397	2.393	2.557	2.583	2.796	2.942	3.068	3.238	3.406	3.433	3.478	3.638	3.764	3.789	3.643	3.445	3.573	3.304	3.165	2.932
355.0	996.1	1120	1138	1004	799.3	667.6	574.5	553.6	567.1	603.7	647.5	693.0	705.2	663.1	601.5	496.8	420.3	355.8	327.3	365.3	255.7	139.5	109.4	136.2	399.8	870.7	2602	5357	397.8	20.78	3.642	2.786	2.190	1.588	1.429	1.448	1.527	1.482	1.347	1.521	1.418	1.594	1.748	1.922	2.141	2.484	2.710	3.125	3.229	2.982	2.738	3.019	2.964	2.968	2.725	2.420	2.698	2.599	2.516	2.615	2.486	2.876	3.007	2.919	3.003	3.314	3.159	3.418	3.443	3.702	3.677	3.617	3.335	3.574	3.016	3.229	2.897
360.0	924.8	1068	1103	980.2	792.9	681.5	599.8	579.4	575.2	602.7	636.8	672.9	671.5	643.8	580.5	497.7	428.8	366.2	312.5	326.9	348.7	202.6	127.7	109.2	141.7	233.3	687.1	3698	4874	350.5	9.888	3.414	2.458	1.828	1.588	1.528	1.389	1.466	1.462	1.572	1.493	1.554	1.694	1.860	2.017	2.377	2.551	2.920	3.108	2.779	2.749	3.041	2.894	3.086	2.777	2.529	2.653	2.615	2.622	2.445	2.583	2.648	2.838	2.909	2.949	3.051	3.107	3.219	3.354	3.462	3.535	3.644	3.297	3.521	3.122	3.092	3.016
365.0	913.4	1035	1062	948.0	806.3	694.1	618.1	594.0	585.5	606.1	632.9	659.2	658.2	629.0	574.5	501.1	437.5	383.0	322.0	302.8	349.1	300.8	164.5	117.8	102.7	101.9	191.4	1054	4514	3150	50.44	5.974	3.108	2.236	1.913	1.619	1.589	1.528	1.523	1.499	1.309	1.647	1.655	1.887	1.953	2.266	2.585	2.810	2.910	2.631	2.592	2.827	2.832	2.973	2.902	2.775	2.831	2.925	2.668	2.607	2.549	2.621	2.832	3.065	2.883	2.959	2.997	3.238	3.426	3.548	3.488	3.331	3.474	3.441	3.266	3.285	2.885
370.0	861.2	972.2	989.2	909.4	828.2	719.1	653.2	615.1	601.4	619.3	626.3	643.7	634.0	612.8	568.1	502.0	447.9	403.6	349.8	312.9	304.0	333.3	271.5	162.2	119.0	94.32	96.80	273.9	1270	3266	3640	1039	17.02	3.082	2.445	1.832	1.728	1.673	1.557	1.561	1.483	1.722	1.619	1.788	1.924	2.249	2.309	2.589	2.721	2.748	2.424	2.818	3.016	2.990	2.963	2.710	2.869	2.951	2.842	2.711	2.596	2.736	2.819	2.936	2.996	3.040	3.031	3.027	3.075	3.206	3.161	3.255	3.340	3.369	3.250	3.199	3.203
375.0	865.4	897.2	936.0	901.0	829.6	731.4	668.5	645.3	619.6	626.2	626.0	623.3	621.1	593.3	557.8	501.5	459.1	420.1	371.5	335.8	303.0	293.7	322.9	262.0	157.0	117.9	95.97	118.0	322.2	780.2	2303	4739	347.5	18.83	3.236	2.329	2.035	1.807	1.539	1.663	1.589	1.633	1.672	1.799	1.899	2.092	2.153	2.370	2.677	2.534	2.547	3.027	3.028	3.005	3.031	2.693	3.025	2.935	2.868	2.765	2.714	2.780	2.961	2.816	2.762	2.992	3.000	2.940	3.124	3.263	3.074	3.300	3.060	3.218	3.130	3.182	3.181
380.0	806.3	869.0	906.0	874.0	813.5	742.5	688.6	645.9	630.9	626.4	622.3	613.5	617.1	587.2	548.4	502.9	462.2	428.3	387.9	355.5	316.8	292.1	296.8	320.3	214.4	141.5	111.3	97.50	122.9	212.9	610.7	3175	4197	299.2	9.384	2.748	2.434	2.069	1.706	1.782	1.659	1.616	1.757	1.756	1.859	2.043	2.238	2.400	2.632	2.448	2.519	2.831	3.051	3.199	3.044	2.672	2.984	2.815	2.999	2.845	2.884	2.872	2.897	2.892	2.900	2.856	3.068	2.838	3.140	2.963	3.140	3.254	3.027	3.114	3.133	2.961	3.256
385.0	787.7	877.4	876.1	850.9	798.0	739.1	688.1	651.4	632.4	628.9	624.7	620.0	609.7	585.5	543.0	495.1	459.3	430.3	398.5	364.4	332.5	302.5	282.0	306.7	282.0	177.1	131.4	106.4	91.32	94.88	173.8	892.9	3666	2642	223.3	5.105	2.685	2.240	1.868	1.894	1.723	1.627	1.691	1.649	1.788	2.044	2.152	2.377	2.509	2.284	2.400	2.800	3.103	2.894	2.884	2.761	3.148	2.697	2.988	2.832	3.174	2.850	2.741	3.127	2.805	2.988	2.953	2.752	2.980	3.233	3.125	3.172	3.009	3.102	3.184	2.944	3.131
390.0	792.0	845.7	859.5	831.0	792.7	731.8	693.8	663.6	633.5	626.3	625.8	610.4	592.1	571.3	532.2	487.4	459.8	434.3	404.9	375.2	345.2	322.6	291.4	277.7	291.7	255.3	172.0	129.3	102.2	84.65	87.36	235.3	1006	2399	2800	867.3	15.41	3.172	2.289	2.085	1.861	1.787	1.914	1.906	1.875	2.089	2.182	2.476	2.490	2.174	2.286	2.731	2.970	2.943	2.888	2.802	3.107	2.858	2.984	2.930	3.075	2.945	2.781	2.967	2.841	2.923	2.837	2.741	2.869	3.000	3.107	3.007	2.963	3.043	3.231	3.004	3.143
395.0	754.1	813.7	838.6	813.7	782.2	738.3	694.6	667.9	642.9	632.0	621.4	615.4	595.1	564.8	527.9	486.1	457.0	434.9	411.4	385.0	361.4	337.1	310.1	285.3	267.8	281.4	249.5	169.6	131.1	104.9	88.77	104.0	258.4	569.4	1583	3472	1230	20.11	3.457	2.359	1.899	2.066	1.906	2.145	2.009	2.081	2.056	2.392	2.399	2.257	2.131	2.810	2.813	3.042	2.978	2.834	2.937	3.042	3.139	2.862	2.972	2.928	2.782	2.964	2.827	2.968	2.801	2.715	2.711	2.730	2.797	2.936	2.999	2.909	3.201	3.308	2.866
400.0	752.0	799.2	820.8	800.3	760.8	727.1	703.1	677.1	658.7	652.2	637.7	624.0	606.0	574.9	525.7	491.2	455.1	432.5	410.6	393.1	366.3	349.7	326.1	299.3	278.0	273.5	291.6	228.2	160.7	129.9	108.5	90.89	104.5	159.6	412.1	2079	3299	270.8	12.64	2.921	2.352	1.962	2.063	2.018	2.043	2.229	2.104	2.405	2.328	2.279	2.154	2.624	2.573	2.731	2.874	2.877	3.133	3.155	3.054	2.892	3.042	3.024	3.044	2.951	2.837	3.037	3.150	2.720	2.841	2.855	2.944	2.860	2.910	2.873	3.093	3.012	2.949
405.0	778.8	777.3	815.7	772.9	764.7	731.3	711.1	687.9	668.8	668.4	652.6	642.6	619.1	587.8	535.0	486.9	452.2	433.0	416.7	392.8	370.8	352.6	337.1	317.7	293.6	276.7	289.0	288.7	205.5	158.8	133.2	104.5	83.35	76.13	123.8	560.2	2394	2277	219.8	6.069	2.709	2.198	2.041	2.137	2.037	2.225	2.080	2.338	2.309	2.155	2.319	2.683	2.772	2.656	2.714	2.868	2.999	3.064	3.040	3.013	3.166	3.155	2.928	3.008	2.902	2.889	2.900	2.819	2.921	2.754	3.063	2.883	3.010	2.917	2.922	2.791	3.196
410.0	740.3	768.1	780.6	749.1	742.7	720.7	703.2	691.1	678.4	669.6	661.7	652.5	618.7	581.0	530.1	479.8	445.8	422.8	402.9	386.2	371.7	356.1	344.4	327.1	310.7	288.2	279.2	289.2	267.6	203.5	156.8	124.7	94.07	71.16	68.26	155.3	632.4	1699	2174	810.2	15.66	2.985	2.436	2.292	1.997	2.111	2.091	2.195	2.359	2.186	2.182	2.592	2.710	2.733	2.823	2.729	3.100	2.946	3.033	3.167	2.936	3.006	3.043	2.919	3.053	2.880	2.967	2.766	2.736	2.948	2.981	3.051	3.068	2.775	2.991	2.914	2.992
