Sample:	'1
File name:	L2025090918Ê¡¿Ø¶ÏÃæ.FD3
Run date:	'15:50:52, 09/09/2025
Operator:	Administrator
Comment:	'

Instrument
Model:	F-2700 FL Spectrophotometer
Serial number:	3064-004
ROM Version:	4J14000 07

Instrument parameters
Measurement type:	3-D scan
Data mode:	Fluorescence
EX  Start WL:	220.0 nm
EX  End WL:	600.0 nm
EX Sampling interval:	5.0 nm
EM  Start WL:	230.0 nm
EM  End WL:	650.0 nm
EM Sampling interval:	5.0 nm
Scan speed:	12000 nm/min
EX Slit:	5.0 nm
EM Slit:	5.0 nm
PMT Voltage:	700 V
Response:	Auto 
Corrected spectra:	Off
Contour interval:	50.000

Peak integration
Integration method:	Rectangular
Sensitivity:	1
Threshold:	1.000

Peaks
No.	ApexEX/EM(nm)	Height(Data)
1	230.0/590.0	39.17
2	230.0/615.0	29.20
3	230.0/635.0	25.54
4	235.0/625.0	23.66
5	245.0/265.0	330.8
6	245.0/630.0	24.03
7	250.0/625.0	27.79
8	255.0/280.0	625.1
9	260.0/285.0	780.9
10	260.0/450.0	 3798
11	265.0/290.0	731.9
12	265.0/575.0	199.9
13	270.0/295.0	 1133
14	270.0/590.0	164.2
15	275.0/305.0	 1435
16	275.0/605.0	147.4
17	280.0/310.0	 1431
18	280.0/335.0	 1153
19	280.0/385.0	 1232
20	280.0/615.0	123.9
21	285.0/315.0	 1449
22	285.0/350.0	 1172
23	285.0/630.0	100.5
24	290.0/320.0	 1416
25	290.0/640.0	78.21
26	295.0/330.0	 1110
27	300.0/335.0	991.7
28	305.0/340.0	 1011
29	305.0/380.0	 1108
30	310.0/345.0	886.0
31	315.0/355.0	862.5
32	320.0/360.0	981.7
33	335.0/380.0	 1108
34	340.0/385.0	 1087
35	365.0/450.0	 3159
36	445.0/525.0	62.92
37	470.0/280.0	2.193
38	485.0/265.0	2.216
39	505.0/275.0	3.146
40	510.0/280.0	3.450
41	520.0/285.0	3.865
42	520.0/450.0	14.39
43	525.0/290.0	3.911
44	530.0/465.0	13.38
45	535.0/295.0	4.930
46	545.0/300.0	6.077
47	550.0/305.0	7.321
48	560.0/310.0	6.357
49	570.0/315.0	7.628
50	575.0/290.0	74.24
51	575.0/320.0	7.425
52	580.0/325.0	7.450
53	595.0/330.0	5.781

Data points
	220.0	225.0	230.0	235.0	240.0	245.0	250.0	255.0	260.0	265.0	270.0	275.0	280.0	285.0	290.0	295.0	300.0	305.0	310.0	315.0	320.0	325.0	330.0	335.0	340.0	345.0	350.0	355.0	360.0	365.0	370.0	375.0	380.0	385.0	390.0	395.0	400.0	405.0	410.0	415.0	420.0	425.0	430.0	435.0	440.0	445.0	450.0	455.0	460.0	465.0	470.0	475.0	480.0	485.0	490.0	495.0	500.0	505.0	510.0	515.0	520.0	525.0	530.0	535.0	540.0	545.0	550.0	555.0	560.0	565.0	570.0	575.0	580.0	585.0	590.0	595.0	600.0
230.0	20.76	629.9	 3333	 2189	93.19	9.511	7.712	6.452	6.807	6.977	5.528	5.419	4.973	4.392	4.085	3.466	3.045	2.904	2.619	2.305	2.224	2.103	1.980	2.136	1.767	1.795	1.715	1.664	1.680	1.587	1.553	1.314	1.291	1.224	1.066	0.997	0.867	0.820	0.728	0.716	0.838	0.883	0.662	0.511	0.534	0.529	1.564	6.006	9.568	7.181	2.859	0.722	0.438	0.396	0.340	0.404	0.404	0.364	0.354	0.290	0.294	0.253	0.328	0.289	0.343	0.302	0.218	0.270	0.232	0.261	0.262	0.276	0.202	0.217	0.220	0.238	0.229
235.0	42.46	168.1	 1504	 4237	 1078	161.7	8.958	8.067	6.340	7.564	5.638	6.004	4.902	4.046	4.507	3.338	3.037	2.758	2.409	2.364	2.472	1.685	2.475	1.824	1.610	1.750	2.394	1.653	1.604	1.748	1.851	1.244	1.396	1.117	1.134	0.779	0.685	0.871	0.734	0.737	0.672	0.736	0.655	0.709	1.033	0.539	0.708	1.875	3.914	7.307	9.979	9.947	4.896	1.286	0.426	0.449	0.446	0.341	0.318	0.352	0.286	0.445	0.359	0.299	0.351	0.355	0.154	0.250	0.178	0.269	0.360	0.138	0.271	0.221	0.224	0.197	0.312
240.0	50.68	89.10	383.0	 2402	 4126	939.2	123.2	9.930	6.681	6.452	5.220	6.509	5.428	5.375	4.015	3.471	3.007	3.130	2.515	2.409	2.690	2.256	2.022	2.163	2.062	1.935	2.103	1.900	1.556	1.653	1.912	1.489	1.445	1.019	1.060	0.690	0.760	0.733	0.664	0.779	0.681	0.539	0.743	0.845	0.958	0.702	0.590	0.929	1.177	2.421	5.687	13.32	15.69	10.24	3.030	0.620	0.426	0.369	0.295	0.369	0.277	0.355	0.397	0.304	0.404	0.339	0.236	0.306	0.245	0.309	0.231	0.340	0.349	0.395	0.190	0.318	0.290
245.0	39.17	93.49	142.4	660.6	 2996	 4979	834.1	41.56	8.725	9.334	7.598	7.600	6.205	4.597	5.413	4.347	3.156	2.758	2.697	2.644	2.760	2.102	2.542	1.759	2.025	1.925	1.801	1.825	1.763	1.571	2.225	1.288	1.321	1.009	1.001	0.865	0.888	0.879	0.518	0.703	0.620	0.603	0.697	0.711	0.491	0.732	0.786	1.023	0.659	0.885	1.751	4.832	11.98	18.59	17.63	8.024	2.288	0.459	0.575	0.480	0.220	0.379	0.300	0.509	0.234	0.313	0.286	0.365	0.225	0.272	0.324	0.318	0.251	0.346	0.236	0.257	0.414
250.0	27.48	55.10	139.9	252.6	802.4	 3032	 6102	 2717	217.0	11.43	10.92	8.987	7.409	6.263	5.971	4.888	3.555	3.761	2.935	2.964	2.584	2.149	2.324	2.013	2.106	1.889	2.017	2.099	1.983	1.616	1.734	1.669	1.310	1.216	1.003	0.920	0.896	0.689	0.611	0.687	0.780	0.644	0.752	0.785	0.485	0.527	0.754	1.010	0.996	1.135	0.931	1.438	3.221	6.552	11.81	17.02	21.14	16.28	9.281	2.317	0.463	0.432	0.259	0.512	0.335	0.335	0.355	0.341	0.309	0.288	0.271	0.270	0.278	0.241	0.184	0.229	0.303
255.0	21.42	29.20	70.65	263.3	305.8	709.2	 2645	 7444	 4211	276.0	16.67	11.40	7.886	7.157	6.895	5.269	4.748	3.426	3.866	3.772	2.960	1.938	2.318	1.952	1.843	1.931	2.096	2.282	2.065	1.907	1.864	1.711	1.556	1.395	1.263	0.920	0.926	0.742	0.792	0.703	0.665	0.777	0.775	0.707	0.565	0.714	0.603	0.716	0.744	1.133	1.319	1.374	1.299	1.820	3.073	4.546	9.451	20.92	34.92	31.56	12.93	2.134	0.324	0.397	0.405	0.377	0.456	0.433	0.375	0.326	0.241	0.299	0.414	0.249	0.277	0.465	0.390
260.0	20.31	17.82	34.19	166.0	328.9	252.9	669.4	 3897	9999.9	 3618	157.6	16.71	10.56	9.052	7.270	5.062	5.314	3.770	3.584	3.137	3.244	1.954	2.602	2.369	2.250	2.543	2.336	2.349	1.915	2.141	1.804	1.703	1.502	1.488	1.248	1.048	0.806	0.639	0.832	0.808	0.679	0.751	0.761	0.719	0.427	0.647	0.556	0.593	0.484	0.524	0.985	1.453	1.875	1.206	1.056	1.459	2.553	6.128	17.81	36.32	46.55	30.57	8.369	1.073	0.315	0.332	0.391	0.401	0.265	0.364	0.399	0.282	0.210	0.181	0.366	0.243	0.339
265.0	24.26	16.55	23.24	64.74	267.1	330.8	206.0	 1033	 6276	9999.9	 2761	66.19	15.91	12.12	7.540	7.308	5.177	4.292	3.799	3.804	3.902	2.964	2.996	2.536	2.594	2.452	1.944	2.433	2.219	2.068	1.987	1.668	1.689	1.395	1.220	0.892	0.791	0.606	0.729	0.607	0.654	0.619	0.646	0.694	0.718	0.585	0.483	0.740	0.498	0.441	0.599	0.841	1.603	2.216	1.586	1.042	0.989	1.858	4.624	12.63	30.47	52.84	47.86	24.68	3.913	0.551	0.271	0.315	0.259	0.264	0.355	0.327	0.299	0.377	0.383	0.241	0.275
270.0	29.45	26.98	27.01	34.33	101.9	303.8	373.8	325.1	 1638	 7289	9999.9	 6659	172.7	18.32	12.59	8.575	5.819	5.030	4.449	3.943	3.601	2.805	2.900	2.665	2.770	2.302	1.958	2.249	2.178	2.408	1.968	1.626	1.616	1.534	1.247	1.262	0.838	0.720	0.838	0.674	0.658	0.660	0.646	0.722	0.843	0.698	0.559	0.527	0.568	0.433	1.022	0.513	0.783	1.285	1.979	1.941	1.923	1.309	1.486	3.255	7.720	17.00	29.99	45.42	50.54	33.80	17.82	4.109	0.429	0.366	0.425	0.313	0.291	0.378	0.419	0.356	0.236
275.0	39.59	52.64	44.04	42.61	44.41	105.2	384.3	519.4	453.8	 1706	 4126	9999.9	9999.9	208.9	18.55	11.93	8.540	5.642	5.774	4.505	3.890	3.772	2.936	2.496	2.352	2.317	2.230	2.256	2.255	2.304	2.486	2.316	1.434	1.664	1.478	1.513	1.126	0.991	0.980	0.768	0.673	0.844	0.639	0.886	0.831	0.819	0.813	0.619	0.755	0.621	1.908	0.416	0.580	0.720	1.036	1.199	2.626	3.146	1.988	1.388	2.341	4.412	7.301	11.31	20.14	46.68	83.34	50.46	24.28	2.658	0.582	0.366	0.255	0.362	0.360	0.368	0.306
280.0	56.55	67.34	60.69	54.52	37.38	48.61	167.7	625.1	451.8	463.7	 1055	 5449	9999.9	 2548	125.3	16.97	10.59	7.634	5.933	4.943	4.191	4.057	3.334	2.888	3.453	2.371	2.660	2.258	2.167	2.430	2.183	1.909	1.726	1.687	1.458	1.397	1.218	1.108	1.193	0.795	0.885	0.824	0.698	0.902	0.776	1.082	0.753	0.916	0.827	0.709	2.193	0.510	0.577	0.521	0.664	0.854	1.271	2.173	3.450	2.965	1.968	1.617	2.236	3.249	5.358	12.98	36.87	72.84	97.45	43.74	12.31	0.880	0.385	0.487	0.415	0.531	0.262
285.0	84.49	89.13	92.85	91.91	43.94	42.64	77.19	352.7	780.9	354.9	355.1	 1466	 7735	9999.9	 1928	61.54	15.96	9.326	7.140	5.737	4.450	4.333	3.747	2.974	3.648	2.872	2.706	2.580	2.385	2.076	2.486	1.807	2.074	1.839	1.375	1.540	0.971	1.144	1.216	1.082	0.883	0.853	0.778	0.653	1.209	0.893	1.046	0.893	0.798	0.847	1.661	0.561	0.580	0.519	0.575	0.705	0.856	1.198	1.946	3.456	3.865	2.154	1.432	1.663	1.888	3.900	9.177	22.19	55.56	100.2	98.31	33.20	4.755	0.573	0.354	0.534	0.415
290.0	118.5	138.7	156.7	125.9	78.72	64.26	77.85	167.5	495.6	731.9	421.8	558.1	 2093	 6897	9999.9	 7314	107.6	15.23	9.734	7.741	5.435	4.744	4.233	3.514	3.460	3.220	2.758	2.611	2.805	2.452	2.543	2.118	2.046	1.773	1.709	1.392	1.306	1.128	1.030	1.283	0.928	0.975	0.897	1.010	1.258	1.068	1.071	1.296	1.105	1.167	1.172	0.728	0.829	0.635	0.724	0.654	0.809	0.937	1.161	1.693	2.751	3.911	3.768	3.009	1.982	2.000	3.049	6.166	13.95	29.14	52.58	74.24	67.75	64.64	21.59	5.336	0.779
295.0	157.8	174.6	208.0	160.2	111.4	97.09	115.3	155.7	267.5	552.7	 1133	545.0	807.7	 1822	 3682	9999.9	9999.9	137.6	13.70	11.03	7.109	6.097	4.872	4.726	3.309	3.374	3.336	3.355	3.079	2.532	2.774	2.331	2.246	1.782	1.801	1.152	1.391	1.120	1.233	1.318	1.018	1.015	1.006	1.150	1.152	1.196	1.163	1.584	1.317	1.105	1.170	0.889	1.267	0.803	0.767	0.957	0.828	0.970	1.195	1.255	1.654	1.802	2.784	4.930	4.828	3.130	2.650	3.045	4.620	7.948	13.12	18.50	23.70	59.96	110.3	57.63	32.11
300.0	165.9	206.2	242.0	193.3	142.6	124.5	142.5	179.5	251.8	397.6	 1001	 1232	675.2	772.3	 1098	 4607	9999.9	 7378	91.15	13.79	10.44	6.780	6.022	4.396	3.635	4.234	3.583	3.507	2.935	2.881	2.785	2.749	2.309	1.727	1.688	1.492	1.590	1.274	1.389	1.210	0.910	1.182	1.176	0.992	1.163	0.986	1.270	1.729	1.358	1.399	1.108	1.073	1.300	0.892	1.047	1.032	0.856	1.212	1.335	1.206	1.390	1.615	1.893	3.231	4.941	6.077	5.297	2.976	2.901	3.568	4.714	5.804	6.773	15.52	44.26	85.63	127.3
305.0	167.0	219.3	258.5	225.0	169.4	160.8	176.8	221.2	297.1	387.6	701.7	 1435	 1092	641.3	573.5	 1263	 6483	9999.9	 1239	51.72	14.19	8.121	6.818	5.722	3.825	4.079	3.830	3.682	3.596	2.986	2.958	2.854	2.451	1.908	1.677	1.624	1.555	1.338	1.278	1.226	0.840	1.191	1.127	1.208	1.387	1.311	1.375	1.501	1.411	1.502	1.187	1.043	1.255	1.004	1.279	0.911	1.128	1.389	1.494	1.219	1.431	1.823	2.054	2.518	3.212	4.913	7.321	5.936	4.220	3.347	3.243	2.948	3.137	4.716	10.94	24.18	63.76
310.0	192.4	231.6	302.5	263.6	197.4	175.4	211.5	261.4	349.5	445.8	632.6	 1001	 1431	 1074	573.3	533.9	 1662	 5861	9999.9	 5045	77.48	14.10	8.622	7.437	5.453	4.793	4.078	3.872	3.283	3.261	2.596	2.529	2.227	2.104	1.719	1.544	1.463	1.390	1.262	1.279	1.257	1.264	1.312	1.334	1.354	1.475	1.574	1.427	1.518	1.415	1.254	1.101	1.260	1.262	1.270	1.287	1.254	1.607	1.400	1.362	1.611	1.876	2.125	2.441	2.892	3.430	4.743	5.746	6.357	5.933	4.373	3.373	2.872	2.510	3.761	6.488	15.51
315.0	200.4	274.7	329.8	296.9	229.5	215.7	238.6	301.5	399.6	506.1	666.0	885.2	 1087	 1449	988.2	468.5	570.0	 1441	 3218	9999.9	 7646	102.2	13.57	8.200	7.408	5.711	4.489	4.011	3.532	3.542	2.975	2.747	2.340	2.500	1.651	1.664	1.537	1.809	1.350	1.606	1.282	1.265	1.423	1.510	1.244	1.493	1.500	1.520	1.737	1.757	1.188	1.438	1.265	1.323	1.314	1.390	1.298	1.630	1.663	1.857	1.860	2.039	2.413	3.026	3.155	3.193	3.960	4.103	4.875	6.215	7.628	5.850	3.726	2.497	2.057	3.043	4.700
320.0	210.1	301.8	366.6	353.2	256.3	237.2	284.1	326.3	443.0	564.9	720.3	904.7	 1001	 1225	 1416	647.3	389.8	505.2	858.5	 4176	9999.9	 5910	69.38	11.93	8.259	6.448	5.433	3.695	3.993	3.717	3.189	2.973	2.342	2.083	1.589	1.852	1.751	1.656	1.653	1.629	1.388	1.324	1.194	1.404	1.318	1.467	1.617	1.618	2.059	1.875	1.398	1.469	1.307	1.387	1.286	1.214	1.483	1.742	1.741	1.949	2.155	2.269	2.414	3.263	3.393	3.456	4.095	4.160	4.506	4.696	6.040	7.425	6.509	3.929	2.568	2.458	2.732
325.0	205.2	345.5	469.6	428.4	288.1	270.0	314.2	361.5	469.5	602.0	772.4	930.2	 1031	 1052	 1314	 1059	449.7	349.2	353.5	 1082	 6219	9999.9	928.5	42.88	10.63	7.933	6.726	4.871	4.680	4.122	3.033	3.262	2.718	2.162	2.052	1.901	1.800	1.694	1.533	1.506	1.511	1.343	1.490	1.272	1.591	1.653	1.917	2.193	2.318	2.102	1.780	1.475	1.666	1.653	1.467	1.459	1.518	1.868	1.617	2.343	2.703	2.555	2.591	3.244	3.494	3.853	4.188	3.675	4.413	4.706	4.813	5.140	7.450	6.447	4.483	3.042	2.441
330.0	237.0	371.7	516.9	503.2	367.8	316.6	330.0	387.3	501.5	644.4	816.4	985.5	 1082	 1076	 1065	 1110	865.4	435.9	303.1	407.4	 1563	 5430	9999.9	 6537	61.08	11.80	8.428	5.637	5.071	4.250	3.540	3.431	3.046	2.084	2.378	1.744	1.739	1.664	1.433	1.375	1.469	1.499	1.521	1.397	1.643	1.762	1.869	2.480	2.544	2.399	1.905	1.692	1.789	1.703	1.526	1.702	1.863	2.147	1.990	2.386	2.574	2.834	3.028	3.441	3.952	3.856	4.372	4.109	4.803	4.473	4.624	4.975	5.179	5.387	5.628	5.781	4.607
335.0	236.7	373.5	565.4	576.7	430.9	367.4	381.3	427.8	521.9	677.4	874.3	 1018	 1153	 1140	 1031	922.4	991.7	836.4	398.7	323.0	515.2	 1324	 3246	9999.9	 6069	83.44	12.41	8.262	6.246	5.653	4.830	3.759	2.409	2.579	2.511	2.282	2.062	1.498	1.739	1.715	1.508	1.565	1.677	1.649	1.692	2.037	1.948	2.454	2.803	2.590	2.021	2.241	2.127	1.925	1.973	2.011	2.233	2.147	2.014	2.691	2.507	3.347	3.149	3.185	4.082	4.255	4.348	4.440	4.877	4.652	5.393	4.885	5.008	4.834	4.293	5.000	5.467
340.0	251.9	392.5	580.8	587.8	490.9	415.8	432.3	497.3	557.4	710.2	892.6	 1041	 1148	 1164	 1041	901.0	839.8	 1011	618.0	356.4	321.6	440.7	834.2	 4355	9999.9	 4848	57.07	9.922	8.162	5.931	5.259	4.333	3.181	2.284	2.670	2.205	1.922	1.576	1.538	1.400	1.617	1.176	1.343	1.971	1.661	1.992	1.905	2.422	2.802	2.494	2.058	2.115	2.323	2.280	2.034	2.131	2.356	2.270	2.170	2.660	2.647	2.906	3.324	3.515	4.063	4.171	4.636	4.641	4.953	4.712	5.649	4.856	5.222	4.343	4.245	4.486	4.771
345.0	233.8	382.1	561.3	596.3	525.8	442.7	475.6	527.6	603.7	724.8	912.7	 1055	 1149	 1169	 1076	908.3	775.2	885.5	886.0	477.8	326.2	289.6	322.8	 1108	 6184	9999.9	767.1	38.36	9.646	7.455	6.680	4.474	3.634	2.465	2.375	2.308	1.941	1.643	1.578	1.610	1.755	1.580	1.498	1.797	1.709	2.122	2.081	2.418	2.848	2.414	2.409	2.394	2.045	2.258	2.141	2.228	2.244	2.629	2.669	2.663	2.932	2.867	3.005	3.597	4.020	3.762	4.438	4.897	5.135	4.916	5.381	4.868	4.798	4.515	4.753	4.300	4.694
350.0	225.7	373.8	562.5	597.3	587.7	502.4	507.2	565.0	627.0	753.8	948.6	 1052	 1141	 1172	 1098	949.3	829.3	786.3	851.6	806.0	490.5	351.5	292.8	416.2	 1575	 5638	9999.9	 3271	54.68	11.50	7.407	5.017	4.352	3.360	2.811	2.382	1.991	1.725	1.757	1.685	1.431	1.452	1.541	1.582	1.939	2.077	2.095	2.486	2.758	2.423	2.401	2.462	2.394	2.339	2.303	2.197	2.429	2.648	2.737	2.878	2.765	3.167	3.522	3.806	4.201	3.992	4.373	4.409	5.041	5.022	5.332	4.835	4.909	4.869	4.656	4.869	4.632
355.0	203.1	356.8	521.0	600.2	614.2	572.8	564.3	628.6	707.1	818.3	966.3	 1095	 1136	 1167	 1120	992.9	911.8	830.7	786.6	862.5	842.7	517.6	404.8	365.1	558.5	 1413	 3468	9999.9	 5190	73.80	11.54	7.135	4.637	4.290	3.325	2.487	1.927	2.033	1.967	1.568	1.629	1.609	1.600	1.498	1.656	1.857	1.902	2.350	2.421	2.499	2.533	2.758	2.418	2.436	2.528	2.564	2.534	2.722	3.254	2.839	3.227	3.205	3.619	3.828	4.542	4.377	4.699	4.576	5.067	5.146	5.412	4.784	5.173	4.978	5.214	4.932	5.042
360.0	208.5	358.7	527.2	647.1	652.5	616.2	640.7	684.8	789.9	879.2	 1001	 1101	 1167	 1173	 1127	 1047	974.3	889.9	832.9	832.6	981.7	773.1	523.1	431.3	402.4	525.9	943.3	 4575	9999.9	 4139	51.93	9.754	6.047	4.820	3.738	3.071	2.401	2.092	2.255	1.804	1.642	1.580	1.776	1.416	1.636	1.913	2.017	2.705	2.639	2.426	2.632	2.607	2.823	2.669	3.074	2.846	2.722	2.643	3.229	3.131	3.511	3.854	3.825	3.544	4.409	4.649	5.050	5.017	5.245	4.631	5.237	5.225	5.584	4.961	5.321	5.212	4.928
365.0	237.1	353.1	512.5	649.6	656.1	679.0	698.1	735.3	814.4	944.0	 1050	 1125	 1159	 1186	 1144	 1079	 1013	944.7	899.2	860.9	945.2	996.4	702.6	535.7	439.0	397.9	408.4	 1208	 6421	9999.9	686.1	31.33	7.908	5.889	4.011	3.464	2.615	2.451	2.259	1.892	1.577	1.464	1.647	1.842	1.686	1.920	2.029	2.539	2.726	2.533	2.409	2.621	3.029	2.535	2.838	3.161	3.041	3.111	3.590	3.535	3.587	4.040	3.855	3.955	4.621	4.376	4.677	5.021	5.138	5.172	5.538	5.478	5.477	5.113	5.608	5.785	5.598
370.0	227.1	352.9	496.4	632.5	676.3	716.2	753.9	799.7	859.9	972.4	 1100	 1159	 1192	 1191	 1163	 1100	 1054	 1021	982.0	960.2	947.8	 1005	984.9	752.7	565.9	461.0	371.1	460.4	 1651	 5745	 9949	 2869	44.81	9.469	5.363	4.006	3.223	2.555	2.261	1.990	1.846	1.699	1.756	1.630	1.893	2.177	2.145	2.417	2.655	2.300	2.571	2.812	3.069	2.842	2.982	3.349	3.112	3.100	3.551	3.792	3.787	3.985	4.086	4.277	4.990	4.352	4.770	5.078	5.279	5.240	5.373	5.440	5.681	5.455	5.433	6.357	5.712
375.0	202.1	345.1	478.4	651.3	706.6	774.8	805.1	829.2	903.4	 1007	 1150	 1179	 1200	 1191	 1160	 1120	 1089	 1077	 1065	 1053	 1027	 1007	 1047	 1032	744.6	574.6	451.5	372.7	541.6	 1397	 3665	9999.9	 4279	57.36	9.073	5.088	4.000	2.581	2.443	2.021	1.942	1.816	1.943	1.722	2.094	1.949	2.275	2.323	2.743	2.204	2.627	2.808	3.369	3.378	3.205	2.952	3.363	3.774	3.842	3.911	3.858	4.370	4.419	4.563	5.146	4.482	5.059	5.552	5.610	5.424	5.665	5.682	5.382	5.814	5.420	6.203	6.505
380.0	196.8	340.2	518.1	664.5	723.3	802.8	858.5	890.2	947.4	 1024	 1168	 1193	 1217	 1201	 1166	 1124	 1096	 1108	 1099	 1098	 1077	 1047	 1034	 1108	943.8	674.7	531.0	403.8	344.6	456.8	941.2	 4833	9999.9	 3177	39.12	7.963	5.085	3.704	2.643	2.493	1.962	2.087	2.145	1.828	2.159	2.001	2.017	2.420	2.800	2.469	2.462	2.907	3.461	3.146	3.604	3.372	3.231	3.488	4.092	3.890	3.811	4.324	4.501	4.642	5.128	5.112	5.208	4.991	5.442	5.510	5.197	5.385	5.255	5.635	5.550	5.532	5.863
385.0	218.1	331.6	507.3	670.8	734.3	796.0	881.7	937.1	959.1	 1069	 1162	 1207	 1232	 1195	 1152	 1113	 1105	 1107	 1122	 1126	 1126	 1087	 1064	 1070	 1087	819.5	607.3	467.8	349.5	291.8	339.0	 1245	 6300	9999.9	535.2	21.15	6.836	5.033	3.424	2.801	2.387	2.267	1.725	1.557	2.301	2.063	2.083	2.322	2.607	2.615	2.559	3.363	3.188	3.123	3.441	3.615	3.167	3.595	3.295	4.004	3.819	4.300	4.260	4.728	4.710	4.806	5.197	4.771	5.246	5.255	5.628	5.315	5.375	5.827	5.875	5.817	5.992
390.0	216.2	343.5	513.8	665.0	767.5	832.0	903.4	941.7	993.9	 1083	 1175	 1221	 1214	 1185	 1150	 1101	 1093	 1108	 1128	 1151	 1159	 1136	 1106	 1073	 1068	 1015	770.3	574.1	435.6	329.2	265.6	412.2	 1618	 5496	 7795	 2189	35.34	8.004	4.878	3.350	2.844	2.302	2.057	2.261	2.090	2.154	2.305	2.446	2.587	2.590	2.518	3.485	3.340	3.252	3.463	3.448	3.919	3.839	3.771	4.493	3.896	4.432	4.651	4.736	4.795	4.862	5.151	4.965	5.419	5.180	5.188	5.418	5.468	5.737	5.908	5.748	5.970
395.0	229.1	365.6	506.9	681.4	791.8	867.5	937.3	979.6	 1068	 1131	 1197	 1217	 1231	 1172	 1145	 1102	 1091	 1108	 1121	 1160	 1172	 1171	 1150	 1106	 1061	 1051	 1003	742.2	559.8	440.7	343.4	299.4	499.8	 1327	 3087	 8470	 3322	47.22	7.675	5.121	3.784	3.018	2.144	2.203	2.412	2.321	2.407	2.564	2.522	2.464	2.568	3.131	3.460	3.589	3.645	3.840	4.197	4.089	4.086	4.026	4.226	4.542	4.668	5.270	5.307	5.068	5.149	5.122	5.555	5.576	5.390	5.323	5.305	5.630	5.875	5.990	5.840
400.0	222.8	368.6	530.0	687.1	822.7	902.8	974.3	 1056	 1124	 1170	 1248	 1243	 1249	 1196	 1131	 1093	 1083	 1103	 1129	 1158	 1188	 1203	 1199	 1155	 1108	 1059	 1081	929.3	691.6	553.9	439.7	346.5	307.0	429.4	805.4	 4177	 8736	 2414	30.32	7.857	4.634	3.693	2.390	2.388	2.571	2.454	2.371	2.605	2.665	2.853	2.777	3.185	3.557	3.409	3.744	4.329	4.166	4.394	4.535	4.245	4.584	4.367	4.696	5.097	5.587	5.484	5.298	5.137	5.579	5.341	5.021	5.647	6.002	5.308	5.700	5.834	6.152
405.0	240.3	352.9	557.0	705.5	843.7	963.1	 1043	 1141	 1219	 1280	 1332	 1325	 1305	 1209	 1128	 1082	 1061	 1091	 1130	 1163	 1195	 1222	 1223	 1209	 1172	 1129	 1111	 1088	858.5	699.6	572.0	445.3	338.7	287.6	309.0	 1101	 5376	 7821	443.8	17.27	6.556	4.033	3.229	2.811	2.538	2.361	2.571	2.833	2.996	2.770	2.869	3.374	3.735	3.986	3.957	4.379	4.004	4.616	5.152	4.407	5.080	4.694	4.836	4.713	5.601	5.335	5.344	5.531	5.718	5.328	5.274	5.897	5.350	5.279	5.695	5.648	6.113
410.0	246.5	381.5	577.2	762.7	941.8	 1092	 1226	 1346	 1449	 1478	 1500	 1483	 1423	 1271	 1139	 1067	 1051	 1076	 1115	 1161	 1211	 1252	 1286	 1300	 1300	 1285	 1255	 1253	 1193	 1010	828.9	661.5	511.5	387.5	288.2	391.0	 1402	 4336	 5995	 1889	31.10	7.182	4.318	3.365	3.010	2.705	2.595	2.820	3.052	3.211	3.064	3.893	4.202	4.282	4.114	5.185	5.250	5.754	5.874	5.605	5.978	5.778	6.236	5.763	5.927	6.197	5.906	6.234	6.365	5.551	5.623	5.341	5.580	5.260	5.769	5.441	5.956
