Sample:	'1
File name:	t2025042302–°øµ¥Â«≈.FD3
Run date:	'10:25:50, 04/24/2025
Operator:	Administrator
Comment:	'

Instrument
Model:	F-2700 FL Spectrophotometer
Serial number:	23B8-004
ROM Version:	4J14000 07

Instrument parameters
Measurement type:	3-D scan
Data mode:	Fluorescence
EX  Start WL:	220.0 nm
EX  End WL:	600.0 nm
EX Sampling interval:	5.0 nm
EM  Start WL:	230.0 nm
EM  End WL:	650.0 nm
EM Sampling interval:	5.0 nm
Scan speed:	12000 nm/min
EX Slit:	5.0 nm
EM Slit:	5.0 nm
PMT Voltage:	700 V
Response:	Auto 
Corrected spectra:	Off
Contour interval:	50.000

Peak integration
Integration method:	Rectangular
Sensitivity:	1
Threshold:	1.000

Peaks
No.	ApexEX/EM(nm)	Height(Data)
1	225.0/565.0	53.98
2	225.0/615.0	37.17
3	230.0/345.0	1076
4	230.0/575.0	54.49
5	230.0/625.0	32.86
6	235.0/510.0	264.6
7	240.0/265.0	352.6
8	240.0/525.0	238.7
9	245.0/270.0	354.4
10	245.0/535.0	198.8
11	250.0/275.0	455.5
12	250.0/545.0	164.7
13	255.0/280.0	550.5
14	255.0/560.0	143.8
15	260.0/290.0	545.6
16	260.0/570.0	110.3
17	265.0/585.0	109.5
18	270.0/300.0	989.9
19	270.0/595.0	96.94
20	275.0/305.0	1116
21	275.0/610.0	85.02
22	280.0/310.0	1007
23	280.0/340.0	872.4
24	280.0/625.0	71.76
25	285.0/315.0	946.1
26	285.0/635.0	52.16
27	290.0/325.0	865.4
28	305.0/345.0	560.3
29	315.0/355.0	450.3
30	320.0/360.0	432.8
31	325.0/370.0	403.8
32	330.0/375.0	391.0
33	335.0/380.0	388.4
34	430.0/505.0	32.13
35	460.0/545.0	9.508
36	485.0/265.0	2.010
37	495.0/270.0	1.981
38	505.0/275.0	3.024
39	510.0/280.0	3.377
40	520.0/285.0	3.640
41	530.0/290.0	3.647
42	540.0/295.0	4.724
43	545.0/300.0	5.869
44	555.0/305.0	5.704
45	560.0/310.0	5.475
46	575.0/315.0	5.510
47	580.0/320.0	5.432
48	585.0/325.0	5.237

Data points
	220.0	225.0	230.0	235.0	240.0	245.0	250.0	255.0	260.0	265.0	270.0	275.0	280.0	285.0	290.0	295.0	300.0	305.0	310.0	315.0	320.0	325.0	330.0	335.0	340.0	345.0	350.0	355.0	360.0	365.0	370.0	375.0	380.0	385.0	390.0	395.0	400.0	405.0	410.0	415.0	420.0	425.0	430.0	435.0	440.0	445.0	450.0	455.0	460.0	465.0	470.0	475.0	480.0	485.0	490.0	495.0	500.0	505.0	510.0	515.0	520.0	525.0	530.0	535.0	540.0	545.0	550.0	555.0	560.0	565.0	570.0	575.0	580.0	585.0	590.0	595.0	600.0
230.0	26.41	471.3	1378	494.1	23.25	4.484	3.307	2.912	2.731	2.733	2.293	2.213	2.042	1.692	1.552	1.218	1.201	0.974	0.872	0.695	0.726	0.640	0.589	0.517	0.472	0.489	0.431	0.436	0.402	0.381	0.366	0.315	0.333	0.303	0.262	0.276	0.293	0.246	0.262	0.254	0.261	0.294	0.299	0.226	0.202	0.242	0.709	2.862	5.170	3.877	1.296	0.343	0.169	0.175	0.154	0.164	0.153	0.157	0.158	0.146	0.145	0.146	0.144	0.162	0.162	0.147	0.140	0.152	0.144	0.122	0.133	0.162	0.159	0.168	0.156	0.163	0.161
235.0	61.25	137.7	950.5	1860	490.4	40.40	3.767	3.873	3.464	2.826	2.439	2.455	2.325	1.916	1.730	1.279	1.102	0.866	0.883	0.715	0.795	0.608	0.607	0.599	0.500	0.523	0.571	0.432	0.362	0.353	0.432	0.302	0.308	0.318	0.248	0.270	0.295	0.268	0.269	0.232	0.259	0.287	0.297	0.308	0.328	0.293	0.299	0.853	2.250	4.527	6.453	6.692	3.040	0.611	0.173	0.181	0.132	0.160	0.166	0.166	0.133	0.153	0.145	0.146	0.144	0.149	0.153	0.134	0.147	0.197	0.140	0.163	0.148	0.168	0.168	0.157	0.167
240.0	88.44	96.74	288.8	1631	2221	388.9	21.04	4.361	3.974	3.563	3.113	2.490	2.138	2.221	1.652	1.272	1.193	0.958	0.974	0.702	0.798	0.601	0.656	0.558	0.494	0.517	0.478	0.462	0.442	0.439	0.464	0.317	0.356	0.296	0.283	0.264	0.264	0.240	0.283	0.225	0.260	0.289	0.246	0.280	0.393	0.465	0.367	0.387	0.685	1.467	4.003	9.666	11.92	7.411	2.429	0.324	0.180	0.190	0.150	0.153	0.137	0.174	0.152	0.156	0.171	0.157	0.131	0.136	0.127	0.142	0.153	0.166	0.167	0.160	0.141	0.145	0.153
245.0	75.19	140.6	113.6	565.9	2448	2389	285.4	10.95	4.502	3.368	3.220	2.856	2.455	2.467	1.619	1.403	1.351	1.173	1.001	0.832	0.884	0.609	0.738	0.617	0.625	0.666	0.483	0.462	0.430	0.391	0.387	0.376	0.351	0.341	0.338	0.257	0.238	0.259	0.326	0.204	0.246	0.281	0.229	0.253	0.296	0.521	0.502	0.507	0.437	0.485	1.152	3.439	9.234	14.57	13.60	6.703	1.448	0.228	0.213	0.173	0.173	0.178	0.206	0.189	0.188	0.168	0.143	0.147	0.130	0.139	0.166	0.141	0.146	0.166	0.169	0.152	0.156
250.0	31.97	114.8	193.2	212.0	791.3	2365	3050	1025	59.05	5.195	4.509	3.624	2.958	2.547	2.066	1.684	1.212	1.224	0.979	0.956	0.812	0.767	0.719	0.640	0.610	0.582	0.529	0.452	0.472	0.366	0.458	0.361	0.349	0.344	0.364	0.265	0.254	0.263	0.291	0.266	0.217	0.275	0.232	0.228	0.236	0.333	0.418	0.646	0.822	0.712	0.602	1.016	2.451	4.988	9.294	13.82	17.59	14.33	7.179	1.683	0.279	0.202	0.203	0.187	0.192	0.175	0.177	0.173	0.164	0.140	0.168	0.151	0.168	0.167	0.159	0.166	0.188
255.0	21.93	41.34	142.0	290.6	262.2	603.5	2365	4753	1416	55.95	6.683	5.156	4.191	2.949	2.128	1.950	1.349	1.519	1.256	0.830	0.947	0.883	0.735	0.694	0.669	0.629	0.553	0.485	0.518	0.430	0.491	0.371	0.312	0.294	0.389	0.284	0.308	0.330	0.280	0.342	0.290	0.275	0.260	0.250	0.263	0.262	0.279	0.310	0.540	0.872	1.156	1.212	0.922	1.397	2.264	3.499	7.199	17.63	28.61	24.36	10.27	1.640	0.203	0.251	0.191	0.208	0.198	0.181	0.171	0.170	0.180	0.191	0.202	0.186	0.160	0.187	0.157
260.0	19.02	22.72	57.14	248.0	296.8	190.5	720.0	3895	5362	248.5	26.18	6.660	5.214	4.012	2.460	1.944	1.606	1.591	1.210	0.887	0.974	0.829	0.697	0.671	0.711	0.620	0.605	0.530	0.554	0.420	0.464	0.493	0.377	0.409	0.360	0.336	0.310	0.319	0.235	0.286	0.279	0.314	0.278	0.258	0.257	0.283	0.218	0.217	0.350	0.391	0.745	1.630	1.681	0.944	0.749	1.030	1.904	5.127	14.04	28.44	31.56	21.73	7.518	0.824	0.196	0.222	0.214	0.206	0.175	0.182	0.185	0.226	0.202	0.174	0.172	0.151	0.164
265.0	21.05	18.29	24.47	113.8	352.6	228.7	196.3	1287	5588	5230	198.2	12.50	6.937	4.365	3.019	2.267	1.825	1.720	1.334	1.227	1.092	0.901	0.707	0.923	0.561	0.759	0.587	0.582	0.508	0.468	0.448	0.446	0.358	0.399	0.342	0.413	0.276	0.383	0.247	0.233	0.269	0.306	0.286	0.291	0.257	0.301	0.237	0.248	0.259	0.253	0.294	0.906	1.746	2.010	1.104	0.589	0.698	1.366	3.474	9.150	21.75	39.79	31.12	18.13	3.974	0.436	0.266	0.196	0.207	0.218	0.196	0.219	0.224	0.138	0.187	0.198	0.170
270.0	35.57	33.29	32.20	47.33	165.5	354.4	267.5	335.5	1723	5136	6461	777.0	46.87	6.716	4.383	3.273	2.353	1.966	1.645	1.461	1.207	1.133	0.874	0.895	0.787	0.733	0.652	0.603	0.592	0.566	0.503	0.503	0.509	0.489	0.393	0.397	0.354	0.357	0.321	0.277	0.348	0.329	0.293	0.348	0.332	0.328	0.307	0.282	0.288	0.236	0.251	0.396	0.681	1.167	1.675	1.981	1.587	0.977	1.116	2.339	5.378	12.11	20.33	33.57	34.16	33.82	13.30	4.055	0.419	0.229	0.224	0.229	0.238	0.205	0.254	0.225	0.197
275.0	77.77	93.81	83.07	56.49	64.63	162.8	455.5	314.4	436.1	1267	4425	9338	1100	42.07	6.576	4.392	3.309	2.095	2.017	1.514	1.473	1.256	0.929	1.005	0.846	0.735	0.731	0.702	0.763	0.604	0.596	0.534	0.561	0.576	0.514	0.498	0.371	0.400	0.417	0.315	0.346	0.340	0.361	0.420	0.406	0.475	0.460	0.420	0.434	0.375	0.291	0.310	0.445	0.469	0.699	1.100	2.328	3.024	2.187	1.184	1.565	3.121	4.937	8.097	11.79	28.71	53.06	32.21	20.49	3.950	0.462	0.297	0.288	0.272	0.239	0.288	0.273
280.0	115.7	170.5	160.0	94.18	58.99	75.08	288.0	550.5	265.3	350.1	1246	6914	8916	770.1	18.39	5.629	3.852	2.782	2.540	1.965	1.596	1.270	1.094	1.049	1.040	0.755	0.712	0.602	0.698	0.584	0.630	0.602	0.619	0.585	0.695	0.627	0.497	0.459	0.468	0.446	0.379	0.440	0.427	0.479	0.544	0.598	0.586	0.818	0.617	0.505	0.366	0.372	0.478	0.367	0.478	0.545	1.079	2.254	3.377	2.866	1.419	1.142	1.594	2.218	3.188	7.604	19.77	39.63	63.23	31.17	16.06	1.898	0.335	0.278	0.221	0.317	0.279
285.0	174.5	240.0	236.4	139.1	73.20	60.66	133.6	482.6	524.7	212.3	387.8	2076	8801	7021	114.6	10.14	5.743	3.706	2.873	2.149	1.681	1.375	1.179	1.133	1.075	0.782	0.793	0.733	0.720	0.631	0.658	0.636	0.569	0.688	0.642	0.717	0.491	0.545	0.473	0.479	0.418	0.444	0.473	0.482	0.475	0.707	0.798	0.891	0.874	0.672	0.562	0.562	0.500	0.390	0.385	0.411	0.632	0.918	1.981	3.520	3.640	2.067	1.071	1.065	1.426	2.466	5.139	10.89	28.33	51.06	65.77	26.97	9.501	1.067	0.354	0.265	0.233
290.0	240.3	331.1	332.9	209.1	110.7	81.88	104.6	233.0	545.6	507.4	331.9	651.2	2566	6498	6832	438.7	27.63	6.085	3.919	2.729	2.129	1.828	1.610	1.213	1.110	1.056	0.939	0.755	0.837	0.786	0.677	0.652	0.639	0.718	0.683	0.711	0.604	0.671	0.602	0.496	0.544	0.533	0.550	0.555	0.681	0.827	0.963	1.098	1.077	0.993	0.734	0.746	0.591	0.463	0.513	0.508	0.647	0.658	0.995	1.617	2.566	3.365	3.647	2.647	1.702	1.508	2.138	3.337	7.328	13.85	26.51	37.18	49.06	43.13	18.68	8.653	1.188
295.0	286.7	425.4	419.6	267.1	151.8	120.1	134.7	183.4	314.0	647.2	775.0	462.1	808.9	1647	4285	8315	649.5	25.43	5.799	3.922	2.895	1.953	1.897	1.546	1.329	1.111	0.952	0.790	0.994	0.691	0.626	0.707	0.683	0.796	0.852	0.782	0.681	0.733	0.684	0.613	0.583	0.623	0.553	0.723	0.818	0.977	1.139	1.312	1.290	1.177	0.891	0.893	0.792	0.557	0.639	0.662	0.780	0.694	1.084	1.153	1.558	1.811	2.587	4.243	4.724	3.426	2.134	2.252	2.925	4.368	7.053	9.117	12.91	21.98	46.00	65.10	30.10
300.0	306.8	446.3	464.1	317.5	190.9	154.6	174.7	209.8	284.3	477.1	989.9	721.5	491.3	578.7	1202	5887	5689	487.6	12.19	4.666	3.573	2.361	2.030	1.671	1.412	1.319	0.968	0.951	0.872	0.807	0.655	0.753	0.723	0.800	0.828	0.920	0.785	0.810	0.716	0.737	0.545	0.621	0.681	0.770	0.830	0.962	1.153	1.622	1.528	1.231	1.019	0.940	0.898	0.756	0.698	0.879	0.905	0.949	1.095	1.218	1.486	1.580	1.943	2.660	4.224	5.869	4.532	2.909	2.382	2.503	2.860	3.092	3.785	5.856	13.66	34.33	57.93
305.0	329.5	469.7	491.2	347.7	230.2	192.3	225.9	268.1	328.0	443.9	798.7	1116	612.2	410.7	437.9	1719	6619	4724	71.36	7.446	4.609	2.823	2.238	2.061	1.666	1.544	1.051	0.895	0.899	0.934	0.799	0.757	0.811	0.842	0.995	0.853	0.861	0.776	0.703	0.681	0.571	0.592	0.706	0.782	0.822	1.053	1.167	1.502	1.678	1.303	1.093	1.120	1.008	0.953	0.900	1.061	1.116	1.140	1.333	1.364	1.755	1.706	2.161	2.421	2.964	4.491	5.599	5.704	3.794	2.732	2.415	2.196	2.123	2.369	3.989	8.876	19.56
310.0	318.7	471.6	500.0	370.7	263.7	232.4	266.7	317.8	393.0	490.1	655.7	946.3	1007	565.6	331.4	513.3	1901	4783	5012	1242	20.10	4.395	2.976	2.078	1.925	1.624	1.318	1.217	1.097	1.017	0.805	0.783	0.891	0.873	0.845	0.935	0.860	0.777	0.645	0.678	0.695	0.621	0.645	0.797	0.841	1.062	1.263	1.504	1.719	1.490	1.225	1.233	1.196	1.144	1.123	1.058	1.254	1.414	1.514	1.737	1.898	2.015	2.303	2.611	2.772	3.222	4.015	4.889	5.475	5.385	4.291	2.654	2.184	1.981	1.901	3.035	5.131
315.0	314.1	481.1	517.2	380.5	296.3	266.7	308.6	359.7	440.7	536.5	655.6	779.8	898.6	946.1	455.2	295.6	537.3	1168	3141	6470	484.1	20.09	4.583	3.010	2.443	1.827	1.527	1.379	1.180	1.149	0.849	0.869	0.801	0.831	0.845	0.861	0.811	0.834	0.688	0.662	0.602	0.640	0.671	0.793	0.904	1.065	1.210	1.516	1.704	1.467	1.210	1.363	1.255	1.295	1.190	1.272	1.383	1.446	1.676	1.812	2.142	2.266	2.394	2.766	2.774	3.038	3.772	3.692	4.040	4.560	5.421	5.510	3.828	2.293	1.926	1.839	2.126
320.0	331.2	530.8	578.4	448.7	341.2	307.1	340.4	390.6	472.6	578.8	687.7	761.0	798.8	927.9	735.3	321.4	282.8	366.7	848.4	4347	4132	383.4	9.683	3.870	3.151	1.941	1.679	1.580	1.348	1.161	1.015	0.844	0.939	0.786	0.728	0.720	0.744	0.846	0.627	0.728	0.581	0.680	0.805	0.764	0.811	1.163	1.467	1.794	1.730	1.638	1.421	1.361	1.397	1.398	1.311	1.396	1.541	1.730	1.916	2.031	2.238	2.339	2.707	2.905	3.221	3.195	3.464	3.902	3.919	3.800	4.315	5.072	5.432	4.404	2.545	1.841	1.712
325.0	393.5	597.6	691.8	553.4	385.5	349.7	371.9	416.5	493.3	608.7	718.9	795.2	796.0	789.8	865.4	497.6	269.4	219.3	276.6	1231	4665	3665	57.30	6.524	3.430	2.409	1.966	1.492	1.307	1.252	1.034	0.892	0.934	0.844	0.837	0.767	0.770	0.712	0.802	0.738	0.698	0.688	0.695	0.854	0.974	1.473	1.619	2.118	2.197	2.009	1.878	1.704	1.509	1.468	1.350	1.444	1.703	1.795	1.933	2.165	2.423	2.546	2.780	3.133	3.397	3.602	3.636	3.669	3.937	3.847	3.778	3.936	4.757	5.237	4.583	2.898	2.073
330.0	422.9	695.8	870.6	719.0	485.0	397.8	395.3	448.3	531.3	643.4	753.1	822.0	828.4	758.3	724.6	687.6	438.3	235.6	179.9	359.8	1333	3505	3962	1096	17.57	3.785	2.619	1.903	1.665	1.360	1.222	1.015	0.912	0.943	0.896	0.836	0.812	0.812	0.769	0.715	0.647	0.720	0.736	0.994	1.081	1.573	1.787	2.364	2.707	2.451	2.295	2.255	1.998	1.733	1.731	1.629	1.816	1.881	2.020	2.241	2.462	2.551	2.903	3.229	3.503	3.566	3.749	3.821	4.119	4.156	4.082	3.794	3.903	4.041	4.312	4.194	4.102
335.0	442.2	764.5	980.7	861.6	585.3	466.1	443.1	484.5	562.3	666.1	770.9	859.4	871.2	789.0	683.0	604.2	641.9	386.4	204.2	198.9	369.4	847.3	2478	5225	407.3	20.28	3.793	2.807	2.029	1.549	1.412	1.155	0.917	1.000	0.950	0.895	0.825	0.744	0.732	0.598	0.661	0.772	0.743	1.024	1.133	1.510	1.938	2.561	2.928	2.794	2.469	2.689	2.357	2.096	1.897	1.741	2.011	2.174	2.252	2.307	2.624	2.677	3.194	3.127	3.445	3.624	3.756	4.185	4.423	4.227	4.476	3.938	3.873	3.878	3.590	3.577	3.965
340.0	437.4	785.2	1022	921.8	656.5	518.4	478.6	499.5	580.4	670.2	788.2	862.8	872.4	806.9	697.1	569.9	583.1	553.0	277.2	185.3	175.5	247.1	659.1	3455	4589	350.0	9.873	3.520	2.698	1.891	1.607	1.246	1.295	0.997	0.973	0.887	0.977	0.778	0.781	0.646	0.726	0.724	0.777	1.010	1.063	1.590	2.143	2.716	3.037	3.002	2.765	2.744	2.586	2.164	2.056	1.966	2.196	2.274	2.278	2.382	2.553	2.624	3.047	3.283	3.316	3.607	3.809	4.095	4.138	4.075	4.226	4.026	4.092	3.902	3.349	3.364	3.467
345.0	446.8	772.1	1076	944.2	711.2	552.6	499.3	511.3	585.8	677.3	771.9	845.6	855.8	809.8	699.5	570.2	507.9	560.3	420.4	214.7	152.2	133.7	200.8	968.5	4008	3148	51.21	5.483	3.180	2.268	1.966	1.257	1.214	1.032	0.896	0.778	0.894	0.766	0.810	0.679	0.719	0.721	0.868	0.984	1.127	1.531	2.033	2.557	3.120	3.071	2.951	3.027	2.817	2.313	2.364	2.123	2.314	2.308	2.282	2.706	2.562	2.771	3.207	3.239	3.271	3.680	3.651	3.699	4.159	4.057	4.111	4.205	3.800	4.008	3.606	3.520	3.440
350.0	415.3	729.0	996.1	965.7	754.7	604.8	548.0	539.6	593.3	677.5	764.7	817.3	835.0	792.0	703.7	590.2	504.3	467.4	478.4	357.1	196.2	138.9	125.0	271.9	1119	2802	3219	970.3	17.36	3.105	2.307	1.706	1.327	1.210	1.040	0.882	0.812	0.754	0.820	0.716	0.712	0.727	0.816	0.922	1.052	1.462	1.809	2.452	2.934	2.901	2.954	3.061	2.868	2.545	2.568	2.299	2.324	2.370	2.458	2.514	2.676	2.726	3.153	3.277	3.328	3.544	3.628	3.748	3.926	4.016	4.035	4.037	3.875	4.099	3.871	3.688	3.597
355.0	398.4	700.6	951.8	962.6	776.2	664.2	597.9	580.1	626.8	689.3	752.0	795.8	810.7	778.7	706.1	608.5	525.9	458.0	411.6	450.3	326.3	181.3	140.0	142.4	304.2	676.1	1881	4101	382.1	20.20	3.388	2.186	1.541	1.267	1.119	0.917	0.771	0.813	0.687	0.651	0.674	0.648	0.850	0.860	1.063	1.362	1.678	2.540	2.799	2.845	2.721	3.130	2.982	2.926	2.627	2.527	2.776	2.661	2.493	2.446	2.738	2.786	3.427	3.162	3.488	3.668	3.682	3.676	3.920	3.972	4.063	4.106	4.128	3.969	3.680	3.661	3.419
360.0	398.4	645.1	915.0	939.0	803.6	695.1	633.8	621.7	653.0	706.7	749.7	791.2	802.4	774.3	707.5	616.6	543.8	477.2	414.3	414.7	432.8	258.1	169.6	133.4	139.6	198.4	495.9	2627	3146	339.4	10.39	2.913	2.108	1.476	1.076	1.165	0.929	0.832	0.813	0.641	0.779	0.706	0.696	0.866	1.008	1.417	1.686	2.104	2.667	2.661	2.699	3.010	2.960	3.021	2.668	2.747	2.843	2.788	2.731	2.553	3.006	3.009	3.423	3.287	3.524	3.716	3.469	3.773	3.963	3.786	4.046	4.014	4.146	4.099	3.882	3.666	3.489
365.0	392.6	625.6	874.6	911.0	822.3	740.4	676.3	651.2	669.8	722.5	758.1	774.6	786.4	766.9	705.6	631.1	562.4	494.2	435.3	394.0	423.7	371.1	217.8	153.5	122.3	108.9	153.4	734.7	3113	2914	48.75	5.283	2.642	1.649	1.393	1.220	0.883	0.826	0.705	0.698	0.728	0.729	0.803	0.865	1.102	1.424	1.488	2.146	2.486	2.717	2.603	3.035	3.206	2.877	2.894	2.863	2.930	2.942	3.033	2.631	3.104	3.180	3.366	3.436	3.644	3.496	3.313	3.683	3.639	3.705	3.904	3.701	3.997	4.054	3.894	3.746	3.580
370.0	363.3	588.9	825.4	889.0	839.5	760.7	709.5	683.5	695.4	729.6	762.1	770.5	775.0	750.9	699.1	632.0	574.8	519.0	464.6	415.8	388.6	403.8	338.0	213.9	150.9	114.2	98.23	206.6	871.0	2426	2883	909.0	16.17	2.617	1.776	1.324	0.970	0.941	0.902	0.825	0.735	0.750	0.782	0.847	1.074	1.375	1.515	2.096	2.417	2.425	2.611	2.992	3.124	3.103	2.903	2.929	3.007	3.146	3.140	2.951	3.269	3.256	3.201	3.493	3.410	3.469	3.402	3.419	3.627	3.763	3.788	3.782	3.673	3.874	3.854	3.779	3.699
375.0	350.4	577.9	779.4	874.3	856.2	795.8	737.9	707.0	715.2	733.5	759.4	767.3	748.7	736.2	682.6	628.6	585.1	538.4	486.6	444.4	401.3	374.0	391.0	328.4	199.1	144.9	110.4	109.6	237.6	583.2	1633	3545	335.5	18.89	2.473	1.720	1.249	1.080	1.019	0.850	0.752	0.867	0.822	0.884	1.114	1.244	1.523	2.017	2.388	2.305	2.492	3.151	3.152	3.063	3.028	3.175	3.092	2.939	3.238	3.137	3.327	3.234	3.311	3.404	3.379	3.375	3.726	3.456	3.475	3.758	3.838	3.829	3.762	3.775	3.712	3.637	3.832
380.0	355.0	555.7	752.9	869.5	851.8	804.6	759.6	718.1	723.7	732.7	750.0	755.1	738.9	719.3	675.2	627.7	586.5	546.8	505.9	461.3	418.1	379.6	366.8	388.4	266.6	175.2	131.8	103.4	109.7	168.9	428.7	2228	2709	287.9	9.339	2.323	1.513	1.168	1.048	0.922	0.804	0.877	0.821	0.948	1.122	1.208	1.564	2.119	2.327	2.252	2.504	3.091	3.263	3.303	3.145	3.266	3.279	3.084	3.340	3.255	3.318	3.250	3.340	3.381	3.247	3.580	3.641	3.480	3.681	3.726	3.662	3.779	3.918	3.671	3.895	3.502	3.996
385.0	335.8	538.3	750.9	868.7	845.5	807.4	774.4	734.4	726.6	741.8	742.8	741.4	727.1	704.5	666.4	622.1	584.5	550.0	518.5	470.1	434.2	393.7	361.7	375.8	344.5	218.6	155.6	119.7	95.69	90.20	132.2	615.0	2446	2410	215.2	4.368	1.771	1.471	1.171	1.169	0.834	0.803	0.897	0.896	1.101	1.211	1.550	2.011	2.444	2.187	2.465	2.820	3.087	3.184	3.361	3.292	3.205	3.085	3.133	3.190	3.508	3.205	3.364	3.451	3.211	3.570	3.522	3.410	3.670	3.554	3.572	3.801	3.614	3.719	3.732	3.827	3.871
390.0	335.0	535.0	716.7	834.9	838.4	813.2	776.8	740.1	731.4	727.2	734.3	726.9	706.9	693.4	650.1	610.0	581.8	546.8	524.3	486.3	447.0	412.3	376.4	353.1	355.4	309.4	207.0	150.5	116.7	92.21	80.47	172.0	675.5	1835	2170	685.5	13.66	2.082	1.481	1.147	0.856	0.941	0.871	0.891	1.113	1.288	1.449	1.742	2.211	2.195	2.297	2.847	3.118	3.069	3.153	3.201	3.347	3.204	3.278	3.175	3.375	3.296	3.386	3.474	3.297	3.479	3.341	3.353	3.464	3.537	3.441	3.692	3.507	3.622	3.733	3.548	3.858
395.0	331.3	518.2	703.1	826.6	838.5	809.3	773.0	748.0	735.5	730.4	717.7	703.1	698.2	669.8	635.9	600.0	567.4	542.5	516.6	487.6	458.1	428.1	393.8	360.3	334.0	337.4	293.4	198.1	147.1	115.4	88.58	87.44	182.2	439.1	1187	2550	277.4	15.95	2.163	1.466	1.054	1.021	0.958	0.986	1.038	1.188	1.401	1.760	2.132	2.112	2.377	2.827	2.793	3.066	3.302	2.973	3.163	3.190	3.328	3.235	3.250	3.277	3.261	3.202	3.432	3.153	3.305	3.168	3.216	3.489	3.301	3.493	3.506	3.724	3.634	3.747	3.575
400.0	310.7	512.9	698.1	797.2	835.8	809.8	775.7	746.0	727.0	722.6	712.1	702.5	686.4	656.1	623.2	585.0	558.6	535.9	509.9	486.1	460.0	431.4	406.8	371.4	335.8	322.8	331.0	253.1	176.9	137.0	104.9	81.66	80.58	126.3	312.7	1582	2182	242.4	7.812	1.829	1.330	1.081	1.012	1.166	1.059	1.370	1.397	1.754	1.854	2.098	2.436	2.772	3.114	2.958	3.086	3.014	3.447	3.375	3.389	3.201	3.322	3.402	3.218	2.916	3.181	3.254	3.166	2.960	3.344	3.204	3.289	3.305	3.432	3.490	3.528	3.721	3.590
405.0	319.7	505.9	668.8	794.3	814.0	795.7	772.4	754.9	731.8	716.8	702.6	687.4	676.6	645.0	615.8	569.2	546.6	521.5	501.5	480.9	459.0	435.0	412.3	377.3	347.8	317.8	317.7	305.2	216.4	158.9	123.4	91.72	70.57	63.53	95.03	432.8	1771	1957	183.3	3.346	1.898	1.162	1.169	0.973	1.054	1.238	1.339	1.832	2.012	1.990	2.296	2.720	3.084	2.920	3.054	3.003	3.401	3.214	3.299	3.086	3.415	3.133	3.088	3.405	3.317	3.081	3.029	3.092	3.263	3.139	3.423	3.362	3.480	3.525	3.351	3.475	3.540
410.0	301.5	475.7	658.2	759.5	801.1	785.5	763.2	743.8	721.9	708.0	689.8	682.6	656.3	624.8	589.5	551.9	523.9	499.9	481.1	466.9	451.6	429.7	414.0	387.6	358.3	327.4	305.6	303.7	277.3	202.2	147.4	110.6	81.87	60.35	53.95	119.1	481.9	1383	1638	539.5	12.45	1.723	1.329	1.175	1.277	1.244	1.369	1.707	2.002	1.938	2.173	2.638	2.975	2.878	3.158	3.106	3.304	3.277	3.429	3.133	3.325	3.188	3.246	3.314	3.225	3.105	3.123	3.025	3.162	2.973	3.315	3.284	3.505	3.436	3.395	3.321	3.344
415.0	273.3	462.3	649.2	735.4	766.5	768.2	748.3	735.9	715.1	692.9	672.6	652.6	630.1	601.4	565.8	524.3	495.0	477.8	457.9	446.3	435.3	421.8	405.6	383.3	360.2	330.7	307.0	287.0	288.2	257.1	177.9	130.6	96.09	70.72	52.82	54.30	127.1	327.2	852.0	1844	251.6	15.03	1.673	1.391	1.278	1.375	1.421	1.609	1.809	1.944	2.209	2.533	2.826	2.839	3.084	3.030	3.090	3.210	3.105	3.124	3.320	3.050	2.985	3.094	3.080	3.003	3.069	3.028	3.006	3.100	3.173	3.031	3.126	3.216	3.312	3.253	3.150
