Sample:	'1
File name:	w091913¶«Õ¢´åÇÅ.FD3
Run date:	'10:04:30, 09/20/2024
Operator:	horiz
Comment:	'

Instrument
Model:	F-2700 FL Spectrophotometer
Serial number:	23B8-004
ROM Version:	4J14000 07

Instrument parameters
Measurement type:	3-D scan
Data mode:	Fluorescence
EX  Start WL:	220.0 nm
EX  End WL:	600.0 nm
EX Sampling interval:	5.0 nm
EM  Start WL:	230.0 nm
EM  End WL:	650.0 nm
EM Sampling interval:	5.0 nm
Scan speed:	12000 nm/min
EX Slit:	5.0 nm
EM Slit:	5.0 nm
PMT Voltage:	700 V
Response:	Auto 
Corrected spectra:	Off
Contour interval:	50.000

Peak integration
Integration method:	Rectangular
Sensitivity:	1
Threshold:	1.000

Peaks
No.	ApexEX/EM(nm)	Height(Data)
1	225.0/605.0	42.42
2	230.0/345.0	902.5
3	230.0/580.0	44.83
4	235.0/360.0	876.9
5	235.0/515.0	230.0
6	240.0/525.0	217.9
7	245.0/535.0	186.0
8	250.0/550.0	149.1
9	255.0/565.0	133.5
10	260.0/285.0	588.3
11	260.0/575.0	112.0
12	265.0/370.0	709.1
13	265.0/585.0	103.7
14	270.0/300.0	952.0
15	270.0/600.0	90.56
16	275.0/305.0	1032
17	275.0/340.0	774.7
18	275.0/610.0	76.96
19	280.0/310.0	936.2
20	280.0/625.0	69.83
21	285.0/315.0	886.5
22	285.0/635.0	52.27
23	290.0/325.0	832.1
24	300.0/335.0	590.2
25	305.0/345.0	517.6
26	310.0/350.0	438.3
27	315.0/355.0	414.6
28	320.0/365.0	388.6
29	325.0/370.0	360.7
30	330.0/375.0	349.4
31	335.0/380.0	344.5
32	340.0/390.0	309.2
33	345.0/395.0	292.7
34	350.0/400.0	286.4
35	360.0/415.0	234.9
36	365.0/420.0	221.3
37	415.0/485.0	47.07
38	430.0/505.0	30.11
39	440.0/520.0	21.69
40	455.0/540.0	12.52
41	520.0/285.0	4.999
42	530.0/290.0	4.777
43	540.0/295.0	5.879
44	545.0/300.0	6.754
45	555.0/305.0	6.709
46	560.0/310.0	6.248
47	570.0/315.0	6.279
48	580.0/320.0	6.334
49	585.0/325.0	6.106

Wavelength data
No.	EX/EM(nm)	Height(Data)	

Data points
	220.0	225.0	230.0	235.0	240.0	245.0	250.0	255.0	260.0	265.0	270.0	275.0	280.0	285.0	290.0	295.0	300.0	305.0	310.0	315.0	320.0	325.0	330.0	335.0	340.0	345.0	350.0	355.0	360.0	365.0	370.0	375.0	380.0	385.0	390.0	395.0	400.0	405.0	410.0	415.0	420.0	425.0	430.0	435.0	440.0	445.0	450.0	455.0	460.0	465.0	470.0	475.0	480.0	485.0	490.0	495.0	500.0	505.0	510.0	515.0	520.0	525.0	530.0	535.0	540.0	545.0	550.0	555.0	560.0	565.0	570.0	575.0	580.0	585.0	590.0	595.0	600.0
230.0	98.28	2814	6743	2089	76.45	13.62	11.34	9.731	9.442	8.588	8.380	8.415	7.325	6.557	5.919	5.332	4.839	4.628	4.239	4.087	3.765	3.485	3.190	3.097	3.105	2.758	2.528	2.420	2.334	2.372	2.232	2.063	2.052	1.992	1.750	1.640	1.642	1.465	1.383	1.303	1.179	1.215	1.173	1.145	1.069	1.107	3.475	14.01	25.60	18.73	7.089	1.668	0.844	0.743	0.714	0.753	0.719	0.725	0.669	0.580	0.582	0.580	0.533	0.579	0.506	0.522	0.474	0.438	0.462	0.441	0.382	0.442	0.403	0.362	0.402	0.359	0.376
235.0	106.3	791.2	5179	8915	2902	152.8	17.94	12.38	10.69	10.48	9.959	9.128	7.723	7.306	7.031	5.932	5.042	4.543	4.279	4.562	4.030	3.513	3.506	3.274	2.898	3.086	2.598	2.631	2.394	2.427	2.157	2.213	2.062	2.020	1.832	1.634	1.627	1.418	1.432	1.362	1.308	1.231	1.248	1.269	1.139	1.093	1.675	4.316	10.76	21.01	32.67	24.59	15.10	3.349	0.846	0.824	0.787	0.728	0.682	0.671	0.551	0.540	0.588	0.594	0.690	0.476	0.477	0.494	0.464	0.382	0.408	0.435	0.418	0.332	0.453	0.391	0.340
240.0	138.4	256.6	1676	8646	9999.9	2402	89.02	16.91	13.07	12.11	11.32	10.49	8.125	8.144	7.253	6.382	5.378	4.949	4.423	4.470	4.004	3.726	3.468	3.561	3.185	3.073	2.902	2.610	2.380	2.434	2.382	2.114	2.159	2.129	1.923	1.617	1.658	1.594	1.366	1.389	1.468	1.216	1.233	1.261	1.263	1.296	1.279	1.767	3.304	6.623	18.90	45.24	60.24	25.14	13.31	2.269	0.797	0.782	0.621	0.690	0.542	0.506	0.648	0.575	0.729	0.554	0.471	0.529	0.555	0.486	0.468	0.448	0.379	0.313	0.451	0.359	0.418
245.0	120.0	217.5	457.1	3189	9999.9	9999.9	400.9	48.99	19.16	15.00	13.73	11.87	9.603	8.842	7.795	6.564	6.025	5.247	5.121	4.546	4.021	3.595	3.450	3.515	3.094	2.953	2.846	2.675	2.617	2.522	2.361	2.360	2.039	2.009	1.917	1.816	1.722	1.642	1.446	1.410	1.366	1.198	1.176	1.168	1.249	1.500	1.529	1.606	1.587	2.193	5.120	16.07	43.62	71.54	75.00	23.35	10.27	1.379	0.753	0.781	0.672	0.600	0.595	0.629	0.627	0.616	0.551	0.521	0.532	0.502	0.423	0.523	0.405	0.416	0.425	0.387	0.436
250.0	74.95	174.2	307.0	827.5	3665	9999.9	9999.9	5682	128.6	24.35	19.53	16.42	12.83	10.95	8.828	7.966	6.675	5.908	5.629	5.214	4.379	3.823	3.603	3.816	3.539	3.350	3.145	3.145	2.772	2.725	2.488	2.393	2.115	2.084	1.878	1.787	1.858	1.709	1.482	1.445	1.490	1.343	1.323	1.217	1.254	1.290	1.236	1.617	1.728	1.721	2.097	4.354	11.04	23.60	45.78	67.95	94.60	78.92	17.74	9.139	1.607	0.779	0.724	0.745	0.695	0.668	0.598	0.561	0.542	0.489	0.492	0.483	0.504	0.436	0.441	0.424	0.437
255.0	61.90	83.27	216.3	472.3	925.5	2661	9999.9	9999.9	8734	167.3	32.84	23.72	18.28	13.99	10.39	8.794	8.040	6.721	6.156	5.796	5.247	4.134	4.053	4.014	3.632	3.330	3.414	3.236	3.039	2.905	2.864	2.326	2.128	2.093	2.031	1.807	1.653	1.640	1.658	1.489	1.348	1.386	1.322	1.290	1.269	1.343	1.108	1.212	1.149	1.751	2.113	2.601	3.409	6.106	11.00	16.61	34.36	84.27	146.5	154.6	27.99	12.28	1.352	0.911	0.769	0.787	0.670	0.498	0.587	0.521	0.550	0.493	0.565	0.426	0.486	0.489	0.465
260.0	75.06	63.38	109.2	342.9	468.4	678.1	3410	9999.9	9999.9	1817	126.5	33.76	24.77	17.51	13.67	10.62	8.825	7.357	7.387	6.152	6.213	4.852	4.421	4.380	3.870	3.836	3.562	3.309	3.453	2.964	2.834	2.586	2.170	2.160	2.075	1.910	1.733	1.822	1.643	1.612	1.589	1.545	1.399	1.417	1.328	1.321	1.196	1.208	1.020	1.210	1.699	2.523	2.988	2.719	3.326	4.493	8.677	22.54	63.25	146.5	200.9	165.5	24.44	7.617	1.147	0.856	0.708	0.733	0.638	0.644	0.638	0.585	0.526	0.525	0.591	0.477	0.510
265.0	77.74	67.93	71.49	171.4	442.5	368.8	850.0	5062	9999.9	9999.9	1487	87.33	32.59	23.62	17.87	12.64	11.08	9.126	8.066	6.962	6.356	5.157	4.956	4.949	4.156	3.846	3.830	3.536	3.657	3.183	2.937	2.847	2.362	2.373	2.039	1.814	2.007	1.773	1.646	1.757	1.592	1.684	1.525	1.499	1.333	1.426	1.247	1.267	1.145	1.053	1.131	1.547	2.676	3.109	2.596	2.084	2.801	5.958	15.50	42.21	108.3	214.7	235.4	149.2	19.46	3.374	1.043	0.901	0.823	0.671	0.724	0.709	0.601	0.519	0.570	0.609	0.567
270.0	96.57	80.00	65.15	83.31	221.1	432.8	434.3	1249	5431	9999.9	9999.9	6018	109.9	42.04	27.13	18.43	14.61	11.85	9.575	8.094	7.385	6.352	5.504	5.467	4.974	4.481	4.078	3.864	3.607	3.415	3.485	3.253	2.750	2.670	2.289	2.203	2.053	1.985	1.907	1.772	1.728	1.759	1.666	1.597	1.609	1.549	1.403	1.334	1.288	1.107	1.050	1.211	1.504	2.130	2.615	2.907	2.841	2.785	4.517	10.47	25.92	60.27	115.2	188.0	217.6	187.4	110.7	13.61	4.226	1.036	0.941	0.812	0.775	0.692	0.662	0.642	0.647
275.0	124.6	114.1	85.02	73.19	99.33	211.3	539.1	541.6	1308	2931	9999.9	9999.9	8511	132.3	46.10	29.22	21.30	15.86	12.91	10.35	8.698	7.431	6.411	6.164	5.354	5.424	4.825	4.170	4.149	3.927	3.759	3.683	3.123	3.204	2.819	2.505	2.087	2.175	2.032	2.157	1.901	1.794	1.904	1.684	1.740	1.613	1.560	1.449	1.306	1.259	1.112	1.156	1.344	1.332	1.463	1.932	3.006	4.534	3.868	3.699	6.722	14.42	26.69	43.62	62.87	142.8	312.6	379.0	181.4	20.46	2.984	1.185	1.093	0.986	0.763	0.791	0.725
280.0	161.3	144.2	118.7	82.49	78.14	106.0	345.6	635.3	484.4	778.9	3757	9999.9	9999.9	6265	104.3	41.68	28.39	20.17	15.27	12.48	10.50	8.432	7.671	6.848	6.547	6.015	5.552	4.673	4.593	4.513	3.983	4.078	3.638	3.348	2.995	2.942	2.183	2.353	2.168	1.999	2.025	1.838	1.881	1.744	1.847	1.704	1.716	1.611	1.558	1.353	1.267	1.251	1.344	1.448	1.330	1.359	1.863	3.114	4.209	4.507	3.595	4.397	7.169	11.04	15.60	35.24	101.6	252.6	402.1	252.2	31.36	15.10	1.806	1.250	0.975	0.991	0.849
285.0	193.7	201.2	161.1	116.4	86.92	85.51	166.7	528.7	588.3	344.3	1019	5437	9999.9	9999.9	903.3	82.59	38.01	27.39	19.43	15.02	13.27	9.265	8.879	7.229	6.630	6.278	5.615	5.249	5.093	4.610	4.187	4.222	3.752	3.494	3.171	3.072	2.609	2.657	2.224	1.974	1.999	1.981	2.030	1.865	1.973	2.122	2.029	1.964	1.669	1.533	1.451	1.452	1.398	1.399	1.417	1.321	1.451	1.965	2.566	4.142	4.999	3.639	3.255	3.759	4.782	9.371	24.44	62.80	149.7	307.3	429.8	234.3	26.47	9.136	1.497	1.350	1.099
290.0	236.8	259.4	226.9	153.4	112.9	106.3	124.6	256.9	572.0	611.8	482.6	1447	5613	9999.9	9999.9	9999.9	274.4	44.26	28.67	20.48	16.25	12.29	10.52	8.820	7.812	7.316	6.398	5.997	5.521	5.210	4.675	4.447	3.915	3.852	3.467	3.148	2.941	2.918	2.477	2.144	2.200	2.033	1.970	1.985	2.042	2.244	2.157	2.139	2.026	1.722	1.618	1.668	1.434	1.413	1.579	1.464	1.557	1.638	1.746	2.289	3.216	4.274	4.777	4.178	3.442	3.921	7.157	15.72	35.63	76.80	153.7	245.1	331.9	322.1	141.8	18.33	8.479
295.0	281.5	305.7	270.9	199.0	148.7	127.8	146.0	186.7	302.4	677.8	780.1	626.5	1489	2800	9999.9	9999.9	5450	88.58	46.17	30.63	21.40	16.71	12.93	11.20	9.625	8.526	7.503	6.944	6.143	5.526	5.205	5.160	4.393	3.993	3.667	3.302	3.238	3.088	2.875	2.482	2.453	2.359	2.143	2.179	2.171	2.436	2.380	2.335	2.181	2.020	1.813	1.938	1.653	1.655	1.783	1.619	1.748	1.763	1.764	1.906	2.168	2.763	3.248	4.833	5.879	4.885	3.985	5.481	9.908	19.03	36.02	56.47	81.13	135.1	310.1	502.6	257.7
300.0	315.5	362.3	329.7	232.8	169.0	152.9	169.3	197.6	260.2	466.8	952.0	704.0	624.6	850.2	3300	9999.9	9999.9	4426	79.41	44.04	29.38	21.08	16.33	12.89	10.94	9.313	8.662	7.517	7.040	6.290	5.515	5.240	4.611	4.262	3.937	3.615	3.390	3.275	2.910	2.697	2.532	2.714	2.356	2.252	2.346	2.525	2.518	2.536	2.317	2.176	1.909	2.088	1.939	1.946	1.862	1.783	1.913	2.003	1.875	2.271	2.175	2.346	2.598	3.218	4.815	6.754	5.661	4.267	4.790	6.405	9.999	14.54	20.15	32.61	84.74	233.6	452.7
305.0	332.3	368.2	355.6	252.4	195.8	182.1	204.2	238.4	294.2	404.8	732.4	1032	592.2	449.1	947.2	4611	9999.9	9999.9	3262	70.63	40.89	26.86	20.41	16.54	13.27	10.88	9.450	8.365	7.949	7.006	6.165	5.823	5.357	4.561	4.419	3.950	3.802	3.649	3.249	2.735	2.898	2.700	2.557	2.466	2.497	2.595	2.661	2.719	2.528	2.268	1.955	2.148	2.069	1.965	2.017	1.775	2.117	2.040	2.384	2.607	2.698	2.501	2.713	3.087	3.610	4.813	6.134	6.709	5.061	4.194	4.410	5.423	6.582	9.317	20.68	55.83	137.1
310.0	345.8	409.0	370.8	281.1	223.0	215.6	245.3	286.3	352.4	442.0	586.1	871.5	936.2	539.4	453.4	1217	4919	9999.9	9999.9	9999.9	221.4	43.56	28.94	21.32	16.65	13.45	11.26	9.505	9.060	8.086	7.120	6.170	5.605	5.198	4.656	4.433	3.771	3.608	3.426	3.014	3.023	2.933	2.688	2.671	2.732	2.717	2.591	2.677	2.702	2.541	2.183	2.364	2.245	2.144	2.133	2.154	2.211	2.474	2.466	2.681	2.938	2.979	3.140	3.419	3.445	3.877	4.516	5.468	6.248	5.868	5.174	4.115	3.823	4.121	6.547	14.27	32.41
315.0	347.7	427.0	411.2	313.3	245.0	254.4	287.1	337.0	416.9	496.5	599.2	694.0	826.5	886.5	465.0	466.5	1252	2644	9999.9	9999.9	9999.9	260.3	45.18	30.79	21.69	17.31	14.24	11.57	10.23	9.029	8.018	6.913	6.183	5.574	5.183	4.648	4.285	3.884	3.770	3.441	3.536	3.243	2.978	2.935	3.044	2.843	2.746	2.894	2.929	2.568	2.499	2.472	2.419	2.382	2.429	2.524	2.598	2.600	2.661	2.892	3.240	3.144	3.524	3.718	3.835	3.910	4.364	4.351	4.685	5.062	6.279	6.156	4.682	3.479	3.550	5.066	9.203
320.0	408.1	496.9	483.7	350.6	282.9	290.1	319.6	375.0	458.5	543.9	628.1	683.2	712.8	875.3	701.7	353.4	450.5	738.3	3153	9999.9	9999.9	3565	66.79	42.15	29.25	21.57	17.01	13.06	12.05	10.23	8.708	7.752	6.320	5.900	5.490	4.971	4.569	4.279	3.818	3.408	3.615	3.274	3.321	3.079	3.074	3.197	2.920	3.255	2.949	2.755	2.524	2.802	2.563	2.545	2.608	2.722	2.791	2.900	3.128	2.849	3.306	3.234	3.665	3.781	4.225	4.102	4.490	4.188	4.227	4.684	4.914	5.763	6.334	5.384	3.724	3.318	3.992
325.0	423.8	573.3	582.7	450.3	345.8	316.7	353.4	407.2	482.4	584.1	668.2	721.3	701.2	714.7	832.1	474.1	297.2	316.2	842.1	4623	9999.9	9999.9	2703	60.96	39.10	27.42	20.33	15.42	13.29	11.60	9.613	8.722	7.329	6.390	5.680	5.245	4.772	4.562	3.976	3.706	3.541	3.448	3.332	3.174	3.261	3.320	3.338	3.408	3.380	3.058	2.889	3.308	2.744	2.959	2.821	2.702	2.957	3.168	3.434	3.396	3.493	3.554	3.874	3.954	4.275	4.151	4.442	4.470	4.594	4.757	4.376	4.702	5.453	6.106	5.705	4.000	3.110
330.0	465.8	648.3	714.9	587.1	430.2	377.2	399.9	445.4	522.9	619.9	707.9	756.6	729.4	665.2	669.7	646.9	413.1	250.4	320.6	1162	5167	9999.9	9999.9	9999.9	185.9	41.42	27.93	20.21	16.86	13.70	11.56	9.880	8.311	7.349	6.364	5.499	5.154	4.826	4.297	4.020	3.726	3.556	3.515	3.447	3.435	3.499	3.655	3.993	4.024	3.544	3.364	3.526	3.247	3.157	3.151	2.985	3.334	3.220	3.627	3.446	3.540	3.756	3.946	4.343	4.485	4.570	4.691	4.761	4.981	4.718	4.470	4.410	4.718	4.845	5.019	5.328	4.777
335.0	477.8	692.9	835.8	707.8	531.9	456.4	457.6	482.1	564.8	656.0	739.0	770.9	761.3	680.9	594.1	539.7	590.2	353.4	228.0	383.2	1257	2641	9999.9	9999.9	9999.9	222.5	43.61	28.94	22.15	16.86	13.93	11.61	9.649	8.452	7.387	6.451	5.808	4.940	4.486	4.126	4.014	3.909	3.749	3.593	3.451	3.940	3.944	4.341	4.401	3.931	3.591	3.986	3.702	3.634	3.453	3.225	3.532	3.635	3.899	3.902	3.960	4.043	4.173	4.365	4.513	4.497	4.741	5.044	5.032	4.920	4.605	4.557	4.865	4.472	4.357	4.246	4.598
340.0	503.9	736.2	886.8	789.1	608.4	521.0	505.8	518.2	582.6	660.8	742.2	774.7	774.2	692.5	592.8	484.2	526.1	503.1	257.7	219.3	389.7	692.1	3349	9999.9	9999.9	3076	130.6	38.46	27.89	20.42	16.31	13.30	10.71	9.201	7.412	6.661	5.943	5.443	4.800	4.158	4.327	3.808	3.750	3.680	3.695	3.871	4.253	4.439	4.614	4.182	3.759	4.320	4.143	3.728	3.742	3.454	3.814	3.848	3.925	4.082	3.998	3.895	4.368	4.536	4.685	4.972	4.717	5.066	5.048	5.123	4.849	4.559	4.768	4.629	4.263	3.951	3.795
345.0	500.2	745.5	902.5	843.3	675.2	580.2	531.5	547.4	606.9	660.4	733.8	770.4	753.7	687.1	597.2	480.2	432.6	517.6	376.3	207.8	205.3	255.6	851.7	5105	9999.9	9999.9	2414	54.46	34.74	25.63	18.86	14.60	11.87	9.957	8.274	7.099	6.442	5.533	4.983	4.514	4.235	4.042	3.595	3.697	4.001	3.912	4.086	4.390	4.673	4.068	3.992	4.507	4.090	4.318	3.927	3.827	4.058	3.907	3.820	4.212	4.031	4.096	4.111	4.620	4.495	4.666	5.018	4.869	4.944	4.758	4.818	4.522	4.754	4.452	3.931	3.905	3.692
350.0	501.1	726.1	884.7	862.0	740.2	641.2	602.0	591.4	622.7	667.3	718.2	738.1	734.2	676.6	597.5	489.2	415.9	408.3	438.3	324.1	196.3	173.1	289.0	1246	5965	9999.9	9999.9	9903	161.0	37.24	24.51	18.62	13.98	11.34	9.228	7.652	6.761	6.047	5.337	4.596	4.205	3.877	3.733	3.794	3.791	3.993	4.038	4.733	4.555	4.103	4.193	4.569	4.484	4.196	4.044	4.061	4.285	4.154	3.971	3.987	4.292	4.188	4.287	4.445	4.527	4.546	4.828	4.826	4.685	4.735	4.736	4.439	4.633	4.474	3.935	3.865	3.771
355.0	487.6	707.6	847.8	868.1	780.5	705.5	657.6	631.7	656.6	680.0	703.4	724.2	715.1	665.8	599.6	502.9	429.6	380.4	362.0	414.6	292.7	179.5	175.6	372.7	1416	2730	9999.9	9999.9	9999.9	179.2	35.42	24.42	18.16	13.87	10.62	8.771	7.744	6.637	5.620	5.004	4.366	4.268	3.876	3.983	3.996	4.064	4.061	4.708	4.445	4.285	4.430	4.576	4.604	4.586	4.422	4.328	4.442	4.423	4.425	4.301	4.526	4.203	4.679	4.061	4.459	4.455	4.431	4.313	4.361	4.641	4.625	4.502	4.603	4.546	3.828	3.874	3.769
360.0	470.0	690.5	849.2	876.9	815.8	758.4	705.3	664.2	669.2	700.1	701.6	707.3	695.9	665.0	590.8	519.9	449.5	390.3	346.3	374.1	388.0	230.8	166.0	186.3	405.3	695.6	3618	9999.9	9999.9	2772	54.08	32.57	22.65	16.37	12.40	9.559	8.852	7.260	6.296	5.325	5.035	4.459	4.093	3.790	3.810	4.075	3.990	4.532	4.577	4.316	4.638	4.957	4.641	4.479	4.685	4.344	4.700	4.461	4.326	4.354	4.649	4.408	4.556	4.577	4.709	4.583	4.494	4.591	4.248	4.501	4.359	4.366	4.425	4.388	4.006	4.067	3.894
365.0	462.8	647.9	817.5	860.8	838.7	770.7	716.7	678.3	690.7	701.5	706.4	704.3	685.1	652.8	586.6	523.8	462.9	403.2	355.1	336.1	388.6	328.3	193.8	159.4	189.0	240.5	899.5	5861	9999.9	9999.9	382.4	48.75	29.46	20.44	14.69	10.91	9.623	7.842	6.744	5.988	5.125	4.925	4.333	4.026	4.051	4.187	4.013	4.452	4.479	4.178	4.276	4.776	4.663	4.711	4.778	4.554	4.639	4.614	4.485	4.708	4.394	4.647	4.479	4.678	4.616	4.738	4.684	4.482	4.349	4.561	4.280	4.324	4.327	4.201	3.852	4.137	4.081
370.0	453.7	618.3	799.7	844.7	839.9	788.0	737.8	707.3	702.9	709.1	706.5	690.6	671.2	638.1	584.7	525.5	472.6	425.0	379.7	337.9	332.0	360.7	297.1	190.6	158.7	147.8	282.4	1406	6723	9999.9	9999.9	8871	135.9	31.35	20.57	14.92	11.05	8.952	7.615	6.710	5.909	5.213	4.550	4.466	4.347	4.353	4.122	4.553	4.551	4.189	4.217	4.926	4.852	4.796	4.702	4.589	4.669	4.609	4.567	4.627	4.394	4.713	4.622	4.629	4.558	4.356	4.453	4.402	4.409	4.272	4.165	4.251	4.394	4.322	4.118	4.052	4.190
375.0	410.9	601.7	765.1	832.2	839.0	799.8	742.3	717.1	708.1	703.0	696.2	684.9	654.9	619.8	573.7	522.9	480.8	443.9	398.4	359.1	324.8	315.2	349.4	284.9	179.0	146.3	154.6	391.7	1573	2922	9999.9	9999.9	2719	150.1	29.79	19.86	14.76	11.42	8.977	7.517	6.301	5.529	5.167	4.797	4.337	4.409	4.351	4.577	4.430	4.077	4.507	5.059	4.933	4.940	4.484	4.627	4.819	4.789	4.747	4.672	4.591	4.733	4.744	4.575	4.551	4.440	4.494	4.451	4.240	4.195	4.107	4.386	4.227	4.579	4.272	3.888	4.151
380.0	406.7	599.0	749.9	813.4	839.9	803.2	731.5	712.3	702.5	694.3	688.9	662.3	642.1	610.6	566.4	520.3	485.1	447.0	409.3	373.8	337.9	306.5	319.6	344.5	230.7	162.4	138.2	172.5	425.7	731.2	4017	9999.9	9999.9	2310	44.51	25.44	18.69	13.26	10.09	8.105	6.838	6.251	5.666	4.947	4.794	4.500	4.584	4.538	4.490	4.197	4.297	4.913	4.831	5.033	4.632	4.834	4.734	4.514	4.412	4.664	4.462	4.695	4.520	4.483	4.429	4.294	4.271	4.380	4.147	4.358	4.130	3.877	4.241	4.142	4.010	3.924	4.081
385.0	381.4	566.6	743.2	811.6	813.9	792.4	740.4	703.8	690.7	683.0	669.3	650.4	631.4	595.1	554.0	509.3	478.5	448.6	415.3	382.3	346.4	317.1	297.1	329.4	300.8	189.6	146.0	132.1	175.3	235.1	980.0	6478	9999.9	9999.9	310.1	38.21	23.35	16.36	12.29	9.302	7.842	6.372	5.854	5.597	4.981	4.637	4.541	4.543	4.609	4.343	4.275	4.953	4.701	5.080	4.574	4.717	4.817	4.683	4.513	4.583	4.762	4.431	4.382	4.682	4.261	4.165	4.285	4.502	4.352	4.120	4.081	3.896	4.238	4.291	3.936	4.001	4.129
390.0	396.1	555.4	684.4	763.5	789.3	772.7	728.1	685.0	666.4	658.4	650.2	628.3	606.6	575.6	534.6	494.5	467.9	442.5	414.8	384.9	353.7	325.6	299.9	291.1	309.2	265.3	177.2	139.2	130.4	128.7	285.0	1532	6628	9999.9	9999.9	7023	109.0	23.51	16.07	11.93	9.276	7.621	6.670	5.679	5.400	4.858	4.692	4.587	4.478	4.299	4.192	4.948	4.757	4.758	4.751	4.624	4.920	4.481	4.561	4.410	4.478	4.345	4.395	4.374	4.235	4.258	4.013	4.123	4.120	4.111	3.866	4.053	3.811	3.969	3.950	3.870	4.007
395.0	377.3	517.5	661.4	735.5	768.9	754.2	709.2	665.6	645.4	633.7	621.9	606.3	579.5	552.5	512.5	480.0	455.4	432.8	409.6	384.8	358.7	334.8	307.7	287.0	274.8	292.7	249.7	166.4	133.8	115.9	135.5	400.2	1532	2911	9999.9	9999.9	2268	40.16	22.77	16.24	11.96	9.382	8.057	6.769	5.991	5.336	4.664	5.143	4.663	4.447	4.120	5.150	4.640	4.715	4.797	4.578	4.827	4.620	4.941	4.489	4.442	4.340	4.292	4.234	4.338	4.137	3.949	4.135	4.120	4.051	4.030	3.802	3.795	4.001	3.794	3.849	3.843
400.0	353.5	516.1	647.1	712.1	738.4	738.3	702.9	656.0	632.1	622.0	599.8	591.4	559.7	541.9	498.1	464.7	441.2	425.1	398.8	382.7	358.7	339.7	314.0	292.1	267.9	267.5	286.4	208.5	147.0	121.5	106.6	152.7	395.5	705.8	3905	9999.9	9999.9	1896	36.43	20.36	14.47	11.47	8.608	7.358	6.347	5.592	5.102	5.007	4.809	4.423	4.351	5.057	4.866	4.719	4.721	4.523	4.831	4.794	4.685	4.503	4.504	4.102	4.131	4.224	4.439	3.976	4.043	3.953	4.061	3.739	3.751	3.711	3.560	3.914	3.718	3.627	3.689
405.0	354.4	462.8	619.3	679.3	715.4	703.1	676.2	633.9	613.2	601.2	596.5	569.9	544.6	517.2	475.7	446.9	426.9	408.3	392.9	374.5	354.1	334.5	316.2	295.5	271.3	250.4	269.5	256.9	171.0	132.2	105.9	100.7	142.8	205.5	931.9	5746	9999.9	9999.9	273.3	30.70	17.48	13.20	10.21	8.219	7.101	5.884	5.363	5.303	4.805	4.372	4.332	5.041	4.717	4.737	4.572	4.732	4.742	4.683	4.674	4.330	4.141	4.031	3.902	4.002	4.051	3.848	3.846	3.746	3.867	3.837	3.698	3.543	3.516	3.575	3.613	3.607	3.908
410.0	321.0	467.1	585.2	649.2	688.5	685.4	653.1	626.3	598.5	583.3	572.1	538.1	518.5	489.4	456.4	430.0	404.8	392.4	374.2	358.5	342.5	325.8	312.3	297.5	274.1	250.5	239.1	254.3	225.4	157.2	117.7	95.89	90.35	94.51	250.3	1343	5830	9999.9	9999.9	6186	92.91	18.35	12.99	10.00	8.074	6.700	5.847	5.452	4.859	4.474	4.176	4.784	4.852	4.574	4.363	4.484	4.607	4.633	4.556	4.379	4.251	4.024	4.002	3.935	3.929	3.719	3.665	3.809	3.591	3.714	3.563	3.603	3.578	3.700	3.570	3.501	3.594
