Sample:	'1
File name:	G2025072110ÁøÈªÂ·.FD3
Run date:	'11:28:20, 07/22/2025
Operator:	Administrator
Comment:	'

Instrument
Model:	F-2700 FL Spectrophotometer
Serial number:	23B8-004
ROM Version:	4J14000 07

Instrument parameters
Measurement type:	3-D scan
Data mode:	Fluorescence
EX  Start WL:	220.0 nm
EX  End WL:	600.0 nm
EX Sampling interval:	5.0 nm
EM  Start WL:	230.0 nm
EM  End WL:	650.0 nm
EM Sampling interval:	5.0 nm
Scan speed:	12000 nm/min
EX Slit:	5.0 nm
EM Slit:	5.0 nm
PMT Voltage:	700 V
Response:	Auto 
Corrected spectra:	Off
Contour interval:	50.000

Peak integration
Integration method:	Rectangular
Sensitivity:	1
Threshold:	1.000

Peaks
No.	ApexEX/EM(nm)	Height(Data)
1	225.0/300.0	678.9
2	225.0/570.0	106.5
3	225.0/625.0	55.44
4	240.0/265.0	407.0
5	240.0/520.0	349.0
6	245.0/270.0	402.6
7	245.0/385.0	2124
8	245.0/535.0	295.7
9	250.0/275.0	555.3
10	250.0/390.0	2092
11	250.0/545.0	238.6
12	255.0/280.0	646.0
13	255.0/560.0	201.9
14	260.0/290.0	718.6
15	260.0/575.0	163.8
16	265.0/295.0	878.4
17	265.0/585.0	144.1
18	270.0/300.0	1166
19	270.0/600.0	118.2
20	275.0/305.0	1138
21	275.0/610.0	94.48
22	280.0/625.0	78.74
23	285.0/320.0	1045
24	285.0/635.0	56.84
25	290.0/325.0	940.1
26	305.0/345.0	742.1
27	440.0/520.0	38.01
28	500.0/385.0	8.566
29	505.0/275.0	3.520
30	510.0/280.0	3.902
31	520.0/285.0	3.993
32	525.0/290.0	3.840
33	545.0/300.0	5.739
34	550.0/305.0	5.486
35	560.0/310.0	5.245
36	570.0/315.0	5.096
37	580.0/320.0	5.045

Data points
	220.0	225.0	230.0	235.0	240.0	245.0	250.0	255.0	260.0	265.0	270.0	275.0	280.0	285.0	290.0	295.0	300.0	305.0	310.0	315.0	320.0	325.0	330.0	335.0	340.0	345.0	350.0	355.0	360.0	365.0	370.0	375.0	380.0	385.0	390.0	395.0	400.0	405.0	410.0	415.0	420.0	425.0	430.0	435.0	440.0	445.0	450.0	455.0	460.0	465.0	470.0	475.0	480.0	485.0	490.0	495.0	500.0	505.0	510.0	515.0	520.0	525.0	530.0	535.0	540.0	545.0	550.0	555.0	560.0	565.0	570.0	575.0	580.0	585.0	590.0	595.0	600.0
230.0	51.57	937.9	2483	749.4	32.59	8.911	7.717	6.109	5.200	5.053	4.587	4.097	3.739	3.252	2.810	2.270	2.039	1.784	1.606	1.438	1.415	1.242	1.203	1.074	1.027	0.965	0.878	0.884	0.807	0.773	0.712	0.681	0.592	0.588	0.540	0.559	0.534	0.545	0.454	0.465	0.487	0.508	0.548	0.437	0.413	0.401	1.341	5.028	8.206	6.130	2.450	0.618	0.348	0.321	0.294	0.301	0.350	0.307	0.377	0.309	0.323	0.312	0.328	0.327	0.342	0.334	0.325	0.308	0.339	0.315	0.329	0.348	0.331	0.361	0.344	0.325	0.359
235.0	90.17	275.9	1623	2838	591.4	47.98	7.806	7.099	5.891	5.391	4.509	4.255	3.471	3.129	2.561	2.606	1.859	1.691	1.555	1.444	1.400	1.358	1.271	1.096	1.067	0.988	0.786	0.924	0.755	0.762	0.760	0.678	0.643	0.623	0.501	0.487	0.499	0.508	0.487	0.424	0.477	0.466	0.543	0.548	0.539	0.453	0.557	1.521	3.651	6.901	9.578	9.676	4.430	1.002	0.348	0.322	0.364	0.324	0.358	0.305	0.371	0.322	0.299	0.323	0.360	0.341	0.305	0.284	0.325	0.367	0.292	0.305	0.321	0.371	0.352	0.278	0.322
240.0	148.4	134.7	512.1	2505	3046	458.6	26.67	8.508	7.196	5.564	4.826	5.384	4.190	3.578	2.642	2.647	1.981	1.657	1.522	1.568	1.708	1.291	1.188	1.075	1.197	1.063	0.912	0.829	0.763	0.759	0.772	0.602	0.642	0.578	0.597	0.451	0.561	0.557	0.474	0.464	0.532	0.435	0.461	0.512	0.610	0.758	0.485	0.640	1.161	2.208	5.907	12.99	15.57	9.955	3.611	0.634	0.457	0.283	0.345	0.295	0.296	0.291	0.304	0.354	0.335	0.332	0.309	0.293	0.329	0.337	0.337	0.279	0.337	0.338	0.343	0.332	0.324
245.0	115.0	172.4	174.5	869.1	3486	3098	328.8	13.17	8.057	7.440	5.556	5.394	4.658	3.640	2.615	2.543	2.428	2.021	1.784	1.590	1.485	1.511	1.314	1.173	1.027	0.939	0.857	0.869	0.700	0.804	0.909	0.747	0.658	0.548	0.576	0.487	0.578	0.479	0.535	0.476	0.412	0.466	0.409	0.388	0.538	0.758	0.799	0.818	0.626	0.739	1.664	4.820	12.16	19.24	17.46	9.239	2.290	0.378	0.371	0.310	0.323	0.324	0.312	0.348	0.368	0.333	0.290	0.301	0.319	0.320	0.316	0.302	0.394	0.325	0.343	0.371	0.389
250.0	59.88	150.6	237.7	286.1	1167	3330	3899	1207	61.56	9.655	7.409	5.882	5.280	4.040	3.047	2.740	2.386	2.091	1.842	1.478	1.589	1.434	1.225	1.258	1.080	1.082	0.867	0.893	0.893	0.825	0.796	0.789	0.713	0.523	0.573	0.509	0.564	0.521	0.523	0.510	0.506	0.459	0.462	0.369	0.415	0.513	0.576	0.936	1.057	0.856	0.908	1.431	3.237	6.785	12.10	17.53	21.01	16.89	8.997	2.438	0.452	0.359	0.336	0.353	0.335	0.335	0.324	0.328	0.331	0.373	0.343	0.332	0.330	0.328	0.312	0.354	0.401
255.0	39.36	59.53	191.4	338.0	351.6	873.2	3482	6146	1602	52.32	9.944	6.707	6.029	4.819	3.549	3.097	2.671	2.319	2.009	1.825	1.734	1.602	1.386	1.323	1.097	1.192	1.036	0.863	0.833	0.849	0.765	0.725	0.738	0.599	0.565	0.618	0.576	0.533	0.497	0.492	0.480	0.535	0.532	0.410	0.435	0.510	0.425	0.526	0.695	1.100	1.321	1.354	1.248	1.838	3.014	4.582	9.087	20.37	33.60	26.85	12.95	2.384	0.389	0.430	0.350	0.351	0.368	0.368	0.339	0.326	0.452	0.338	0.338	0.362	0.370	0.343	0.478
260.0	34.25	38.88	87.39	303.2	327.4	248.4	1114	5628	6433	294.8	25.98	9.199	7.319	5.466	4.353	3.299	3.016	2.204	2.412	1.688	1.900	1.576	1.441	1.318	1.295	1.029	1.118	0.873	0.850	0.816	0.807	0.771	0.817	0.591	0.497	0.703	0.578	0.538	0.501	0.456	0.442	0.492	0.488	0.467	0.444	0.493	0.363	0.370	0.441	0.534	0.970	1.770	1.840	1.268	1.059	1.477	2.490	5.938	16.45	31.62	34.18	24.51	8.976	1.302	0.403	0.376	0.403	0.374	0.370	0.370	0.411	0.352	0.312	0.420	0.340	0.369	0.417
265.0	42.71	36.51	40.55	148.9	407.0	249.2	295.9	2030	7633	5909	232.5	14.44	10.42	7.013	4.758	3.954	3.276	2.466	2.392	2.029	1.773	1.431	1.497	1.215	1.250	1.081	1.139	1.072	0.949	0.955	0.904	0.838	0.820	0.664	0.593	0.642	0.678	0.576	0.501	0.462	0.505	0.471	0.458	0.399	0.454	0.456	0.441	0.533	0.396	0.384	0.532	0.994	1.924	2.264	1.565	0.897	0.926	1.686	4.190	10.36	23.60	42.69	33.21	21.07	4.634	0.628	0.439	0.410	0.382	0.407	0.422	0.449	0.355	0.334	0.305	0.378	0.373
270.0	82.58	72.30	52.15	62.99	211.2	402.6	299.7	518.3	2562	6918	6164	918.0	49.76	9.140	5.904	4.583	3.823	2.828	2.644	2.206	1.916	1.674	1.565	1.352	1.320	1.318	1.206	1.079	0.995	0.999	0.974	0.939	0.820	0.763	0.635	0.739	0.647	0.527	0.579	0.499	0.548	0.526	0.544	0.563	0.489	0.520	0.465	0.576	0.416	0.417	0.441	0.566	0.899	1.394	1.975	2.202	1.820	1.284	1.440	2.711	5.985	13.14	21.69	36.17	36.26	35.62	14.24	4.292	0.663	0.490	0.440	0.445	0.379	0.400	0.395	0.418	0.399
275.0	206.2	227.3	132.8	70.56	89.25	214.6	555.3	377.4	659.2	1828	6281	9999.9	1247	41.47	8.773	6.630	4.742	3.437	3.007	2.485	2.066	2.020	1.758	1.499	1.341	1.366	1.339	1.183	1.065	0.959	0.992	0.958	0.980	0.900	0.942	0.777	0.749	0.686	0.661	0.638	0.659	0.653	0.760	0.698	0.801	0.916	0.837	0.815	0.651	0.562	0.445	0.520	0.649	0.727	0.889	1.350	2.522	3.520	2.254	1.369	1.904	3.525	5.488	9.052	12.59	31.00	53.86	33.47	21.44	4.226	0.581	0.433	0.405	0.408	0.422	0.412	0.396
280.0	354.9	395.0	227.9	100.6	65.47	108.7	391.9	646.0	353.7	538.5	2006	9631	9670	175.4	19.62	9.600	6.335	4.637	3.905	2.850	2.293	2.055	1.828	1.821	1.514	1.343	1.254	1.235	1.177	1.145	1.163	0.935	1.009	1.066	1.208	0.922	0.887	0.782	0.817	0.784	0.715	0.762	0.918	0.928	1.126	1.247	1.183	1.182	0.969	0.765	0.564	0.535	0.598	0.568	0.661	0.761	1.304	2.637	3.902	3.009	1.665	1.583	1.942	2.843	3.516	8.389	20.74	40.66	62.45	31.59	14.95	1.861	0.501	0.527	0.384	0.459	0.383
285.0	490.1	518.8	323.9	138.1	76.14	90.30	202.6	644.2	611.4	318.2	629.8	3313	9999.9	7125	130.7	13.00	7.669	5.257	4.228	3.421	2.787	2.279	2.141	1.780	1.597	1.581	1.253	1.260	1.196	1.004	1.179	1.105	0.971	1.200	1.495	1.102	1.165	0.953	0.852	0.845	0.784	0.894	1.013	1.039	1.374	1.427	1.486	1.334	1.088	0.950	0.690	0.666	0.670	0.590	0.642	0.623	0.904	1.457	2.471	3.849	3.993	2.225	1.565	1.605	1.649	2.822	5.515	11.67	29.23	53.09	64.10	26.44	8.268	0.878	0.495	0.445	0.453
290.0	596.2	623.7	423.9	198.6	102.8	102.8	148.9	338.2	718.6	614.5	437.3	970.3	3391	8694	7978	509.9	29.83	7.791	5.126	4.245	3.431	2.604	2.207	2.020	1.836	1.671	1.449	1.246	1.251	1.083	1.189	1.146	1.143	1.190	1.484	1.297	1.281	1.105	0.954	0.934	0.858	1.030	1.153	1.210	1.557	1.629	1.782	1.691	1.314	1.125	0.814	0.752	0.673	0.614	0.719	0.770	0.833	1.016	1.412	1.958	2.959	3.840	3.775	2.982	2.039	1.890	2.475	3.740	7.673	14.80	27.68	38.40	37.39	40.64	17.36	6.717	0.985
295.0	625.1	674.4	498.4	241.6	147.4	133.8	166.7	251.5	422.9	878.4	837.9	539.1	980.4	2245	6799	7738	697.9	24.12	7.652	5.194	3.654	3.157	2.885	2.262	2.019	1.672	1.548	1.353	1.392	1.295	1.184	1.072	0.997	1.324	1.407	1.300	1.306	1.113	0.989	1.013	1.019	1.028	1.171	1.223	1.587	1.623	1.924	1.847	1.535	1.222	0.933	0.982	0.860	0.793	0.730	0.916	0.989	1.164	1.208	1.559	1.793	2.255	2.872	4.419	4.748	3.328	2.382	2.253	2.968	4.493	7.123	9.462	11.39	25.32	52.01	62.92	27.28
300.0	606.8	678.9	511.1	280.7	180.4	158.2	188.9	255.5	354.3	643.7	1166	693.1	515.1	681.1	1998	9290	6439	99.76	13.75	6.927	4.744	3.962	3.000	2.645	2.104	2.143	1.805	1.641	1.589	1.267	1.327	1.154	1.076	1.267	1.432	1.531	1.291	1.257	0.952	1.064	1.096	1.100	1.131	1.253	1.618	1.813	1.949	1.849	1.631	1.359	1.131	1.009	0.973	0.914	0.874	1.032	1.133	1.182	1.384	1.525	1.674	1.805	2.116	2.933	4.768	5.739	4.361	2.590	2.133	2.438	3.055	3.100	3.388	6.661	16.84	40.80	62.74
305.0	580.2	648.7	532.2	316.5	214.0	190.9	223.7	294.0	367.3	521.8	963.0	1138	547.9	393.3	590.9	3067	9838	5007	78.94	9.448	6.417	4.703	3.651	2.717	2.305	1.981	1.881	1.507	1.437	1.405	1.346	1.235	1.260	1.307	1.361	1.416	1.144	1.184	0.971	0.978	1.092	1.016	1.142	1.331	1.494	1.798	1.677	1.861	1.795	1.460	1.162	1.141	1.004	1.007	1.150	1.064	1.411	1.254	1.389	1.502	1.761	1.791	2.023	2.376	3.057	4.333	5.486	4.977	3.156	2.340	2.242	2.010	1.823	2.459	4.558	10.70	24.16
310.0	519.9	621.0	540.5	347.9	254.3	238.4	269.5	335.0	416.1	523.9	723.5	1060	1002	503.6	336.1	812.7	3091	6985	6388	336.9	21.88	6.525	4.554	3.595	2.676	2.261	1.957	1.784	1.739	1.621	1.344	1.206	1.280	1.246	1.268	1.298	1.186	1.150	1.045	1.088	1.023	1.065	1.117	1.223	1.383	1.599	1.703	1.895	1.769	1.472	1.315	1.180	1.244	1.173	1.178	1.238	1.478	1.423	1.572	1.714	1.891	1.949	2.149	2.471	2.704	3.306	3.619	4.554	5.245	4.769	3.710	2.249	1.873	1.829	2.018	3.307	6.225
315.0	482.3	614.4	574.1	398.4	284.5	285.1	322.0	384.0	459.5	567.1	693.5	810.1	995.9	938.5	405.4	352.2	802.7	1740	5390	8013	502.2	18.63	6.130	4.553	3.472	2.736	2.408	2.192	1.880	1.897	1.392	1.403	1.276	1.166	1.238	1.244	1.247	1.115	1.033	1.135	1.018	1.085	1.174	1.300	1.276	1.429	1.659	1.912	1.938	1.523	1.381	1.402	1.420	1.379	1.252	1.467	1.729	1.600	1.711	1.981	2.104	2.265	2.443	2.582	2.744	2.981	2.908	3.292	3.822	4.337	5.096	4.725	2.981	2.086	1.748	1.887	2.390
320.0	536.3	679.4	656.1	458.4	340.7	313.8	368.3	421.8	506.4	614.7	726.2	796.5	843.6	1045	682.3	317.1	331.0	492.0	1519	6915	4628	72.73	10.75	6.125	4.006	3.258	2.679	2.237	1.886	1.727	1.565	1.475	1.472	1.337	1.329	1.271	1.240	1.102	1.083	1.093	1.057	1.003	1.259	1.231	1.453	1.660	1.968	2.166	2.076	1.815	1.557	1.689	1.705	1.531	1.408	1.632	1.762	1.871	2.012	2.146	2.169	2.469	2.464	2.833	3.064	3.207	3.129	3.163	3.395	3.596	4.115	4.957	5.045	3.394	2.235	1.931	1.752
325.0	618.1	865.1	880.0	619.9	402.3	358.7	393.6	462.2	556.0	669.5	789.5	847.3	839.2	895.4	940.1	475.9	272.5	247.2	431.6	2153	7195	3863	59.96	8.478	5.352	4.093	2.968	2.590	2.209	1.964	1.616	1.417	1.330	1.357	1.462	1.380	1.202	1.111	1.042	1.034	1.001	1.066	1.251	1.163	1.574	1.905	2.414	2.641	2.792	2.232	1.922	2.149	1.836	1.737	1.662	1.830	1.919	2.090	2.093	2.276	2.313	2.636	2.803	3.063	3.177	3.487	3.267	3.499	3.452	3.774	3.781	3.787	4.392	4.910	4.096	2.538	1.842
330.0	678.3	1055	1128	874.4	574.0	456.8	461.9	523.8	615.4	738.7	870.9	931.0	923.8	860.2	843.7	767.8	449.2	259.3	233.9	578.0	2220	5219	5011	1094	19.46	5.656	3.951	3.196	2.520	2.317	1.914	1.619	1.459	1.448	1.354	1.414	1.219	1.090	1.179	0.994	1.155	1.266	1.274	1.377	1.638	2.146	2.594	2.944	3.317	3.088	2.705	2.901	2.206	2.144	1.919	1.998	2.217	2.144	2.396	2.518	2.605	2.701	2.972	3.123	3.372	3.619	3.882	3.924	4.008	3.814	3.926	3.966	3.902	3.913	4.450	4.269	3.573
335.0	760.9	1177	1336	1132	776.2	603.8	559.4	605.3	692.6	818.3	948.8	1027	1016	933.8	803.5	739.3	747.8	412.4	250.8	272.9	594.7	1303	4024	6819	433.6	20.07	5.588	4.218	3.180	2.599	2.177	1.783	1.742	1.355	1.462	1.241	1.186	1.216	1.256	1.002	1.132	1.205	1.352	1.548	1.783	2.187	2.679	3.357	3.905	3.641	3.394	3.321	3.064	2.690	2.475	2.494	2.564	2.516	2.371	2.845	2.925	2.853	3.381	3.710	3.767	4.039	3.987	4.059	4.076	4.056	4.360	4.082	4.238	3.927	3.751	3.591	3.961
340.0	812.6	1235	1496	1293	941.6	728.4	657.0	687.3	767.3	889.2	1007	1079	1084	1000	861.7	721.2	761.0	641.3	331.7	242.3	264.6	384.4	1139	5449	3768	349.6	11.48	5.081	3.856	3.201	2.490	2.057	1.852	1.498	1.444	1.265	1.245	1.126	1.234	1.099	1.109	1.196	1.331	1.514	1.829	2.266	2.878	3.841	4.267	4.105	3.909	4.072	3.738	3.532	2.983	2.831	3.124	2.924	2.874	3.014	3.110	3.188	3.523	3.679	4.300	4.294	4.099	4.484	4.484	4.546	4.770	4.207	4.490	4.193	3.862	3.753	3.544
345.0	791.5	1279	1513	1430	1106	898.8	779.8	782.1	839.9	947.0	1059	1126	1135	1054	914.9	751.8	678.5	742.1	502.6	284.5	224.9	210.8	347.2	1670	5623	3406	54.49	7.939	4.836	3.579	2.897	2.184	1.934	1.630	1.622	1.416	1.171	1.197	1.122	1.152	1.184	1.236	1.373	1.583	1.914	2.395	3.066	3.676	4.376	4.338	4.005	4.659	4.110	3.865	3.655	3.409	3.462	3.274	3.319	3.494	3.434	3.736	3.827	4.016	4.186	4.307	4.338	4.329	4.494	4.590	5.035	4.232	4.462	4.313	4.407	3.711	3.582
350.0	788.1	1236	1560	1533	1305	1127	1004	960.9	988.3	1059	1144	1185	1189	1122	993.9	829.0	701.9	664.6	656.1	468.7	293.4	230.0	216.1	475.5	1715	4090	4122	1059	19.10	5.233	3.717	2.569	2.061	1.783	1.624	1.392	1.336	1.324	1.117	1.166	1.200	1.252	1.340	1.460	1.917	2.450	2.902	3.785	4.440	4.472	4.356	5.075	5.091	4.623	4.510	4.165	4.318	4.119	4.098	4.140	4.042	4.162	4.304	4.402	4.643	4.657	4.678	4.765	4.669	4.866	4.941	4.901	4.764	4.734	4.555	4.194	3.955
355.0	780.6	1248	1583	1641	1545	1386	1303	1240	1235	1234	1280	1294	1272	1209	1091	928.4	799.8	697.7	629.3	653.2	465.3	307.2	246.0	258.9	490.8	1026	2915	5639	407.0	21.59	5.462	3.436	2.573	2.057	1.766	1.600	1.440	1.271	1.356	1.223	1.133	1.317	1.321	1.552	1.910	2.410	2.823	3.885	4.580	4.353	4.874	5.620	5.568	5.363	5.451	5.280	5.311	5.279	5.323	4.858	4.929	5.161	5.022	5.127	5.186	5.251	5.058	5.134	5.413	5.311	5.353	5.270	5.166	5.187	5.014	4.564	4.782
360.0	770.3	1249	1584	1710	1688	1607	1535	1448	1428	1396	1407	1377	1343	1275	1154	1012	878.2	759.6	650.1	651.8	634.4	415.6	303.1	254.1	256.7	331.2	815.0	4051	5111	348.0	13.27	4.475	3.242	2.400	2.000	1.688	1.528	1.310	1.465	1.182	1.146	1.345	1.362	1.613	1.862	2.450	2.976	3.862	4.436	4.437	4.919	5.936	5.998	6.038	6.051	5.567	6.197	5.880	5.785	5.711	5.915	5.748	5.595	5.593	5.617	5.593	5.210	5.531	5.493	5.910	5.447	5.569	5.658	5.291	5.006	5.067	5.012
365.0	780.7	1210	1606	1764	1808	1766	1726	1616	1569	1537	1497	1457	1396	1323	1204	1071	942.7	823.4	713.7	642.2	676.4	574.0	377.4	296.6	244.5	209.1	273.8	1184	4829	3245	52.84	7.902	4.172	2.854	2.373	1.759	1.724	1.462	1.497	1.223	1.414	1.446	1.432	1.700	2.057	2.694	3.022	3.924	4.494	4.567	4.906	6.313	6.293	6.329	6.377	6.370	6.972	6.917	6.705	6.373	6.470	6.429	6.589	6.027	5.908	6.019	5.725	5.766	5.664	5.583	5.671	5.911	5.651	5.792	5.522	5.372	5.397
370.0	768.9	1220	1604	1787	1895	1921	1863	1779	1700	1677	1620	1552	1473	1371	1265	1133	1018	907.4	799.9	707.8	666.5	671.7	563.1	396.8	308.2	237.1	197.6	354.8	1393	3489	3927	1060	18.65	4.504	2.957	2.279	1.933	1.591	1.438	1.424	1.337	1.425	1.545	1.705	2.018	2.600	2.852	3.845	4.229	4.543	4.913	6.284	6.522	6.988	6.997	6.993	7.472	7.653	7.138	7.146	6.750	6.975	6.910	6.858	6.464	6.298	6.334	6.092	5.914	5.960	5.794	5.999	5.883	5.888	5.734	5.793	5.821
375.0	767.0	1215	1629	1839	1994	2022	2008	1898	1838	1788	1727	1654	1542	1425	1302	1180	1081	980.9	889.0	791.9	725.0	684.6	693.0	557.8	412.6	320.8	238.5	216.1	399.3	861.7	2516	5122	359.2	21.20	4.474	2.865	2.173	1.766	1.501	1.527	1.493	1.413	1.526	1.633	2.184	2.502	2.779	3.760	4.374	4.534	5.082	6.555	6.883	7.353	7.638	7.325	8.090	8.188	7.837	7.698	7.689	7.338	7.282	6.996	6.718	6.860	6.854	6.409	6.315	6.087	6.196	6.235	6.320	5.988	5.876	6.118	5.969
380.0	784.6	1194	1584	1838	2000	2122	2069	1967	1912	1849	1780	1683	1575	1445	1320	1209	1112	1032	931.7	856.4	780.1	717.9	697.1	696.1	526.6	385.6	291.9	221.1	208.1	270.9	688.3	3462	4361	303.2	11.44	3.877	2.444	2.009	1.756	1.682	1.552	1.511	1.698	1.791	2.109	2.568	2.908	3.901	4.342	4.629	4.952	6.613	7.019	7.982	7.449	7.826	8.218	8.069	8.086	8.215	7.965	7.572	7.453	7.401	7.186	6.869	7.157	6.518	6.249	6.074	6.484	6.373	6.033	6.072	6.116	6.049	6.310
385.0	800.7	1157	1546	1825	2005	2124	2088	2019	1934	1860	1803	1706	1594	1469	1323	1220	1136	1058	965.8	892.0	822.0	756.2	707.3	711.9	647.0	458.9	341.3	255.7	190.5	158.5	221.5	985.4	3837	2714	225.5	6.952	3.429	2.396	2.052	1.722	1.571	1.522	1.688	1.692	2.147	2.480	2.984	3.835	4.208	4.548	4.949	6.337	6.975	7.475	7.658	7.806	8.566	8.190	8.297	8.102	8.121	7.590	7.604	7.162	7.202	6.913	6.963	6.844	6.406	6.393	6.378	6.025	6.293	6.347	5.866	6.014	5.957
390.0	760.8	1138	1509	1790	1960	2078	2092	1997	1907	1837	1777	1701	1581	1443	1313	1215	1136	1067	994.4	922.8	860.9	802.5	741.7	698.3	679.1	587.7	419.1	305.2	228.5	170.6	144.0	284.9	1080	2639	2928	848.6	16.04	3.668	2.661	2.034	1.722	1.674	1.743	1.776	2.234	2.654	2.849	3.700	4.361	4.342	4.754	6.276	6.766	7.378	7.637	8.051	8.289	7.999	8.217	8.028	7.914	7.414	7.256	7.290	6.895	6.755	6.769	6.659	6.544	6.265	6.287	5.983	6.117	6.481	6.169	5.978	6.193
395.0	741.0	1107	1496	1719	1886	2010	2014	1971	1885	1823	1758	1664	1548	1416	1296	1198	1126	1066	1013	946.9	894.3	836.1	782.5	721.6	668.3	644.8	540.5	372.6	279.7	213.3	161.7	153.9	299.8	647.9	1801	3843	298.1	18.35	4.090	2.678	2.033	1.737	1.780	1.995	2.208	2.607	2.846	3.738	4.203	4.433	4.594	6.261	6.429	6.969	7.597	7.442	8.066	7.790	7.959	7.966	7.597	7.339	7.326	7.087	6.862	6.657	6.694	6.421	6.689	6.178	6.312	6.044	5.909	6.179	6.018	5.788	6.034
400.0	733.6	1086	1461	1668	1840	1948	1964	1941	1844	1749	1706	1628	1527	1383	1271	1175	1116	1068	1007	947.9	908.9	853.5	800.8	741.4	682.4	633.5	596.7	453.4	326.0	250.3	187.8	146.7	142.4	198.1	489.0	2559	3195	257.4	10.54	3.423	2.323	2.016	1.929	2.061	2.198	2.523	2.833	3.979	3.992	4.184	4.679	6.115	6.430	6.794	7.229	7.735	7.694	7.875	7.739	7.639	7.582	6.992	7.130	6.950	6.935	6.672	6.235	5.992	6.262	6.019	5.875	6.039	5.933	6.005	6.052	6.060	5.954
405.0	725.2	1069	1392	1625	1800	1923	1915	1866	1798	1725	1675	1588	1482	1361	1240	1152	1097	1041	992.9	940.4	902.2	859.2	805.1	753.1	693.7	626.5	588.4	530.5	381.0	282.3	218.1	164.6	126.1	109.5	155.5	727.8	2776	2259	38.53	5.691	2.921	2.418	2.264	1.958	2.273	2.464	2.857	3.811	3.913	3.881	4.871	6.026	6.287	6.749	6.882	7.207	7.927	7.681	7.682	7.578	7.434	6.808	7.053	6.960	6.655	6.263	6.101	6.095	5.941	6.353	5.940	5.747	5.849	5.670	5.690	5.864	5.771
410.0	713.1	1031	1353	1561	1711	1826	1848	1808	1739	1676	1599	1523	1412	1305	1193	1111	1056	1007	963.1	922.2	880.6	841.0	794.4	749.7	696.9	628.0	566.1	535.2	463.2	346.3	257.9	195.7	146.2	110.3	95.34	206.1	777.3	1984	2237	681.3	13.85	3.171	2.533	2.188	2.349	2.407	2.715	3.440	3.855	3.986	4.570	5.726	5.895	6.407	6.359	6.933	7.498	7.398	7.683	7.267	7.144	7.020	6.863	6.685	6.436	6.323	6.159	5.853	5.874	5.830	5.626	5.490	5.595	5.594	5.550	5.523	5.604
415.0	659.2	990.7	1280	1486	1606	1717	1763	1745	1673	1617	1527	1448	1356	1249	1136	1049	998.0	959.6	921.2	885.0	843.3	808.2	769.4	735.5	687.2	624.9	560.5	506.3	479.8	425.0	302.1	225.1	169.4	127.8	96.18	99.93	210.9	481.8	1323	2753	268.9	14.80	3.230	2.577	2.478	2.446	2.575	3.370	3.686	3.885	4.241	5.457	5.809	6.418	6.367	6.660	6.857	6.965	7.316	6.752	6.962	6.718	6.400	6.428	6.011	5.962	5.434	5.667	5.479	5.562	5.469	5.179	5.382	5.319	5.306	5.223	5.204
420.0	614.9	945.2	1241	1405	1538	1625	1682	1681	1627	1556	1475	1390	1305	1192	1084	1001	960.5	924.2	893.3	851.9	813.1	785.2	752.1	712.7	674.3	623.4	559.0	500.6	461.0	446.8	350.0	246.9	188.1	142.6	107.3	84.13	90.55	138.0	353.1	1819	2178	228.5	7.694	3.293	2.605	2.695	2.814	3.375	3.523	3.734	4.214	5.234	5.568	6.258	6.062	6.255	7.016	6.919	6.952	6.683	6.889	6.253	6.632	6.132	6.015	5.839	5.360	5.458	5.243	5.433	4.996	5.131	4.688	5.248	4.882	5.044	5.018
