Sample:	'1
File name:	t2025042316孙镇北干渠入反帝沟闸.FD3
Run date:	'12:50:09, 04/24/2025
Operator:	Administrator
Comment:	'

Instrument
Model:	F-2700 FL Spectrophotometer
Serial number:	23B8-004
ROM Version:	4J14000 07

Instrument parameters
Measurement type:	3-D scan
Data mode:	Fluorescence
EX  Start WL:	220.0 nm
EX  End WL:	600.0 nm
EX Sampling interval:	5.0 nm
EM  Start WL:	230.0 nm
EM  End WL:	650.0 nm
EM Sampling interval:	5.0 nm
Scan speed:	12000 nm/min
EX Slit:	5.0 nm
EM Slit:	5.0 nm
PMT Voltage:	700 V
Response:	Auto 
Corrected spectra:	Off
Contour interval:	50.000

Peak integration
Integration method:	Rectangular
Sensitivity:	1
Threshold:	1.000

Peaks
No.	ApexEX/EM(nm)	Height(Data)
1	225.0/565.0	57.08
2	225.0/590.0	53.73
3	225.0/635.0	39.44
4	230.0/345.0	1117
5	230.0/575.0	56.98
6	230.0/605.0	45.47
7	230.0/620.0	41.86
8	235.0/510.0	255.4
9	240.0/265.0	330.9
10	240.0/385.0	833.4
11	240.0/520.0	231.4
12	245.0/270.0	339.2
13	245.0/425.0	712.6
14	245.0/535.0	193.0
15	250.0/275.0	429.3
16	250.0/545.0	151.7
17	255.0/280.0	533.6
18	255.0/560.0	132.1
19	260.0/285.0	518.3
20	260.0/575.0	106.0
21	265.0/585.0	104.5
22	270.0/300.0	940.9
23	270.0/595.0	92.45
24	275.0/305.0	1099
25	275.0/610.0	82.99
26	280.0/310.0	1027
27	280.0/340.0	940.6
28	280.0/625.0	71.15
29	285.0/315.0	970.8
30	285.0/635.0	57.30
31	290.0/325.0	890.7
32	315.0/355.0	433.7
33	320.0/360.0	409.0
34	325.0/370.0	382.7
35	330.0/375.0	371.9
36	335.0/380.0	364.9
37	460.0/340.0	3.784
38	460.0/545.0	9.382
39	505.0/275.0	3.235
40	510.0/280.0	3.313
41	520.0/285.0	3.540
42	530.0/290.0	3.707
43	540.0/295.0	5.050
44	545.0/300.0	5.421
45	550.0/305.0	6.111
46	560.0/310.0	5.874
47	575.0/315.0	6.004
48	580.0/320.0	6.249
49	585.0/325.0	5.559

Data points
	220.0	225.0	230.0	235.0	240.0	245.0	250.0	255.0	260.0	265.0	270.0	275.0	280.0	285.0	290.0	295.0	300.0	305.0	310.0	315.0	320.0	325.0	330.0	335.0	340.0	345.0	350.0	355.0	360.0	365.0	370.0	375.0	380.0	385.0	390.0	395.0	400.0	405.0	410.0	415.0	420.0	425.0	430.0	435.0	440.0	445.0	450.0	455.0	460.0	465.0	470.0	475.0	480.0	485.0	490.0	495.0	500.0	505.0	510.0	515.0	520.0	525.0	530.0	535.0	540.0	545.0	550.0	555.0	560.0	565.0	570.0	575.0	580.0	585.0	590.0	595.0	600.0
230.0	40.58	605.3	1830	614.4	32.81	8.264	6.502	5.644	5.070	4.153	4.167	3.858	3.373	2.830	2.448	1.912	1.867	1.710	1.529	1.395	1.177	1.233	1.117	0.993	0.983	0.925	0.907	0.853	0.807	0.748	0.752	0.684	0.680	0.623	0.560	0.558	0.562	0.530	0.490	0.468	0.528	0.496	0.542	0.491	0.426	0.439	0.992	3.891	6.979	5.203	1.921	0.571	0.362	0.368	0.343	0.347	0.361	0.379	0.376	0.381	0.374	0.383	0.353	0.372	0.359	0.386	0.366	0.384	0.360	0.389	0.357	0.367	0.383	0.370	0.373	0.367	0.398
235.0	63.55	180.3	1193	2391	522.6	58.81	8.155	6.004	6.264	4.987	3.972	3.972	3.249	3.081	2.576	1.989	2.273	1.754	1.785	1.330	1.237	1.404	1.288	1.003	0.979	0.985	0.808	0.776	0.738	0.754	0.728	0.702	0.597	0.593	0.563	0.490	0.552	0.550	0.508	0.524	0.502	0.447	0.605	0.601	0.611	0.481	0.562	1.278	2.980	5.733	8.853	8.872	4.093	1.030	0.404	0.328	0.381	0.365	0.400	0.391	0.406	0.406	0.404	0.353	0.376	0.418	0.337	0.388	0.379	0.355	0.385	0.490	0.403	0.365	0.453	0.378	0.428
240.0	105.2	101.5	376.4	2042	2862	415.3	28.05	7.340	6.588	5.055	4.422	4.219	3.642	3.274	2.709	2.244	1.844	1.954	1.559	1.329	1.231	1.307	1.149	1.152	1.018	0.969	0.821	0.817	0.813	0.701	0.781	0.676	0.616	0.578	0.598	0.485	0.546	0.549	0.516	0.477	0.508	0.439	0.485	0.507	0.649	0.695	0.618	0.639	0.996	1.902	5.342	12.96	15.33	9.893	2.938	0.550	0.413	0.374	0.376	0.406	0.376	0.366	0.378	0.394	0.423	0.387	0.341	0.375	0.330	0.367	0.391	0.359	0.402	0.408	0.422	0.352	0.394
245.0	85.71	147.2	141.4	700.7	3117	2940	314.0	14.63	6.614	6.454	5.143	4.708	3.940	3.476	3.176	2.327	2.121	1.804	1.752	1.414	1.301	1.252	1.185	1.062	1.108	1.011	0.861	0.841	0.861	0.792	0.773	0.701	0.661	0.619	0.665	0.603	0.587	0.512	0.552	0.561	0.575	0.540	0.543	0.577	0.503	0.630	0.821	0.713	0.599	0.720	1.563	4.657	11.91	18.98	17.69	8.179	2.050	0.428	0.383	0.479	0.387	0.391	0.378	0.351	0.412	0.378	0.337	0.401	0.414	0.406	0.532	0.388	0.386	0.398	0.365	0.525	0.462
250.0	48.63	114.9	195.7	240.2	994.2	2895	3615	1143	70.77	8.145	6.770	5.687	4.530	3.854	3.207	2.756	2.204	1.871	1.692	1.596	1.350	1.244	1.208	1.061	1.052	1.010	0.865	0.825	0.921	0.827	0.779	0.683	0.694	0.714	0.645	0.591	0.544	0.548	0.527	0.568	0.523	0.511	0.567	0.483	0.483	0.528	0.610	0.811	0.921	0.855	0.829	1.473	3.213	6.554	12.01	17.43	21.67	17.26	9.023	2.291	0.525	0.468	0.433	0.364	0.412	0.385	0.440	0.392	0.388	0.361	0.433	0.388	0.405	0.414	0.357	0.429	0.432
255.0	37.72	51.31	142.2	294.8	312.4	741.4	2892	5786	1596	76.07	8.921	6.543	6.046	4.362	3.514	2.822	2.311	2.188	1.943	1.833	1.588	1.487	1.226	1.191	1.322	0.939	0.975	0.975	0.847	0.857	0.734	0.703	0.813	0.653	0.608	0.599	0.583	0.624	0.570	0.527	0.581	0.563	0.610	0.494	0.497	0.520	0.445	0.600	0.665	1.034	1.308	1.494	1.264	1.855	3.038	4.513	9.440	21.15	36.22	26.47	13.63	2.214	0.527	0.410	0.436	0.390	0.367	0.453	0.426	0.422	0.435	0.449	0.500	0.463	0.364	0.415	0.492
260.0	38.39	35.28	61.21	250.2	296.9	218.1	875.6	4725	6576	1212	36.18	8.689	6.076	5.332	4.484	3.387	2.466	2.304	2.148	1.806	1.824	1.379	1.182	1.244	1.394	1.131	0.955	1.021	0.897	0.912	0.804	0.760	0.808	0.639	0.642	0.547	0.547	0.602	0.554	0.498	0.590	0.559	0.530	0.495	0.497	0.496	0.458	0.467	0.451	0.578	0.990	1.852	1.790	1.192	1.117	1.340	2.575	6.205	17.39	34.55	44.71	24.46	9.652	1.145	0.464	0.378	0.402	0.440	0.450	0.389	0.439	0.400	0.463	0.382	0.434	0.365	0.497
265.0	37.64	31.38	34.31	115.4	330.9	224.4	231.1	1571	6730	6694	209.5	16.76	8.443	5.917	4.571	3.925	2.865	2.552	2.014	1.935	1.915	1.424	1.389	1.316	1.255	1.164	1.052	0.964	0.867	0.866	0.962	0.865	0.828	0.714	0.673	0.662	0.661	0.620	0.534	0.495	0.526	0.568	0.554	0.602	0.554	0.503	0.407	0.451	0.479	0.434	0.562	1.008	1.795	2.155	1.312	0.843	1.035	1.826	4.555	11.34	27.91	47.60	50.52	21.12	5.314	0.672	0.475	0.435	0.475	0.493	0.447	0.502	0.511	0.397	0.386	0.388	0.478
270.0	49.43	45.51	39.92	49.08	158.4	339.2	267.5	404.9	2075	6213	7925	2414	53.53	8.818	6.143	4.587	3.632	2.954	2.406	1.956	1.902	1.536	1.536	1.509	1.364	1.223	1.081	1.012	1.014	1.015	0.958	0.896	0.871	0.696	0.669	0.666	0.650	0.598	0.595	0.555	0.561	0.596	0.490	0.611	0.591	0.530	0.523	0.499	0.553	0.444	0.450	0.546	0.892	1.355	1.745	2.084	1.777	1.309	1.468	2.955	6.957	14.71	27.43	40.00	39.07	40.42	15.04	5.509	0.768	0.521	0.478	0.530	0.480	0.470	0.466	0.407	0.478
275.0	79.74	93.95	84.79	56.25	63.49	152.2	429.3	332.5	514.1	1528	5197	9999.9	1186	53.90	9.704	6.326	4.655	3.540	3.097	2.410	2.211	1.819	1.702	1.482	1.335	1.290	1.187	1.182	1.219	1.066	0.995	0.881	0.979	0.777	0.727	0.810	0.633	0.649	0.695	0.573	0.551	0.648	0.606	0.669	0.661	0.708	0.664	0.656	0.644	0.513	0.469	0.563	0.607	0.702	0.909	1.263	2.532	3.235	2.343	1.372	2.046	3.850	6.684	9.785	13.50	33.14	63.12	67.83	23.39	5.737	0.695	0.580	0.572	0.521	0.454	0.519	0.461
280.0	135.5	155.7	148.1	90.37	54.08	67.23	266.3	533.6	284.5	408.5	1454	7739	9865	868.9	25.11	8.185	5.692	3.787	3.470	2.690	2.474	1.969	1.749	1.790	1.525	1.318	1.193	1.163	1.192	1.096	1.015	0.964	0.924	0.852	0.790	0.792	0.678	0.752	0.637	0.656	0.633	0.614	0.582	0.725	0.706	0.825	0.832	0.840	0.802	0.751	0.563	0.637	0.673	0.590	0.643	0.755	1.224	2.419	3.313	2.972	1.574	1.451	2.110	2.936	3.679	8.665	23.00	52.12	75.40	32.81	18.64	2.907	0.633	0.535	0.544	0.507	0.521
285.0	163.5	213.4	210.8	132.6	71.84	55.09	118.6	434.9	518.3	222.0	427.4	2329	9999.9	8020	120.2	13.32	7.249	5.492	3.925	3.111	2.805	2.246	1.905	1.799	1.521	1.365	1.469	1.305	1.143	1.090	1.053	0.949	0.920	0.936	0.878	1.002	0.694	0.813	0.699	0.812	0.665	0.606	0.665	0.761	0.832	0.819	0.856	1.072	1.091	0.899	0.659	0.754	0.653	0.683	0.668	0.616	0.738	1.281	1.978	3.381	3.540	2.322	1.392	1.336	1.731	2.694	5.963	13.92	33.09	58.68	78.25	30.35	12.88	1.495	0.575	0.633	0.608
290.0	222.2	296.4	296.2	196.8	104.8	72.97	94.75	211.5	503.2	494.0	334.8	697.9	2888	7566	8385	2069	32.36	8.047	4.995	3.821	3.218	2.487	2.309	1.900	1.663	1.579	1.568	1.483	1.263	1.194	1.182	1.026	1.060	1.021	1.008	1.020	0.957	0.889	0.753	0.824	0.775	0.693	0.749	0.827	0.891	0.993	1.045	1.269	1.277	1.151	0.888	0.914	0.747	0.807	0.715	0.664	0.727	0.898	1.105	1.677	2.500	3.469	3.707	2.917	1.936	1.879	2.429	4.295	8.600	15.93	30.44	42.17	58.32	49.82	20.66	10.39	2.041
295.0	273.8	369.1	387.5	259.7	154.4	113.3	126.0	172.9	291.2	603.5	767.7	466.1	877.9	1898	4942	9999.9	690.6	32.53	7.491	5.657	4.193	2.984	2.559	2.250	2.071	1.919	1.619	1.467	1.357	1.203	1.353	1.138	1.229	1.047	1.017	0.946	0.976	0.957	0.928	0.850	0.895	0.823	0.850	0.881	1.016	1.200	1.387	1.492	1.642	1.369	1.082	1.126	0.962	0.850	0.799	0.904	0.942	1.059	1.065	1.249	1.613	2.030	2.851	4.161	5.050	3.666	2.374	2.582	3.455	5.046	8.011	10.59	15.39	24.75	53.10	77.69	32.74
300.0	293.4	414.3	433.9	301.0	191.2	155.7	172.7	211.4	278.8	457.1	940.9	725.6	523.7	641.7	1375	6889	9712	535.5	16.52	7.162	5.058	3.551	3.348	2.820	2.125	1.827	1.705	1.521	1.297	1.256	1.280	1.176	1.243	1.129	1.071	1.008	1.019	1.018	0.978	0.855	0.868	0.888	0.949	0.896	1.033	1.307	1.440	1.641	1.764	1.556	1.201	1.135	1.257	1.052	1.015	0.889	1.091	1.173	1.230	1.454	1.581	1.809	2.173	2.949	4.310	5.421	4.689	2.975	2.772	2.765	3.365	3.865	4.634	6.771	15.67	38.82	66.44
305.0	324.3	434.8	484.9	351.2	225.6	197.8	223.2	271.4	328.2	456.6	762.1	1099	643.3	442.8	493.2	1970	8574	5128	75.27	10.39	6.217	4.455	3.444	2.842	2.322	2.116	1.735	1.637	1.484	1.272	1.291	1.207	1.269	1.170	1.174	1.116	1.071	1.066	1.021	0.907	0.891	0.896	0.916	0.910	1.096	1.369	1.396	1.751	1.756	1.572	1.288	1.295	1.316	1.158	1.148	1.159	1.319	1.388	1.474	1.752	2.035	1.947	2.311	2.621	3.170	4.390	6.111	5.965	4.458	3.005	2.885	2.608	2.728	2.863	4.718	9.946	21.64
310.0	325.5	474.1	514.5	389.4	263.0	240.3	272.8	327.4	395.4	512.0	670.4	938.5	1027	602.2	369.7	583.8	2373	5736	6330	1575	24.20	6.210	4.534	3.583	2.896	2.352	2.112	1.763	1.660	1.509	1.388	1.268	1.215	1.126	1.228	1.118	1.144	1.080	1.010	0.908	0.848	0.960	0.933	1.058	1.131	1.279	1.605	1.860	1.905	1.658	1.417	1.508	1.368	1.275	1.324	1.374	1.584	1.718	1.858	1.964	2.147	2.318	2.576	2.896	3.186	3.730	4.388	5.241	5.874	5.574	4.086	3.149	2.599	2.472	2.506	3.307	5.811
315.0	340.9	495.7	550.5	426.0	291.2	278.5	320.1	378.9	462.0	572.1	705.2	804.0	925.7	970.8	494.9	327.2	651.6	1383	3783	8756	508.5	26.28	6.348	4.595	3.529	2.914	2.466	2.052	1.848	1.615	1.503	1.154	1.190	1.285	1.246	1.111	1.060	1.053	1.073	1.003	0.837	0.981	1.080	1.000	1.115	1.399	1.623	2.077	1.961	1.866	1.564	1.618	1.645	1.437	1.437	1.507	1.666	1.917	2.094	2.193	2.490	2.638	2.942	3.097	3.543	3.868	3.696	4.488	4.453	4.961	5.534	6.004	4.302	2.967	2.446	2.205	2.569
320.0	362.8	564.4	644.9	484.6	338.0	316.1	356.1	405.4	502.3	626.5	749.9	816.9	842.3	960.1	771.0	351.5	309.2	417.8	999.5	5498	7614	432.3	14.05	5.838	4.133	3.257	2.843	2.426	1.949	1.680	1.629	1.243	1.382	1.227	1.241	1.197	1.069	1.128	0.928	0.930	0.970	1.091	0.941	1.056	1.258	1.465	1.784	2.199	2.181	2.053	1.677	1.868	1.706	1.573	1.663	1.748	1.901	2.069	2.134	2.539	2.613	2.975	3.216	3.263	3.657	3.824	3.974	4.472	4.343	4.392	4.630	5.718	6.249	4.720	3.156	2.471	2.097
325.0	408.3	670.0	772.8	597.9	407.6	354.4	385.6	439.7	533.3	654.7	779.0	866.1	866.8	840.2	890.7	527.5	280.9	231.5	311.6	1507	6476	3919	60.48	9.040	4.936	3.675	2.951	2.648	2.176	1.936	1.677	1.553	1.332	1.296	1.237	1.177	1.102	1.077	1.071	0.975	0.983	1.040	1.000	1.133	1.352	1.581	1.965	2.470	2.596	2.419	2.000	2.029	2.011	1.821	1.805	1.877	1.854	2.090	2.329	2.551	2.645	3.112	3.272	3.474	3.841	4.088	4.208	4.403	4.504	4.192	4.471	4.441	5.207	5.559	5.025	3.533	2.545
330.0	463.5	753.6	945.2	776.4	515.8	409.4	421.5	473.8	559.8	691.4	820.9	913.8	903.5	824.5	762.6	693.9	447.4	241.5	190.7	422.7	1777	4386	5049	1357	21.79	5.333	3.848	3.047	2.409	2.195	1.794	1.677	1.287	1.337	1.315	1.285	1.164	1.130	1.096	1.041	1.025	1.090	1.082	1.208	1.451	1.754	2.107	2.777	3.086	2.933	2.543	2.663	2.227	2.114	1.884	2.017	2.146	2.226	2.381	2.623	2.924	3.151	3.365	3.725	4.203	4.117	4.501	4.452	4.554	4.702	4.771	4.294	4.439	4.581	4.751	4.578	4.363
335.0	500.2	821.8	1052	910.4	613.4	482.9	459.5	507.2	589.2	707.5	841.9	930.5	937.9	858.6	722.7	617.0	628.7	386.4	208.8	213.3	471.8	1046	3075	7239	1930	25.98	5.597	4.094	2.910	2.297	2.180	1.774	1.503	1.490	1.419	1.340	1.287	1.123	1.169	1.145	1.117	1.037	1.055	1.243	1.553	1.899	2.370	3.071	3.400	3.295	2.931	3.058	2.669	2.430	2.180	2.228	2.391	2.447	2.510	2.858	3.122	3.305	3.557	4.068	4.431	4.347	4.483	4.706	4.604	4.899	5.092	4.546	4.338	4.332	4.066	4.086	4.256
340.0	508.1	824.1	1116	986.9	688.0	527.4	490.6	527.8	604.8	720.7	837.1	936.2	940.6	870.6	737.6	594.2	575.7	544.3	279.0	189.9	199.9	292.2	797.3	4565	6784	386.1	14.69	5.054	3.532	2.783	2.318	1.929	1.659	1.476	1.305	1.285	1.308	1.088	1.183	1.058	1.067	1.115	1.082	1.311	1.475	1.821	2.481	3.065	3.784	3.424	2.913	3.257	2.931	2.563	2.345	2.241	2.594	2.649	2.631	2.846	3.005	3.279	3.586	3.990	4.142	4.256	4.699	4.557	4.690	5.058	4.852	4.620	4.470	4.446	4.190	3.774	3.715
345.0	491.1	812.7	1117	1011	727.5	565.4	508.0	530.7	605.9	713.6	830.5	918.9	927.4	862.6	735.3	589.4	509.3	542.5	411.0	216.4	158.5	143.2	232.6	1240	5524	5488	305.4	7.775	4.292	3.298	2.495	2.224	1.732	1.590	1.358	1.293	1.138	1.246	1.184	1.010	1.141	1.102	1.154	1.304	1.551	1.817	2.375	3.094	3.603	3.522	3.088	3.485	3.042	2.707	2.487	2.486	2.541	2.443	2.572	2.775	2.921	3.218	3.325	3.768	3.811	4.245	4.398	4.652	4.804	4.833	4.506	4.480	4.793	4.570	3.972	3.812	3.858
350.0	475.3	793.2	1055	1013	776.3	613.8	548.6	542.4	608.6	696.3	797.4	879.7	888.9	835.2	728.9	598.8	497.4	457.0	463.1	348.7	196.5	139.3	129.9	330.7	1505	4103	4226	1210	20.11	4.383	3.054	2.480	1.999	1.718	1.451	1.296	1.249	1.174	1.108	1.156	1.079	1.046	1.167	1.274	1.540	1.801	2.307	2.845	3.418	3.323	3.096	3.364	3.156	2.900	2.874	2.492	2.713	2.602	2.626	2.900	2.976	3.207	3.473	3.764	3.917	4.166	4.343	4.435	4.614	4.452	4.560	4.552	4.361	4.630	4.160	3.773	3.723
355.0	425.8	742.1	995.8	989.3	811.2	664.8	591.8	584.0	630.6	699.3	782.8	842.8	848.4	807.7	724.2	609.5	521.1	450.5	406.9	433.7	317.9	179.4	136.0	152.9	385.5	966.9	2524	5835	1688	24.76	4.355	3.117	2.359	2.126	1.745	1.413	1.289	1.180	1.139	1.175	1.029	1.017	1.168	1.187	1.471	1.799	2.102	2.647	3.157	3.086	3.077	3.451	3.167	3.046	2.810	3.043	2.955	2.784	2.807	3.090	3.045	3.392	3.525	3.672	3.877	3.949	4.164	4.325	4.382	4.430	4.353	4.552	4.330	4.368	4.021	4.230	3.767
360.0	403.5	693.6	931.6	968.1	812.5	691.3	631.2	616.4	645.9	707.4	769.0	807.2	817.7	790.2	715.1	620.3	541.5	461.5	400.8	398.1	409.0	252.0	161.5	132.4	157.5	262.6	649.8	3703	5348	366.6	14.33	3.769	2.841	2.219	1.969	1.598	1.413	1.225	1.281	1.185	1.060	1.097	1.211	1.122	1.297	1.694	2.031	2.528	2.816	2.944	3.031	3.288	3.332	3.196	2.957	2.965	3.155	2.952	2.936	3.515	3.137	3.358	3.695	3.727	3.934	3.836	4.013	3.924	4.450	4.253	4.695	4.435	4.183	4.218	4.117	4.036	3.978
365.0	402.0	651.4	872.4	940.6	835.5	709.4	663.7	641.6	662.5	719.9	759.1	791.9	786.4	764.1	702.6	617.9	547.9	480.1	418.7	381.1	401.6	356.1	207.3	150.0	124.0	121.1	186.9	1015	4234	3106	290.1	7.181	3.508	2.617	2.025	1.701	1.396	1.216	1.165	1.199	1.022	1.166	1.185	1.261	1.271	1.649	1.921	2.558	2.937	2.883	2.907	3.192	3.423	3.223	3.188	2.792	3.111	3.199	3.105	3.365	3.295	3.269	3.658	3.783	3.943	3.982	3.960	4.034	4.196	4.169	4.429	4.416	4.389	4.225	3.919	4.048	3.894
370.0	375.2	609.5	839.6	906.6	830.7	740.2	682.0	660.2	676.3	717.2	749.8	774.1	771.9	740.4	688.5	617.9	557.4	500.9	444.8	396.0	365.9	382.7	320.5	202.5	144.9	113.0	103.0	269.1	1149	3007	3701	1123	18.45	3.690	2.655	2.083	1.516	1.430	1.305	1.217	1.040	1.073	1.174	1.218	1.309	1.621	1.901	2.397	2.850	2.801	2.827	3.184	3.371	3.213	3.237	2.928	3.094	3.178	3.117	3.495	3.363	3.315	3.508	3.782	3.913	3.967	3.720	3.788	4.223	4.196	4.362	4.231	4.282	4.187	3.954	3.868	4.330
375.0	374.9	575.6	799.8	871.6	838.0	772.2	707.0	672.3	695.8	716.2	743.7	755.7	744.4	712.7	668.7	610.1	564.4	514.7	470.1	425.7	375.6	353.2	371.9	307.7	188.7	138.7	109.9	121.8	299.0	714.1	2100	4881	1577	22.42	3.521	2.450	1.750	1.720	1.357	1.308	1.148	1.208	1.136	1.163	1.356	1.647	1.773	2.124	2.452	2.607	2.661	3.149	3.280	3.346	3.324	3.151	3.341	3.219	3.349	3.395	3.375	3.686	3.430	3.859	3.869	3.969	3.916	3.806	3.848	4.211	4.126	4.180	3.843	4.143	4.130	4.147	3.984
380.0	334.2	539.3	748.9	843.7	823.3	783.7	715.6	690.9	695.9	717.2	738.6	740.9	727.0	700.5	651.6	611.2	561.0	522.8	479.8	437.6	390.5	352.5	343.4	364.9	252.4	165.9	126.0	104.3	121.9	198.6	542.3	2989	4654	309.8	12.48	3.159	2.125	1.860	1.533	1.290	1.286	1.236	1.183	1.156	1.397	1.637	1.725	2.148	2.409	2.532	2.631	3.234	3.323	3.122	3.082	3.273	3.434	3.445	3.444	3.470	3.463	3.546	3.692	3.391	3.832	3.894	3.765	3.575	3.685	3.921	4.165	3.720	3.889	4.170	3.949	3.957	3.824
385.0	326.3	545.7	727.0	822.2	833.4	779.9	720.9	704.4	693.9	699.6	726.3	723.2	716.3	686.3	648.5	599.2	556.5	527.2	487.3	450.7	408.6	365.6	337.0	351.0	324.9	208.1	148.8	115.3	96.02	93.11	157.6	811.1	3550	2614	243.6	5.761	2.673	2.237	1.827	1.398	1.379	1.289	1.140	1.250	1.436	1.500	1.785	2.147	2.394	2.497	2.507	3.077	3.321	3.189	3.179	3.168	3.646	3.548	3.416	3.594	3.621	3.496	3.789	3.502	3.686	3.576	3.541	3.828	3.679	3.682	3.711	3.714	3.771	4.045	4.209	3.869	3.804
390.0	315.3	509.3	692.8	802.4	808.8	772.5	728.2	697.5	696.0	696.1	705.5	692.6	690.5	662.0	629.4	579.8	548.2	521.2	490.5	459.9	421.3	381.7	350.3	326.4	331.1	290.2	195.6	144.4	113.0	88.98	84.19	214.7	956.0	2415	2871	900.5	15.30	2.962	2.120	1.683	1.447	1.328	1.250	1.177	1.322	1.563	1.693	2.136	2.368	2.378	2.455	2.964	3.170	3.265	3.391	3.207	3.483	3.536	3.462	3.488	3.601	3.490	3.651	3.559	3.667	3.728	3.436	3.736	3.595	3.655	3.822	3.741	3.925	3.818	3.771	3.722	3.856
395.0	306.2	488.8	689.9	791.7	801.8	763.5	733.0	699.7	687.4	675.9	687.4	679.1	660.2	644.8	601.9	564.3	535.3	512.9	488.5	458.6	426.6	394.3	365.2	335.9	310.3	318.4	276.7	186.3	140.5	108.6	86.16	96.30	245.0	570.4	1611	3715	1272	18.82	3.353	2.186	1.690	1.267	1.372	1.179	1.313	1.538	1.712	1.934	2.316	2.314	2.489	3.193	3.012	3.385	3.346	3.200	3.318	3.466	3.246	3.559	3.771	3.570	3.614	3.631	3.492	3.541	3.465	3.583	3.460	3.585	3.715	3.524	3.834	3.837	3.722	3.753	3.703
400.0	317.1	474.1	679.6	766.9	780.9	753.2	724.1	699.7	683.5	680.3	675.0	663.9	647.9	621.7	588.4	549.0	523.5	504.1	480.5	454.8	430.6	401.6	375.6	345.3	314.4	302.7	313.0	239.6	166.3	129.1	100.8	81.10	94.21	155.2	414.9	2267	3526	266.4	11.17	2.483	1.846	1.597	1.415	1.385	1.327	1.604	1.739	2.020	2.345	2.401	2.330	3.193	3.011	3.220	3.648	3.168	3.286	3.398	3.494	3.447	3.592	3.269	3.500	3.523	3.605	3.311	3.465	3.386	3.354	3.446	3.592	3.528	3.765	3.586	3.605	3.500	3.864
405.0	284.0	457.6	643.5	744.4	777.8	762.6	718.7	707.4	682.8	677.1	665.7	655.0	636.2	616.6	571.1	539.2	508.1	495.0	471.5	449.1	426.3	405.5	383.8	353.3	327.5	300.1	305.5	291.0	203.2	151.7	118.9	88.69	70.51	69.40	116.8	608.9	2642	2233	211.6	4.914	2.272	1.760	1.441	1.493	1.352	1.618	1.692	1.965	2.068	2.297	2.314	2.892	3.113	3.231	3.462	3.101	3.407	3.411	3.395	3.543	3.660	3.401	3.415	3.406	3.420	3.258	3.388	3.388	3.361	3.388	3.465	3.408	3.447	3.495	3.396	3.785	3.606
410.0	284.6	440.7	620.2	724.8	745.2	737.7	721.8	697.4	670.6	671.6	663.6	641.3	623.6	595.9	557.9	515.9	492.2	473.0	453.2	435.3	419.0	402.3	382.5	361.8	336.6	307.0	290.2	290.3	262.0	190.6	141.0	106.2	78.59	60.60	57.03	158.0	705.1	1852	2283	778.8	13.79	2.175	1.776	1.499	1.514	1.522	1.658	1.992	2.233	2.230	2.399	2.740	3.261	3.075	3.192	3.111	3.473	3.606	3.301	3.317	3.377	3.417	3.341	3.486	3.399	3.382	3.376	3.214	3.409	3.100	3.377	3.473	3.398	3.364	3.308	3.483	3.427
415.0	280.5	429.3	588.8	698.7	733.7	707.2	706.4	684.7	672.3	653.3	639.6	620.1	602.7	575.6	527.4	491.6	465.1	445.7	433.5	419.2	401.8	392.0	378.2	361.8	337.1	317.6	290.6	270.8	271.2	246.1	170.1	123.7	91.50	67.62	51.96	62.99	176.6	434.5	1205	2752	1025	17.34	2.486	1.743	1.551	1.672	1.671	1.974	2.275	2.208	2.208	2.808	3.107	3.221	3.195	2.971	3.340	3.271	3.454	3.442	3.206	3.403	3.354	3.406	3.273	3.132	3.098	3.176	3.236	3.294	3.082	3.240	3.230	3.106	3.131	3.518	3.189
