Sample:	'1
File name:	T2025041705 人民政府南桥.FD3
Run date:	'10:21:58, 04/21/2025
Operator:	Administrator
Comment:	'

Instrument
Model:	F-2700 FL Spectrophotometer
Serial number:	23B8-004
ROM Version:	4J14000 07

Instrument parameters
Measurement type:	3-D scan
Data mode:	Fluorescence
EX  Start WL:	220.0 nm
EX  End WL:	600.0 nm
EX Sampling interval:	5.0 nm
EM  Start WL:	230.0 nm
EM  End WL:	650.0 nm
EM Sampling interval:	5.0 nm
Scan speed:	12000 nm/min
EX Slit:	5.0 nm
EM Slit:	5.0 nm
PMT Voltage:	700 V
Response:	Auto 
Corrected spectra:	Off
Contour interval:	50.000

Peak integration
Integration method:	Rectangular
Sensitivity:	1
Threshold:	1.000

Peaks
No.	ApexEX/EM(nm)	Height(Data)
1	225.0/560.0	53.14
2	225.0/580.0	56.05
3	230.0/345.0	1101
4	230.0/500.0	294.9
5	230.0/570.0	55.76
6	235.0/400.0	729.4
7	235.0/510.0	257.2
8	240.0/265.0	354.9
9	240.0/525.0	228.8
10	245.0/270.0	357.3
11	245.0/535.0	192.4
12	250.0/275.0	456.1
13	250.0/545.0	150.2
14	255.0/280.0	574.6
15	255.0/560.0	133.5
16	260.0/285.0	585.1
17	260.0/575.0	108.5
18	265.0/585.0	108.7
19	270.0/300.0	940.4
20	270.0/400.0	590.2
21	270.0/600.0	88.79
22	275.0/305.0	1127
23	275.0/610.0	82.38
24	280.0/310.0	999.4
25	280.0/340.0	817.7
26	280.0/625.0	68.28
27	285.0/315.0	932.5
28	285.0/635.0	52.53
29	290.0/325.0	839.1
30	305.0/345.0	517.2
31	315.0/355.0	409.1
32	320.0/360.0	382.5
33	325.0/370.0	365.2
34	330.0/375.0	356.1
35	335.0/380.0	347.9
36	340.0/390.0	319.8
37	350.0/400.0	302.5
38	430.0/505.0	29.21
39	445.0/525.0	17.45
40	460.0/340.0	3.027
41	465.0/345.0	2.894
42	500.0/270.0	1.943
43	505.0/275.0	2.933
44	520.0/285.0	3.578
45	530.0/290.0	3.512
46	540.0/295.0	4.731
47	545.0/300.0	5.483
48	550.0/305.0	5.627
49	560.0/310.0	5.146
50	570.0/315.0	5.242
51	580.0/320.0	5.215
52	585.0/325.0	4.937

Data points
	220.0	225.0	230.0	235.0	240.0	245.0	250.0	255.0	260.0	265.0	270.0	275.0	280.0	285.0	290.0	295.0	300.0	305.0	310.0	315.0	320.0	325.0	330.0	335.0	340.0	345.0	350.0	355.0	360.0	365.0	370.0	375.0	380.0	385.0	390.0	395.0	400.0	405.0	410.0	415.0	420.0	425.0	430.0	435.0	440.0	445.0	450.0	455.0	460.0	465.0	470.0	475.0	480.0	485.0	490.0	495.0	500.0	505.0	510.0	515.0	520.0	525.0	530.0	535.0	540.0	545.0	550.0	555.0	560.0	565.0	570.0	575.0	580.0	585.0	590.0	595.0	600.0
230.0	31.97	587.4	1947	732.1	42.00	4.331	3.682	3.227	2.850	2.203	2.331	2.137	1.771	1.593	1.345	1.118	0.923	0.862	0.781	0.608	0.626	0.577	0.487	0.452	0.473	0.444	0.375	0.364	0.366	0.371	0.319	0.324	0.303	0.253	0.263	0.233	0.257	0.207	0.205	0.229	0.263	0.299	0.322	0.247	0.191	0.216	0.650	3.347	6.746	5.695	2.368	0.505	0.176	0.149	0.149	0.116	0.131	0.127	0.117	0.150	0.128	0.125	0.120	0.130	0.120	0.139	0.134	0.129	0.124	0.131	0.116	0.125	0.107	0.146	0.111	0.165	0.119
235.0	92.22	172.8	1073	2243	589.9	68.99	5.099	3.989	3.443	2.286	2.395	2.159	1.857	1.804	1.425	1.448	1.084	0.940	0.834	0.702	0.637	0.765	0.612	0.466	0.484	0.484	0.397	0.402	0.369	0.340	0.348	0.342	0.301	0.293	0.251	0.234	0.261	0.196	0.282	0.201	0.235	0.282	0.252	0.366	0.343	0.312	0.321	0.946	2.485	4.763	7.465	8.730	4.615	1.000	0.203	0.180	0.140	0.105	0.163	0.168	0.147	0.158	0.114	0.141	0.127	0.144	0.119	0.127	0.125	0.149	0.108	0.116	0.108	0.138	0.166	0.151	0.109
240.0	137.3	138.1	308.1	1665	2648	472.7	40.34	4.646	3.586	2.553	2.648	2.360	2.591	2.235	1.740	1.410	1.207	0.958	0.869	0.712	0.609	0.539	0.597	0.605	0.479	0.483	0.536	0.398	0.343	0.375	0.338	0.364	0.320	0.248	0.237	0.210	0.212	0.217	0.279	0.242	0.244	0.249	0.238	0.306	0.438	0.572	0.422	0.420	0.745	1.372	3.685	8.977	13.42	9.725	4.028	0.726	0.177	0.121	0.161	0.176	0.153	0.189	0.138	0.139	0.122	0.129	0.135	0.211	0.133	0.176	0.117	0.139	0.142	0.145	0.165	0.134	0.118
245.0	95.85	200.2	141.9	521.0	2416	2886	365.2	17.05	4.696	3.758	2.911	2.652	2.403	1.932	1.896	1.346	1.072	1.018	1.024	0.722	0.684	0.688	0.536	0.507	0.500	0.432	0.422	0.456	0.341	0.411	0.452	0.384	0.358	0.259	0.291	0.195	0.243	0.243	0.221	0.228	0.259	0.230	0.203	0.243	0.330	0.505	0.617	0.623	0.465	0.418	1.027	2.620	7.765	13.60	16.77	10.12	2.786	0.392	0.198	0.175	0.164	0.165	0.135	0.108	0.158	0.114	0.153	0.147	0.135	0.222	0.136	0.135	0.123	0.157	0.118	0.135	0.140
250.0	39.14	127.7	235.0	224.3	721.7	2277	3268	1290	92.41	5.591	4.263	3.710	3.119	2.273	2.030	1.538	1.149	1.126	1.054	1.000	0.727	0.551	0.604	0.589	0.468	0.515	0.483	0.459	0.391	0.378	0.385	0.343	0.319	0.258	0.273	0.192	0.271	0.258	0.228	0.246	0.249	0.225	0.232	0.262	0.238	0.331	0.416	0.662	0.791	0.793	0.712	0.803	1.968	4.118	8.643	13.03	17.40	16.64	9.928	3.020	0.413	0.189	0.198	0.131	0.153	0.114	0.164	0.155	0.156	0.153	0.132	0.151	0.139	0.118	0.132	0.140	0.174
255.0	23.07	46.39	142.7	330.1	278.1	558.4	1999	4956	1839	105.7	6.655	4.970	3.617	3.062	2.747	1.315	1.190	1.015	1.111	1.206	0.848	0.761	0.771	0.626	0.523	0.619	0.504	0.418	0.380	0.330	0.418	0.352	0.359	0.354	0.278	0.305	0.258	0.236	0.201	0.241	0.268	0.224	0.249	0.240	0.228	0.326	0.319	0.325	0.366	0.699	1.183	1.305	0.999	1.130	2.126	3.114	5.498	12.82	25.66	27.64	15.89	3.466	0.363	0.157	0.154	0.168	0.139	0.132	0.154	0.164	0.124	0.160	0.149	0.138	0.127	0.135	0.218
260.0	20.30	23.33	55.93	251.1	349.3	192.7	562.6	3290	5884	1432	57.43	7.072	4.997	3.899	3.048	1.938	1.736	1.406	1.301	1.244	0.906	0.855	0.790	0.555	0.605	0.619	0.532	0.617	0.404	0.410	0.510	0.439	0.399	0.392	0.303	0.324	0.288	0.211	0.231	0.238	0.290	0.263	0.232	0.233	0.304	0.241	0.274	0.232	0.184	0.338	0.635	1.420	1.660	1.053	0.792	0.841	1.497	3.350	9.524	22.38	35.74	26.89	13.05	2.018	0.223	0.209	0.156	0.170	0.173	0.218	0.146	0.158	0.129	0.139	0.208	0.170	0.180
265.0	24.59	18.54	26.21	106.0	354.9	282.0	167.9	987.1	4875	6400	234.3	22.97	6.625	4.676	3.412	2.304	1.813	1.634	1.490	1.312	1.069	0.885	0.772	0.759	0.578	0.625	0.587	0.663	0.514	0.494	0.499	0.409	0.352	0.358	0.355	0.346	0.305	0.323	0.318	0.271	0.282	0.312	0.263	0.254	0.312	0.286	0.246	0.176	0.256	0.230	0.287	0.682	1.341	1.950	1.669	0.692	0.538	0.967	2.364	6.144	16.12	32.78	43.50	24.46	8.132	0.768	0.179	0.233	0.228	0.211	0.174	0.178	0.152	0.191	0.200	0.179	0.159
270.0	46.39	44.52	36.56	42.73	153.2	357.3	304.3	284.5	1394	4625	6721	2618	67.69	7.589	4.958	3.365	2.443	1.791	1.517	1.404	1.067	0.962	0.872	0.852	0.732	0.550	0.654	0.648	0.602	0.491	0.498	0.403	0.513	0.465	0.405	0.341	0.364	0.333	0.302	0.250	0.323	0.282	0.279	0.324	0.298	0.287	0.343	0.268	0.229	0.242	0.256	0.306	0.519	0.979	1.626	1.878	1.943	1.079	0.907	1.633	3.925	8.894	18.01	28.24	30.89	36.15	16.74	7.297	0.889	0.243	0.197	0.199	0.161	0.189	0.189	0.181	0.171
275.0	85.62	99.66	94.23	56.30	61.65	147.2	456.1	352.8	367.4	1112	3488	9597	1283	76.98	7.611	4.783	3.220	2.576	1.774	1.511	1.497	1.247	1.014	0.950	0.865	0.696	0.672	0.749	0.665	0.611	0.498	0.605	0.513	0.536	0.488	0.390	0.410	0.304	0.340	0.379	0.376	0.351	0.280	0.310	0.429	0.402	0.433	0.355	0.402	0.359	0.315	0.336	0.315	0.396	0.575	0.904	1.858	2.933	2.378	1.034	1.171	2.335	4.344	6.634	8.889	20.81	44.06	58.66	26.69	8.620	0.638	0.220	0.195	0.262	0.201	0.192	0.212
280.0	136.6	204.3	172.7	93.47	56.33	68.46	246.1	574.6	287.5	315.4	941.0	5516	9641	997.1	37.83	7.176	4.347	3.071	2.240	1.649	1.601	1.320	1.102	1.025	1.108	0.714	0.758	0.712	0.746	0.542	0.567	0.703	0.547	0.576	0.435	0.509	0.564	0.380	0.396	0.384	0.364	0.328	0.380	0.436	0.479	0.572	0.602	0.626	0.565	0.421	0.444	0.395	0.319	0.317	0.328	0.535	0.835	1.750	2.940	2.985	1.701	1.011	1.351	1.952	2.388	5.314	13.90	34.84	57.03	34.08	21.04	3.977	0.363	0.303	0.259	0.181	0.274
285.0	219.1	265.5	250.3	140.3	68.01	51.51	111.2	431.2	585.1	226.1	312.3	1562	7236	8224	665.9	15.96	6.080	3.866	2.981	2.261	1.692	1.423	1.177	1.225	1.082	0.712	0.792	0.671	0.613	0.748	0.609	0.671	0.592	0.508	0.554	0.625	0.640	0.440	0.484	0.513	0.413	0.384	0.448	0.466	0.495	0.778	0.749	0.823	0.752	0.631	0.478	0.543	0.379	0.467	0.320	0.369	0.462	0.822	1.433	2.999	3.578	2.378	1.260	0.977	1.132	1.807	3.765	8.889	20.81	40.57	63.61	31.33	15.10	1.531	0.326	0.253	0.271
290.0	290.0	351.9	341.1	204.2	101.6	73.19	87.35	202.2	516.8	612.0	329.5	518.7	1998	5656	7103	2184	37.41	5.995	4.345	2.805	2.217	1.729	1.401	1.361	1.256	0.838	0.813	0.734	0.713	0.743	0.682	0.711	0.643	0.712	0.663	0.663	0.692	0.587	0.504	0.533	0.473	0.532	0.556	0.560	0.632	0.876	0.870	1.129	1.033	0.885	0.644	0.689	0.563	0.469	0.407	0.438	0.440	0.573	0.827	1.355	1.987	3.080	3.512	2.650	1.733	1.442	1.671	2.854	5.558	10.56	21.82	31.35	46.33	41.78	20.87	10.62	1.826
295.0	333.7	448.9	406.2	264.7	147.4	107.9	114.0	160.3	278.6	614.3	803.8	437.9	669.0	1434	3363	8590	721.4	39.36	6.093	4.416	2.905	2.160	1.613	1.509	1.337	0.973	0.874	0.835	0.924	0.807	0.750	0.651	0.681	0.718	0.718	0.712	0.786	0.619	0.664	0.483	0.474	0.534	0.595	0.721	0.843	1.092	0.964	1.272	1.190	1.036	0.784	0.932	0.756	0.580	0.540	0.552	0.603	0.650	0.749	0.911	1.163	1.565	2.036	3.666	4.731	3.415	2.090	1.823	2.516	3.506	5.922	7.847	11.66	17.90	38.98	60.70	32.32
300.0	358.2	485.5	458.9	318.3	181.6	141.0	156.9	197.8	270.3	449.4	940.4	756.7	463.8	526.0	944.0	4829	7743	575.0	19.01	5.443	3.676	2.657	1.877	1.797	1.365	1.237	1.133	1.018	0.800	0.817	0.720	0.695	0.674	0.828	0.830	0.781	0.844	0.692	0.676	0.642	0.557	0.684	0.649	0.743	0.761	1.010	1.035	1.398	1.242	1.141	0.952	0.848	0.784	0.679	0.640	0.658	0.815	0.895	0.845	1.086	1.182	1.456	1.572	2.370	3.808	5.483	4.784	2.755	2.322	2.060	2.511	2.893	3.596	4.948	11.19	28.71	54.49
305.0	382.8	523.6	488.1	357.3	217.5	181.7	198.8	247.8	324.8	425.3	740.2	1127	630.6	392.7	380.6	1348	5971	5143	78.54	9.015	4.739	3.036	2.430	1.849	1.348	1.202	1.290	1.073	0.921	0.948	0.867	0.703	0.698	0.794	0.879	0.758	0.822	0.762	0.704	0.650	0.573	0.622	0.706	0.789	0.984	1.103	1.085	1.504	1.447	1.166	0.963	0.890	0.881	0.750	0.730	0.848	0.946	1.037	1.242	1.532	1.415	1.727	1.852	2.011	2.758	4.191	5.627	5.308	3.809	2.370	2.270	2.036	2.178	2.224	3.277	7.516	17.16
310.0	387.1	528.3	501.5	373.5	238.8	217.9	246.2	297.2	369.4	462.9	621.7	904.7	999.4	570.4	317.4	432.0	1639	4377	5079	1451	23.04	4.660	3.196	2.432	1.726	1.573	1.397	1.115	1.107	0.976	0.884	0.708	0.771	0.815	0.804	0.853	0.821	0.720	0.663	0.659	0.635	0.652	0.708	0.784	0.927	1.064	1.189	1.582	1.425	1.273	1.100	1.112	1.086	0.882	0.996	0.973	1.125	1.218	1.369	1.530	1.548	1.896	1.999	2.372	2.620	3.093	3.699	4.316	5.146	4.659	3.621	2.616	1.975	1.730	1.737	2.519	4.548
315.0	409.8	566.5	539.8	391.3	273.3	248.8	277.5	335.1	411.4	506.8	625.6	739.8	863.0	932.5	452.4	269.0	475.2	1065	2817	6504	506.9	20.99	4.620	3.165	2.148	1.878	1.686	1.196	1.511	0.923	0.958	0.735	0.821	0.806	0.806	0.956	0.734	0.769	0.699	0.645	0.625	0.705	0.764	0.897	0.941	1.078	1.221	1.490	1.535	1.337	1.041	1.234	1.170	0.974	1.143	1.120	1.339	1.392	1.462	1.770	1.784	2.045	2.261	2.549	2.830	3.036	3.208	3.316	3.563	4.174	5.242	4.947	3.511	2.083	1.684	1.594	1.936
320.0	448.5	602.9	613.3	430.4	300.0	276.8	306.0	362.0	437.9	533.4	648.2	726.6	762.1	900.5	722.5	302.7	253.6	331.1	761.9	4144	4213	395.2	9.355	4.393	2.719	2.199	1.738	1.313	1.468	1.029	1.049	0.829	0.905	0.771	0.920	0.787	0.721	0.717	0.750	0.626	0.657	0.765	0.665	0.866	0.989	1.226	1.565	1.694	1.840	1.636	1.236	1.291	1.320	1.125	1.163	1.248	1.324	1.457	1.513	1.822	1.939	1.998	2.271	2.742	2.879	3.162	3.275	3.370	3.513	3.452	3.932	5.027	5.215	3.636	2.516	1.591	1.649
325.0	503.9	691.8	734.9	538.4	348.9	305.8	327.0	388.3	472.7	563.7	673.6	751.0	751.5	750.3	839.1	473.0	239.4	192.9	242.5	1178	4613	3682	57.13	6.381	3.877	2.791	1.856	1.666	1.333	1.290	1.177	1.002	0.808	0.932	0.816	0.787	0.851	0.788	0.727	0.558	0.665	0.704	0.752	0.881	1.137	1.316	1.655	2.151	1.987	1.739	1.614	1.570	1.456	1.230	1.332	1.315	1.588	1.609	1.664	1.887	2.182	2.037	2.510	2.810	3.274	3.184	3.328	3.408	3.686	3.515	3.404	3.915	4.572	4.937	4.193	2.760	1.824
330.0	542.9	811.6	907.5	697.3	441.8	347.7	356.4	408.3	489.3	593.0	700.1	776.9	779.1	711.5	687.2	648.2	399.3	205.0	154.7	333.6	1326	3555	3903	1011	16.84	3.829	2.553	2.029	1.438	1.415	1.216	1.096	1.010	0.975	0.984	0.857	0.856	0.740	0.789	0.732	0.700	0.764	0.814	0.947	1.173	1.535	1.805	2.356	2.381	2.356	1.983	2.051	1.709	1.543	1.432	1.448	1.539	1.716	1.807	1.885	2.147	2.319	2.523	2.804	3.205	3.274	3.283	3.384	3.582	3.616	3.431	3.290	3.501	3.816	4.034	3.821	3.370
335.0	537.2	905.3	1012	817.1	543.1	401.8	385.0	428.8	513.6	611.2	717.9	800.2	803.8	732.8	644.1	557.3	587.0	343.8	176.4	172.6	357.3	859.7	2567	5130	404.4	15.92	3.883	2.608	1.873	1.524	1.369	1.232	1.053	0.964	1.001	0.876	0.815	0.755	0.746	0.703	0.736	0.831	0.888	1.112	1.286	1.621	1.882	2.462	2.718	2.590	2.127	2.245	2.003	1.690	1.540	1.635	1.828	1.660	1.842	1.951	2.203	2.375	2.612	2.842	3.117	3.236	3.578	3.355	3.603	3.697	3.551	3.559	3.451	3.547	3.063	3.113	3.835
340.0	582.8	895.7	1082	870.9	586.2	446.7	411.7	440.3	519.9	624.2	729.2	793.7	817.7	749.1	643.1	512.2	541.1	502.1	240.9	159.6	161.6	243.8	696.9	3704	3411	322.6	7.791	3.152	2.383	1.695	1.422	1.102	1.194	1.117	1.078	0.886	0.913	0.803	0.814	0.801	0.684	0.746	0.880	0.998	1.266	1.742	1.858	2.698	3.027	2.690	2.356	2.584	2.271	1.979	1.822	1.723	2.046	1.807	1.830	2.083	2.073	2.387	2.851	3.031	3.234	3.403	3.442	3.610	3.601	3.928	3.862	3.480	3.436	3.519	3.270	2.993	2.907
345.0	583.8	868.6	1101	908.0	633.9	463.5	435.9	451.2	511.7	613.5	709.0	781.8	804.6	739.8	636.0	510.8	458.3	517.2	370.6	182.7	131.2	121.1	203.2	1095	4096	2989	49.00	4.916	2.776	2.270	1.682	1.331	1.141	1.052	1.003	0.925	0.845	0.810	0.802	0.727	0.763	0.796	0.933	0.882	1.188	1.647	1.900	2.362	2.858	2.894	2.449	2.639	2.368	2.311	1.822	1.568	1.948	1.792	1.857	2.071	2.284	2.328	2.675	2.857	3.127	3.284	3.424	3.505	3.908	3.870	3.620	3.485	3.879	3.396	3.380	3.105	2.881
350.0	538.6	826.2	1042	910.0	653.7	498.0	462.8	468.2	521.3	599.0	690.2	754.0	770.9	725.3	632.6	521.7	438.0	414.2	435.7	311.5	166.6	120.7	111.5	291.5	1219	3035	3104	760.0	13.68	3.084	2.084	1.680	1.344	1.239	1.024	0.850	0.814	0.836	0.776	0.723	0.734	0.769	0.780	0.891	1.128	1.616	1.847	2.362	2.737	2.723	2.442	2.715	2.429	2.260	1.940	1.946	1.901	1.874	1.961	2.005	2.223	2.416	2.492	2.839	3.101	3.181	3.165	3.618	3.630	3.652	3.735	3.564	3.435	3.266	3.404	3.021	3.091
355.0	510.3	760.7	956.3	861.5	671.5	546.9	498.6	486.9	525.8	596.5	668.1	720.9	726.7	702.1	628.9	534.5	450.3	393.5	367.8	409.1	285.3	156.7	119.2	134.5	317.8	736.7	2190	3960	357.5	13.19	2.982	1.914	1.568	1.408	1.141	1.047	1.001	0.831	0.828	0.726	0.740	0.809	0.783	0.934	1.133	1.488	1.703	2.206	2.561	2.528	2.421	2.674	2.504	2.217	2.044	2.068	2.063	2.139	2.005	2.174	2.286	2.388	2.553	2.898	2.831	2.948	3.054	3.431	3.238	3.607	3.393	3.638	3.315	3.256	3.067	3.196	2.931
360.0	494.8	722.0	903.4	848.8	684.5	574.7	514.4	510.0	536.0	599.8	659.3	701.7	707.1	681.2	620.9	538.1	466.6	403.2	351.2	376.6	382.5	223.1	142.4	119.9	132.0	205.8	600.9	3039	3053	284.0	5.662	2.794	1.849	1.541	1.221	1.136	0.886	0.902	0.794	0.795	0.827	0.827	0.846	0.896	1.067	1.231	1.666	2.036	2.454	2.357	2.313	2.609	2.485	2.359	2.187	1.925	1.982	2.230	2.100	2.120	2.403	2.585	2.530	2.736	2.745	2.948	3.190	3.382	3.119	3.487	3.286	3.442	3.548	3.420	3.067	3.164	3.022
365.0	469.3	685.7	884.3	839.2	708.7	593.2	535.1	525.2	556.1	595.1	638.5	685.1	690.3	663.6	615.2	537.0	477.0	419.1	367.0	345.1	381.5	326.8	183.9	135.1	106.1	97.22	171.9	926.7	3542	2665	44.26	4.202	2.318	1.910	1.312	1.234	1.081	0.852	0.858	0.753	0.841	0.805	0.877	0.965	1.101	1.268	1.679	2.000	2.406	2.279	2.141	2.561	2.512	2.444	2.291	2.021	2.314	2.338	2.285	2.414	2.416	2.607	2.619	2.754	2.821	3.020	2.850	3.220	3.219	3.260	3.267	3.310	3.425	3.386	3.105	3.150	3.194
370.0	437.3	660.6	818.6	804.6	709.5	614.2	555.2	551.8	560.0	591.3	627.1	663.8	666.1	643.8	604.0	539.1	487.5	443.1	393.0	356.5	341.2	365.2	298.7	182.2	129.5	100.6	93.71	244.9	1069	2728	2781	195.0	12.48	2.407	1.704	1.366	1.123	1.006	0.918	0.798	0.767	0.729	0.866	0.931	1.118	1.167	1.494	1.922	2.195	2.160	2.065	2.408	2.521	2.433	2.175	2.078	2.144	2.314	2.274	2.362	2.422	2.564	2.529	2.680	2.826	2.876	2.788	3.025	3.074	3.049	3.101	3.271	3.239	3.193	3.174	3.140	3.152
375.0	406.9	627.1	764.1	781.9	715.6	637.0	575.3	573.8	575.3	593.9	614.3	641.7	644.5	623.1	585.5	539.3	495.3	458.7	415.9	381.6	343.6	327.6	356.1	284.9	170.1	124.5	96.26	108.7	275.9	665.9	2058	2875	307.2	11.49	2.552	1.741	1.354	1.098	1.011	0.913	0.870	0.766	0.770	0.882	1.139	1.154	1.463	1.852	2.192	2.074	2.050	2.549	2.482	2.430	2.534	2.226	2.238	2.340	2.499	2.358	2.425	2.614	2.511	2.843	2.563	2.683	2.843	3.159	3.012	3.044	2.918	3.137	3.057	3.020	3.198	2.902	3.007
380.0	397.8	611.3	731.5	765.7	715.0	641.3	594.6	566.9	568.6	583.0	609.4	633.6	632.7	611.3	577.2	534.4	499.7	463.4	430.8	397.7	360.2	325.4	328.0	347.9	229.9	149.3	114.0	93.66	110.5	183.7	570.2	2558	2610	238.7	5.328	2.235	1.611	1.152	0.930	0.914	0.748	0.816	0.846	0.884	1.087	1.218	1.288	1.875	1.973	1.940	2.024	2.396	2.647	2.330	2.512	2.167	2.300	2.403	2.483	2.381	2.538	2.455	2.478	2.712	2.561	2.776	2.675	2.865	2.779	2.953	2.936	2.915	3.053	3.011	3.242	2.936	3.199
385.0	400.8	573.6	712.0	749.7	716.7	659.1	606.7	575.2	570.7	596.5	603.5	620.0	623.0	601.0	565.2	524.1	497.6	472.8	440.7	410.6	378.8	339.6	313.4	337.9	307.9	188.6	136.0	104.9	86.64	85.40	159.7	781.1	2892	2202	37.25	3.276	1.915	1.415	0.979	1.034	0.908	0.916	0.810	0.905	0.995	1.304	1.332	1.796	1.796	1.780	2.015	2.347	2.726	2.462	2.433	2.299	2.565	2.333	2.746	2.555	2.598	2.516	2.575	2.527	2.733	2.657	2.728	2.885	2.767	2.849	2.819	2.956	2.981	2.918	3.182	2.953	3.169
390.0	383.6	549.7	709.6	742.2	708.8	668.8	619.8	584.6	580.8	590.1	595.7	604.0	601.1	581.0	552.3	515.8	489.7	468.2	443.5	419.8	387.6	355.3	323.8	309.3	319.8	272.8	179.0	131.6	103.4	80.50	80.01	205.8	848.6	2075	2114	548.6	11.21	2.096	1.311	1.106	1.035	0.914	0.939	0.946	1.052	1.173	1.391	1.675	1.735	1.835	1.940	2.291	2.564	2.400	2.424	2.389	2.635	2.461	2.617	2.433	2.489	2.452	2.607	2.749	2.672	2.644	2.777	2.756	2.700	2.797	2.872	2.961	2.828	3.059	3.032	3.032	3.078
395.0	373.9	536.0	676.4	713.7	704.3	664.3	616.1	596.6	588.9	577.0	585.6	588.3	582.0	565.8	539.8	500.9	483.0	462.7	442.3	424.0	394.0	369.3	341.9	314.0	295.1	302.3	259.2	171.5	129.5	101.9	79.71	88.64	217.7	501.2	1441	2381	264.4	11.71	1.851	1.496	1.151	0.961	0.955	1.002	1.140	1.273	1.367	1.608	1.822	1.738	1.851	2.345	2.477	2.390	2.479	2.603	2.658	2.567	2.521	2.422	2.645	2.604	2.530	2.750	2.583	2.675	2.526	2.625	2.589	2.761	2.759	2.819	2.596	2.806	3.031	2.954	2.826
400.0	374.8	538.6	658.4	729.4	704.0	667.1	631.6	604.7	590.2	583.4	590.2	583.6	574.5	555.7	530.8	494.9	469.9	458.2	439.5	420.6	394.9	375.0	349.6	326.3	294.4	285.0	302.5	225.8	154.0	119.5	92.04	72.78	84.68	136.5	389.8	1807	2162	218.2	5.569	1.782	1.296	1.167	1.009	1.017	1.114	1.211	1.320	1.598	1.752	1.642	1.844	2.252	2.394	2.429	2.571	2.517	2.634	2.456	2.600	2.425	2.444	2.548	2.547	2.622	2.611	2.606	2.457	2.703	2.683	2.581	2.777	2.840	2.749	2.811	2.831	3.015	2.909
405.0	381.8	523.2	657.9	703.8	698.7	665.9	637.5	612.6	593.0	578.1	581.9	576.5	558.8	546.1	516.8	480.7	461.3	446.5	434.1	415.9	398.2	380.2	354.7	330.6	303.4	280.3	289.5	276.1	188.5	138.2	108.6	80.73	63.41	60.89	108.2	519.5	2025	1853	34.43	3.069	1.672	1.317	1.124	1.114	1.119	1.341	1.339	1.624	1.863	1.749	1.872	2.179	2.414	2.218	2.441	2.516	2.621	2.615	2.522	2.415	2.417	2.570	2.468	2.704	2.776	2.632	2.501	2.538	2.713	2.591	2.634	2.854	2.818	2.590	3.068	2.702	2.937
410.0	354.6	530.6	639.7	684.5	690.2	656.2	639.5	605.8	595.9	576.3	579.4	567.6	547.3	532.8	501.7	466.5	445.3	429.5	417.5	403.4	389.9	374.8	359.0	337.4	313.5	287.9	270.1	274.0	249.3	176.3	128.5	96.10	70.00	53.50	51.67	135.4	565.8	1491	1669	509.8	11.25	1.693	1.376	1.163	1.168	1.365	1.330	1.662	1.745	1.670	1.858	2.187	2.436	2.423	2.517	2.546	2.603	2.699	2.624	2.704	2.508	2.646	2.589	2.613	2.628	2.614	2.486	2.463	2.513	2.496	2.620	2.780	2.676	2.754	2.865	2.759	2.719
