Sample:	'1
File name:	Default_20250722_162147.FD3
Run date:	'16:15:26, 07/22/2025
Operator:	Administrator
Comment:	'

Instrument
Model:	F-2700 FL Spectrophotometer
Serial number:	3064-004
ROM Version:	4J14000 07

Instrument parameters
Measurement type:	3-D scan
Data mode:	Fluorescence
EX  Start WL:	220.0 nm
EX  End WL:	600.0 nm
EX Sampling interval:	5.0 nm
EM  Start WL:	230.0 nm
EM  End WL:	650.0 nm
EM Sampling interval:	5.0 nm
Scan speed:	12000 nm/min
EX Slit:	5.0 nm
EM Slit:	5.0 nm
PMT Voltage:	700 V
Response:	Auto 
Corrected spectra:	Off
Contour interval:	50.000

Peak integration
Integration method:	Rectangular
Sensitivity:	1
Threshold:	1.000

Peaks
No.	ApexEX/EM(nm)	Height(Data)
1	225.0/580.0	69.57
2	225.0/645.0	51.81
3	230.0/305.0	745.7
4	230.0/335.0	 1128
5	230.0/570.0	61.90
6	230.0/585.0	67.72
7	230.0/595.0	70.21
8	235.0/345.0	 1073
9	235.0/600.0	68.37
10	240.0/520.0	265.2
11	240.0/580.0	63.19
12	245.0/265.0	333.3
13	245.0/530.0	229.9
14	250.0/545.0	228.1
15	255.0/280.0	744.9
16	255.0/555.0	206.7
17	260.0/285.0	 1084
18	260.0/570.0	199.9
19	265.0/290.0	 1382
20	265.0/585.0	209.0
21	270.0/295.0	 1965
22	270.0/590.0	197.2
23	275.0/305.0	 2304
24	275.0/385.0	 1362
25	275.0/605.0	189.7
26	275.0/645.0	77.08
27	280.0/310.0	 1978
28	280.0/360.0	 1309
29	280.0/615.0	149.9
30	285.0/315.0	 1732
31	285.0/630.0	104.0
32	290.0/320.0	 1556
33	290.0/645.0	83.23
34	305.0/340.0	996.3
35	315.0/355.0	780.8
36	320.0/360.0	826.3
37	325.0/365.0	797.6
38	330.0/375.0	788.7
39	335.0/380.0	829.8
40	340.0/385.0	801.6
41	350.0/400.0	724.5
42	365.0/420.0	561.6
43	415.0/485.0	146.0
44	455.0/335.0	4.924
45	460.0/340.0	4.888
46	505.0/275.0	3.274
47	510.0/280.0	4.367
48	520.0/285.0	5.579
49	530.0/290.0	6.469
50	540.0/295.0	9.269
51	545.0/300.0	10.44
52	550.0/305.0	10.51
53	560.0/310.0	9.192
54	565.0/370.0	6.950
55	570.0/315.0	7.713
56	575.0/320.0	8.505
57	580.0/325.0	7.337

Data points
	220.0	225.0	230.0	235.0	240.0	245.0	250.0	255.0	260.0	265.0	270.0	275.0	280.0	285.0	290.0	295.0	300.0	305.0	310.0	315.0	320.0	325.0	330.0	335.0	340.0	345.0	350.0	355.0	360.0	365.0	370.0	375.0	380.0	385.0	390.0	395.0	400.0	405.0	410.0	415.0	420.0	425.0	430.0	435.0	440.0	445.0	450.0	455.0	460.0	465.0	470.0	475.0	480.0	485.0	490.0	495.0	500.0	505.0	510.0	515.0	520.0	525.0	530.0	535.0	540.0	545.0	550.0	555.0	560.0	565.0	570.0	575.0	580.0	585.0	590.0	595.0	600.0
230.0	21.68	452.4	 2912	 1683	113.7	11.17	10.75	8.443	8.664	7.111	7.330	5.847	5.643	4.760	4.018	3.710	3.273	2.837	3.094	2.870	2.626	2.131	2.080	2.014	1.701	1.933	1.797	1.695	1.377	1.479	1.504	1.343	1.258	1.099	1.050	1.078	1.086	0.961	0.857	0.883	0.890	0.995	1.001	0.804	0.649	0.697	1.608	5.921	10.19	8.109	3.533	0.994	0.612	0.589	0.578	0.543	0.506	0.485	0.569	0.506	0.469	0.421	0.386	0.388	0.288	0.442	0.431	0.388	0.412	0.400	0.389	0.380	0.373	0.304	0.353	0.368	0.351
235.0	54.33	127.2	 1229	 3154	 1089	174.2	15.17	8.306	8.613	7.608	7.022	5.991	6.043	5.143	4.336	3.530	3.822	3.124	2.685	3.623	2.184	2.467	2.063	2.100	1.693	2.044	1.711	1.389	1.388	1.410	1.410	1.137	1.321	1.356	1.129	1.139	1.126	0.977	0.908	0.869	0.808	0.860	0.913	0.858	0.793	0.789	0.960	2.085	4.016	6.902	9.927	10.00	4.888	1.284	0.512	0.439	0.634	0.319	0.409	0.405	0.446	0.405	0.376	0.461	0.348	0.358	0.350	0.425	0.304	0.512	0.287	0.282	0.339	0.417	0.372	0.432	0.452
240.0	63.79	88.36	317.9	 1745	 4448	944.0	79.75	11.49	9.997	8.196	7.305	4.813	7.063	6.285	5.034	3.118	4.082	2.627	2.835	3.647	2.413	2.507	2.356	2.392	2.240	1.715	1.673	1.273	1.278	2.022	1.290	1.015	1.127	1.269	1.131	1.059	0.996	0.932	0.689	0.869	0.882	0.819	0.931	0.963	0.931	0.962	1.051	0.881	1.495	2.432	4.965	11.34	14.42	11.23	3.608	1.074	0.533	0.482	0.484	0.336	0.439	0.488	0.424	0.568	0.477	0.342	0.497	0.470	0.327	0.349	0.357	0.359	0.270	0.453	0.473	0.309	0.299
245.0	34.72	103.6	136.9	474.5	 3088	 4922	754.1	38.28	11.93	10.77	8.530	5.509	7.337	5.877	5.173	4.289	3.458	2.920	2.913	3.324	2.274	2.408	2.262	2.525	1.970	1.869	1.994	1.853	1.303	1.965	1.437	1.293	1.291	1.275	1.124	0.911	0.884	0.804	1.122	0.882	0.915	0.861	0.787	0.916	0.903	1.010	1.269	0.992	0.990	1.133	1.554	3.994	9.295	16.53	16.36	8.908	2.731	0.670	0.421	0.541	0.430	0.559	0.385	0.523	0.415	0.411	0.410	0.506	0.258	0.528	0.423	0.510	0.255	0.385	0.385	0.449	0.320
250.0	20.17	59.46	165.6	203.3	817.5	 3003	 4605	 2608	220.1	13.28	11.96	7.354	8.936	6.502	5.914	4.347	4.180	3.345	3.298	3.488	2.320	2.246	2.686	2.318	2.137	1.831	1.983	1.837	1.824	1.913	1.289	1.499	1.062	1.289	1.014	1.003	0.948	1.029	1.007	0.959	0.851	0.917	0.935	0.744	0.870	0.811	0.846	0.944	1.299	1.209	1.078	1.462	2.668	5.756	9.554	14.41	17.37	15.12	8.714	2.846	0.644	0.481	0.489	0.527	0.367	0.472	0.344	0.404	0.268	0.531	0.407	0.392	0.286	0.328	0.446	0.442	0.456
255.0	19.83	31.65	78.31	235.5	308.1	703.1	 1955	 6365	 4125	295.4	14.78	10.76	8.955	6.339	5.950	5.064	4.001	3.626	3.810	3.437	2.786	2.525	2.302	2.144	2.134	2.352	2.168	1.661	1.847	1.716	1.332	1.218	0.930	1.063	0.907	0.904	0.975	1.069	0.917	0.819	1.122	0.737	0.910	0.798	0.832	0.966	0.855	0.905	0.827	1.112	1.550	1.594	1.465	1.830	2.574	3.923	6.452	14.78	25.99	27.35	15.40	3.293	0.623	0.637	0.363	0.479	0.405	0.404	0.408	0.529	0.410	0.489	0.506	0.433	0.251	0.496	0.593
260.0	20.21	21.76	32.53	151.7	327.5	246.1	493.0	 3150	 8654	 3487	178.1	15.42	12.76	8.680	6.405	5.246	4.883	3.591	3.789	3.579	2.875	2.567	2.720	2.226	2.409	2.335	1.798	1.840	1.736	2.025	1.422	1.114	1.186	1.150	0.872	1.079	1.068	1.028	0.762	0.759	1.007	0.731	0.825	0.823	0.984	0.793	0.760	0.953	0.750	0.773	1.139	1.795	2.150	1.600	1.087	1.371	2.101	4.412	10.93	26.53	36.61	29.53	11.09	1.683	0.439	0.447	0.384	0.499	0.540	0.506	0.373	0.353	0.413	0.436	0.386	0.520	0.530
265.0	22.51	24.86	28.39	65.27	275.6	333.3	173.3	827.8	 4986	 9999	 2698	82.40	15.74	10.35	9.015	5.585	4.725	4.737	3.757	3.652	3.473	3.055	2.598	2.206	2.159	2.268	2.222	1.986	1.668	1.744	1.431	1.728	1.426	1.204	1.228	1.050	1.086	1.197	0.884	0.765	0.836	0.833	0.975	1.015	0.879	1.047	0.759	0.920	0.772	0.681	0.680	1.164	1.847	2.237	1.664	0.972	1.067	1.654	2.997	7.936	19.99	36.94	43.33	26.35	6.381	0.917	0.552	0.615	0.440	0.553	0.479	0.469	0.411	0.385	0.328	0.528	0.609
270.0	57.39	47.60	38.30	39.03	107.9	320.0	380.0	307.5	 1310	 4950	 9549	 5472	182.6	16.20	10.82	7.571	6.445	5.295	4.490	4.309	3.891	3.205	3.165	2.525	2.209	2.480	2.313	1.797	1.916	1.613	1.948	1.585	1.304	1.167	1.395	1.165	1.279	1.246	1.118	1.079	1.248	1.137	1.102	1.201	1.290	1.016	0.918	0.943	0.726	0.793	0.664	0.831	1.037	1.401	1.962	2.281	2.052	1.567	1.507	2.361	5.440	11.05	20.94	33.19	41.66	39.84	20.88	6.314	0.896	0.589	0.425	0.619	0.361	0.484	0.418	0.426	0.480
275.0	134.5	120.1	91.65	62.13	58.94	131.8	420.1	621.7	499.4	 1297	 3459	9999.9	 9265	228.8	16.79	10.63	8.064	5.380	5.284	4.571	3.675	3.394	3.066	3.394	2.476	2.639	2.550	2.333	1.929	2.545	2.235	1.667	1.639	1.434	1.530	1.535	1.603	1.360	1.560	1.315	1.435	1.363	1.340	1.378	1.591	1.442	1.301	1.169	1.024	0.910	0.730	0.809	0.864	0.848	1.132	1.512	2.419	3.274	2.925	2.040	2.237	3.517	5.690	8.811	13.79	30.75	58.36	52.55	29.91	5.145	0.613	0.559	0.454	0.362	0.696	0.408	0.537
280.0	224.7	211.7	178.4	119.6	73.52	99.31	241.6	744.9	629.6	615.7	 1129	 4520	9999.9	 2542	138.6	14.64	10.48	7.529	5.860	4.447	4.361	3.370	3.134	3.459	2.936	2.352	2.315	2.266	1.913	2.213	1.814	1.519	1.701	1.598	1.626	2.016	1.734	1.913	1.825	1.448	1.896	1.749	1.775	1.799	1.909	1.615	1.438	1.538	1.394	1.023	1.048	0.977	0.889	0.834	0.924	0.957	1.574	2.807	4.367	4.154	2.615	2.375	2.751	3.870	4.862	8.969	22.39	49.88	80.35	48.81	20.40	1.929	0.509	0.673	0.779	0.584	0.543
285.0	326.7	343.8	278.0	188.5	124.6	143.0	209.1	528.7	 1084	647.6	758.6	 1517	 6122	9999.9	 1922	74.32	13.09	9.168	6.736	5.234	5.150	4.205	4.073	3.213	2.673	3.075	2.028	2.416	2.230	1.994	1.953	1.507	1.844	1.714	1.790	2.117	1.954	2.055	2.049	1.942	2.112	2.372	1.923	2.212	2.189	2.032	1.863	1.892	1.653	1.454	1.220	1.086	0.847	1.063	0.738	0.964	1.301	1.854	2.588	4.534	5.579	3.863	3.049	3.269	3.445	4.137	6.872	15.27	37.39	70.02	86.86	38.53	8.265	0.867	0.600	0.485	0.621
290.0	429.9	511.2	475.0	373.5	295.9	315.9	370.5	546.9	968.4	 1382	 1169	 1122	 2014	 5568	9999.9	 7009	112.9	16.07	9.427	7.028	6.096	4.814	4.500	3.474	2.951	3.319	2.765	2.745	2.633	2.385	2.037	1.935	1.732	1.788	1.901	2.371	2.529	2.605	2.492	2.391	2.236	2.394	2.588	2.634	2.513	2.536	2.333	2.680	2.613	1.897	1.735	1.687	1.520	1.787	1.553	1.676	1.771	2.215	2.485	3.449	4.422	5.613	6.469	5.672	4.476	4.624	4.938	6.800	10.87	20.14	37.34	54.23	56.92	62.59	25.58	7.777	0.936
295.0	484.7	642.0	620.3	532.3	452.0	483.5	535.3	670.0	895.1	 1310	 1965	 1460	 1268	 1702	 3240	9999.9	 9759	146.4	14.00	10.09	7.831	6.018	4.855	3.617	3.785	3.373	2.732	2.543	2.503	2.794	2.257	2.119	2.055	1.822	2.116	2.501	2.802	2.900	2.818	2.398	2.565	2.859	2.933	2.978	2.880	2.669	2.852	3.070	2.975	2.547	2.032	2.504	2.308	2.332	2.209	2.230	2.476	2.553	2.900	3.306	3.895	4.328	5.287	7.569	9.269	7.206	5.944	5.927	6.190	7.606	10.61	13.97	17.53	42.63	90.93	59.67	37.75
300.0	491.9	694.0	696.1	630.8	580.0	587.1	682.0	785.8	961.3	 1190	 1923	 2086	 1306	959.4	 1021	 3946	9999.9	 7213	102.3	14.01	9.336	6.441	5.156	5.287	3.710	3.419	3.239	2.750	2.485	2.480	2.373	2.099	1.994	2.021	1.930	2.387	3.232	2.840	3.013	2.397	2.725	2.909	2.900	2.923	3.133	3.205	3.040	3.284	3.081	2.778	2.368	2.719	2.394	2.560	3.057	3.041	2.776	3.111	3.211	3.970	4.302	4.655	5.274	5.756	7.793	10.44	8.810	7.575	5.629	5.191	5.171	4.951	5.429	11.26	31.08	67.56	115.2
305.0	489.5	671.1	745.7	674.6	626.3	648.4	778.0	882.3	 1036	 1178	 1622	 2304	 1714	883.9	594.9	 1097	 5482	9999.9	 1250	62.17	12.26	8.743	7.257	5.357	4.541	3.926	3.262	3.124	2.742	2.171	2.120	2.359	1.818	1.900	2.131	2.407	2.761	3.039	3.003	2.576	2.833	3.086	2.959	2.886	3.154	3.379	3.069	3.493	2.881	2.940	3.031	3.030	2.929	2.615	3.389	3.135	3.119	3.709	3.816	4.604	4.474	4.799	5.231	5.885	6.856	8.723	10.51	9.892	6.969	4.588	3.830	3.224	2.909	3.845	8.029	18.45	49.64
310.0	449.4	624.8	724.1	681.3	620.4	672.0	769.6	881.7	 1009	 1146	 1456	 1799	 1978	 1301	622.0	516.7	 1446	 5228	9999.9	 4984	81.51	13.58	9.260	6.857	5.260	4.769	3.676	3.082	3.259	2.649	2.698	2.232	2.042	2.189	2.255	2.565	2.541	2.937	2.956	2.559	2.572	2.447	3.091	2.690	3.099	3.196	2.982	3.420	3.152	2.894	2.784	2.793	2.646	2.903	3.053	3.120	3.606	3.394	3.555	4.139	4.589	4.653	5.354	5.144	6.217	6.827	7.944	8.631	9.192	7.720	5.092	3.638	3.072	2.693	3.329	5.589	12.62
315.0	448.3	666.9	710.8	668.8	618.5	648.5	739.0	848.3	997.1	 1118	 1367	 1590	 1629	 1732	 1062	513.0	576.3	 1339	 3077	9999.9	 7644	108.2	13.82	9.646	7.260	6.722	4.593	3.946	3.761	2.990	3.312	2.600	2.581	2.008	2.239	2.506	2.648	2.707	2.575	2.639	2.306	2.279	2.936	2.804	3.004	3.421	3.479	3.585	3.564	2.865	2.477	2.656	2.509	2.994	3.165	2.961	3.177	3.497	3.569	3.553	4.882	4.522	5.198	5.417	6.087	6.109	6.763	6.833	7.037	7.172	7.713	6.612	4.322	3.193	2.957	3.129	4.291
320.0	509.4	813.4	867.3	710.9	613.5	630.1	729.7	836.4	965.9	 1119	 1346	 1544	 1541	 1554	 1556	742.7	484.7	543.3	857.2	 4071	9999.9	 6049	77.50	13.65	9.378	7.051	5.009	4.284	3.948	3.471	3.145	2.849	2.315	2.419	2.189	2.076	2.497	2.384	2.477	2.682	1.997	2.240	2.717	3.067	2.910	3.925	3.890	3.729	3.353	3.033	2.502	2.653	2.725	2.700	2.968	3.294	3.284	3.555	3.642	4.028	4.589	4.579	4.969	5.484	6.126	6.699	6.815	6.767	6.336	6.326	7.392	8.505	7.261	5.237	3.067	3.321	3.420
325.0	526.2	884.2	985.8	822.5	644.1	626.0	694.9	801.4	927.6	 1055	 1325	 1531	 1529	 1410	 1520	 1152	539.6	411.8	393.4	 1072	 5912	9999.9	922.7	50.09	10.85	9.138	5.805	4.804	4.670	4.020	3.344	2.975	2.680	2.579	2.153	1.924	2.565	2.740	2.175	2.444	2.615	2.405	2.487	3.084	3.306	3.873	4.420	4.559	3.970	3.496	2.808	2.854	2.602	2.973	3.188	2.807	3.285	3.222	3.819	3.890	4.208	4.274	5.145	5.443	6.062	6.743	6.723	6.975	6.352	6.424	7.045	6.621	7.337	7.219	4.961	3.670	3.262
330.0	526.1	887.9	 1069	912.8	729.4	636.3	666.7	761.7	888.6	 1036	 1260	 1464	 1501	 1375	 1252	 1227	916.0	488.1	341.9	420.0	 1503	 5493	9999.9	 6966	63.61	13.37	8.349	6.524	5.460	4.029	3.844	3.263	3.105	3.015	2.738	2.187	2.581	2.431	2.261	2.332	2.478	2.477	2.578	2.908	3.458	4.056	4.178	4.547	4.228	3.739	3.253	3.584	3.224	2.963	2.918	2.974	3.064	3.419	3.564	3.669	3.934	4.313	4.766	4.852	5.638	6.087	6.147	6.783	6.944	6.473	6.495	6.291	6.038	6.188	6.588	6.460	5.339
335.0	510.1	917.6	 1128	 1027	796.0	664.4	665.5	771.8	887.1	 1015	 1247	 1420	 1487	 1396	 1230	 1040	 1054	827.8	411.6	329.6	514.0	 1355	 3300	9999.9	 6160	87.96	12.14	9.864	6.873	5.615	5.180	3.721	3.282	2.868	2.700	2.566	2.878	2.622	2.270	2.276	2.373	2.537	2.900	3.344	3.391	4.001	4.502	4.924	4.735	3.871	3.598	3.602	3.152	2.786	3.292	3.006	2.871	3.278	3.464	3.674	3.900	3.827	4.575	4.613	5.045	5.978	6.734	6.662	6.422	6.627	6.232	5.449	6.013	5.523	5.276	5.281	7.000
340.0	484.3	861.5	 1084	 1049	830.2	711.8	718.8	780.4	881.5	997.1	 1194	 1351	 1432	 1383	 1208	996.3	894.4	996.3	599.9	352.7	325.2	465.6	864.9	 4575	9999.9	 5216	64.15	13.22	8.474	6.380	4.716	3.920	3.239	2.901	2.868	2.505	2.519	2.633	2.641	2.305	2.071	2.876	2.865	2.885	3.265	4.161	4.291	4.831	4.888	4.006	3.848	3.848	3.158	3.172	3.061	3.486	3.231	3.405	3.566	3.690	4.068	4.153	4.543	4.879	4.924	5.704	6.049	6.483	6.171	6.421	6.002	5.995	5.989	5.321	5.338	4.820	5.580
345.0	435.3	803.0	 1060	 1073	873.6	762.2	731.7	793.7	898.2	 1002	 1150	 1305	 1371	 1331	 1213	996.0	823.2	871.7	854.1	454.5	327.7	305.2	343.8	 1172	 6713	9999.9	 3649	43.44	11.15	8.131	5.864	4.547	3.790	3.251	2.873	2.425	2.495	2.580	2.431	2.462	2.199	2.495	2.785	2.850	3.238	3.724	4.189	4.610	4.074	3.966	3.842	3.590	3.481	3.607	3.469	3.066	3.385	3.324	3.691	3.769	3.882	4.391	4.623	4.810	5.166	5.463	5.515	5.909	6.458	6.419	6.282	5.943	5.635	5.491	4.987	4.545	4.797
350.0	411.8	738.6	987.8	 1053	959.0	880.0	821.4	860.5	964.2	 1057	 1131	 1267	 1323	 1310	 1207	 1018	846.4	758.0	821.5	738.5	454.2	334.5	282.5	419.0	 1696	 6422	9999.9	 6453	56.78	12.33	8.488	5.674	4.697	3.624	3.191	2.934	2.660	2.627	2.607	2.303	2.180	2.440	2.669	2.658	3.039	3.590	3.796	4.521	3.862	3.950	3.349	3.764	3.675	3.450	3.587	3.313	3.579	3.763	4.120	4.140	4.184	4.406	4.899	4.910	5.381	5.586	5.781	5.221	5.945	5.797	5.998	6.060	5.624	5.768	5.273	5.238	5.228
355.0	377.6	675.6	919.1	 1021	 1017	958.4	944.8	999.1	 1063	 1125	 1186	 1273	 1299	 1292	 1220	 1047	895.7	777.1	723.1	780.8	737.0	439.9	333.0	311.4	541.2	 1553	 3699	9999.9	 5424	74.69	12.45	7.868	5.778	4.256	3.430	3.101	2.885	2.777	2.625	2.249	2.375	2.592	2.766	2.941	2.847	2.907	3.344	4.342	4.048	3.996	3.612	3.999	4.071	4.033	3.867	3.901	4.523	4.037	4.280	4.348	4.807	5.049	4.963	5.245	5.333	5.592	5.311	5.392	5.890	5.561	6.287	6.034	5.820	5.953	5.858	5.722	5.029
360.0	340.7	624.7	864.5	 1006	 1051	 1025	 1015	 1067	 1136	 1200	 1221	 1261	 1309	 1283	 1220	 1065	929.6	819.9	732.2	719.6	826.3	628.9	400.8	330.7	322.3	493.9	948.0	 5247	9999.9	 4400	52.35	11.64	7.314	5.987	3.653	3.508	2.914	3.320	2.853	2.575	2.620	2.201	2.597	2.839	2.795	2.905	3.736	3.972	3.619	3.738	3.680	4.413	4.151	4.035	4.174	4.373	4.861	4.119	4.678	4.669	4.550	5.656	5.124	5.406	5.145	5.697	5.787	6.289	5.404	6.408	5.944	6.303	5.794	5.725	6.052	6.045	5.434
365.0	324.4	566.4	813.2	972.2	 1055	 1066	 1089	 1156	 1199	 1253	 1257	 1301	 1301	 1293	 1217	 1085	965.0	859.7	767.6	715.2	756.1	797.6	528.0	384.9	312.2	294.8	342.8	 1341	 7723	9999.9	694.1	34.64	9.442	7.325	4.409	4.129	3.958	3.248	2.554	2.511	2.391	2.770	2.276	2.540	2.732	2.672	3.418	3.709	3.799	3.717	3.777	4.491	4.237	4.280	4.590	4.737	5.026	4.426	4.980	4.884	5.015	5.315	5.132	5.767	5.288	5.866	5.922	6.188	5.904	6.233	5.991	5.819	5.959	5.484	5.523	5.743	5.774
370.0	310.9	498.0	766.0	968.2	 1079	 1094	 1144	 1196	 1248	 1297	 1303	 1323	 1311	 1274	 1211	 1101	997.5	899.3	825.3	761.1	735.6	779.0	757.0	528.2	389.0	318.2	266.1	431.5	 1954	 6917	9999.9	 5780	45.59	9.658	6.559	5.196	3.715	3.297	2.706	2.392	2.541	2.769	2.431	2.577	2.620	2.759	3.277	3.400	3.626	3.451	3.627	4.205	4.302	4.391	4.398	4.444	4.922	4.961	4.786	5.031	5.268	5.462	5.192	5.373	5.620	5.943	5.850	5.559	6.183	6.950	5.891	5.747	5.784	5.643	5.880	6.195	6.069
375.0	290.6	493.4	726.6	952.8	 1096	 1155	 1192	 1218	 1291	 1343	 1336	 1351	 1340	 1283	 1206	 1098	 1015	947.2	891.6	840.5	777.5	760.8	788.7	772.3	530.4	407.3	321.6	286.9	570.6	 1640	 4213	9999.9	 4512	57.42	9.384	6.638	4.544	4.260	3.176	2.694	2.695	2.762	2.547	2.439	2.524	2.712	3.176	2.940	3.761	3.341	3.184	4.113	4.572	4.550	4.363	4.897	5.118	4.858	4.978	5.136	5.444	5.593	5.398	5.578	5.600	5.806	6.014	5.793	5.469	6.092	5.835	6.190	5.322	5.697	6.011	6.224	6.305
380.0	291.7	465.2	687.4	926.1	 1078	 1197	 1203	 1241	 1306	 1341	 1335	 1360	 1339	 1265	 1183	 1101	 1032	967.4	924.8	871.1	821.4	780.3	764.3	829.8	690.7	488.4	378.7	297.2	294.2	481.8	 1058	 5907	9999.9	 3485	39.63	8.620	5.618	4.952	3.860	3.101	2.994	2.731	2.752	2.574	2.855	2.803	2.961	3.285	3.260	3.618	3.394	4.247	4.273	4.644	4.736	4.954	4.922	4.862	5.365	5.232	5.605	5.608	5.921	5.984	5.283	5.643	6.012	6.005	5.924	6.107	6.171	6.001	5.364	6.065	6.063	6.177	6.106
385.0	256.7	465.5	691.7	921.7	 1084	 1183	 1232	 1230	 1292	 1316	 1327	 1362	 1327	 1250	 1194	 1102	 1032	984.7	946.0	892.2	843.8	801.1	763.1	782.2	801.6	592.9	433.3	333.4	266.6	245.9	335.4	 1511	 8078	9999.9	539.0	22.97	7.532	5.593	4.170	3.574	2.947	2.727	2.534	2.743	2.643	2.753	2.651	3.210	3.050	3.522	3.451	4.077	4.198	4.563	4.391	4.810	4.870	5.058	5.391	5.100	5.349	5.799	5.364	6.130	5.320	5.647	5.912	5.527	6.430	5.954	5.622	6.054	6.156	5.909	5.701	6.380	5.870
390.0	275.0	450.7	679.9	886.0	 1053	 1174	 1211	 1222	 1258	 1289	 1309	 1304	 1275	 1229	 1169	 1088	 1029	993.3	955.3	915.5	877.9	837.2	787.8	748.7	766.1	739.1	543.1	393.6	304.0	237.3	208.2	431.6	 2057	 6833	9999.9	 2233	36.11	8.521	5.874	4.503	3.582	3.106	2.827	2.728	3.015	3.065	2.880	3.451	3.024	3.198	3.346	3.856	4.153	4.524	4.574	4.689	4.821	5.312	5.250	5.275	5.218	5.547	5.046	5.245	5.480	5.497	6.002	5.413	5.873	6.020	5.418	5.848	5.916	5.807	5.856	6.190	6.552
395.0	266.8	436.2	642.5	861.3	 1027	 1157	 1177	 1205	 1247	 1260	 1253	 1285	 1240	 1210	 1144	 1063	 1018	990.4	954.0	933.4	890.7	855.7	812.9	769.9	736.9	732.6	699.4	494.1	356.6	277.7	214.8	222.0	544.0	 1589	 4113	9999.9	 3580	46.38	8.042	5.818	4.322	3.360	2.958	2.958	3.067	3.071	2.849	2.952	2.901	2.959	3.298	4.137	4.245	4.240	4.815	4.475	4.529	4.758	4.607	5.247	6.024	5.247	5.452	5.364	5.819	5.287	5.644	5.606	5.919	6.122	5.851	5.486	5.669	5.440	6.085	5.682	6.245
400.0	254.8	429.8	613.3	828.7	 1001	 1127	 1161	 1188	 1211	 1234	 1236	 1234	 1225	 1158	 1126	 1059	 1001	979.1	944.6	920.1	891.1	866.7	822.8	786.4	737.0	693.8	724.5	608.1	412.5	319.0	246.6	197.1	227.8	431.1	 1010	 5541	9999.9	 2750	29.95	7.101	4.773	4.195	3.671	3.112	3.169	3.498	2.798	3.146	3.180	2.899	3.366	3.735	4.048	4.401	4.481	4.389	4.742	5.268	4.637	5.097	5.664	4.880	5.454	5.559	5.111	5.156	5.621	5.756	5.778	6.117	5.781	5.428	5.462	5.764	5.881	5.777	5.979
405.0	265.6	429.0	618.1	827.9	951.6	 1059	 1121	 1166	 1183	 1231	 1169	 1209	 1173	 1139	 1098	 1030	990.6	963.6	939.7	914.2	882.1	856.0	822.3	787.4	736.0	687.5	668.1	672.4	497.0	361.3	280.5	215.7	178.5	186.7	292.8	 1417	 7198	9999.9	447.8	15.89	6.475	4.942	3.698	3.295	3.189	3.416	2.907	3.050	3.093	2.986	3.417	3.907	4.041	4.307	4.279	4.314	4.728	5.231	5.057	5.106	4.967	5.173	4.888	5.183	5.096	5.137	5.396	5.674	5.666	5.676	5.636	5.568	5.376	5.920	5.484	6.228	5.635
410.0	251.0	403.8	574.7	766.8	910.6	 1008	 1082	 1162	 1170	 1174	 1149	 1163	 1123	 1098	 1045	993.8	949.5	935.1	909.7	887.0	868.3	840.6	807.4	772.4	733.3	682.4	639.6	627.5	593.9	448.6	327.7	251.2	197.0	158.1	151.9	377.6	 1830	 6072	 8152	 1970	30.09	6.737	4.545	4.115	3.359	3.135	2.973	3.062	3.087	3.119	3.046	3.848	4.004	4.222	4.325	4.299	4.830	4.584	5.193	4.860	4.968	5.043	4.644	5.051	4.952	4.801	5.121	5.175	5.270	5.183	5.290	5.117	5.279	5.496	5.605	5.655	5.663
