Sample:	'1
File name:	G2025090906月六会二南路西雨水井 20倍.FD3
Run date:	'14:42:39, 09/10/2025
Operator:	Administrator
Comment:	'

Instrument
Model:	F-2700 FL Spectrophotometer
Serial number:	24D1-003
ROM Version:	4J14000 07

Instrument parameters
Measurement type:	3-D scan
Data mode:	Fluorescence
EX  Start WL:	220.0 nm
EX  End WL:	600.0 nm
EX Sampling interval:	5.0 nm
EM  Start WL:	230.0 nm
EM  End WL:	650.0 nm
EM Sampling interval:	5.0 nm
Scan speed:	12000 nm/min
EX Slit:	5.0 nm
EM Slit:	5.0 nm
PMT Voltage:	700 V
Response:	Auto 
Corrected spectra:	Off
Contour interval:	50.000

Peak integration
Integration method:	Rectangular
Sensitivity:	1
Threshold:	1.000

Peaks
No.	ApexEX/EM(nm)	Height(Data)
1	225.0/300.0	2463
2	225.0/575.0	214.3
3	225.0/585.0	213.9
4	230.0/505.0	257.4
5	240.0/525.0	168.3
6	245.0/535.0	154.1
7	250.0/550.0	143.9
8	255.0/280.0	803.3
9	255.0/565.0	149.3
10	260.0/575.0	154.7
11	265.0/590.0	185.8
12	270.0/600.0	232.3
13	275.0/305.0	3820
14	275.0/610.0	243.2
15	280.0/620.0	209.7
16	315.0/355.0	317.1
17	320.0/360.0	334.4
18	325.0/365.0	310.6
19	330.0/370.0	261.9
20	330.0/410.0	255.7
21	335.0/380.0	274.9
22	335.0/415.0	256.6
23	340.0/385.0	266.4
24	340.0/430.0	253.2
25	345.0/390.0	239.6
26	350.0/400.0	267.9
27	355.0/405.0	280.8
28	360.0/410.0	265.7
29	365.0/415.0	252.2
30	370.0/425.0	232.3
31	380.0/440.0	161.6
32	385.0/445.0	142.3
33	390.0/305.0	6.819
34	395.0/300.0	7.026
35	400.0/465.0	92.97
36	415.0/485.0	54.69
37	425.0/500.0	40.30
38	430.0/505.0	35.99
39	445.0/525.0	23.57
40	455.0/305.0	7.659
41	455.0/540.0	16.60
42	555.0/305.0	15.58
43	560.0/310.0	15.32

Data points
	220.0	225.0	230.0	235.0	240.0	245.0	250.0	255.0	260.0	265.0	270.0	275.0	280.0	285.0	290.0	295.0	300.0	305.0	310.0	315.0	320.0	325.0	330.0	335.0	340.0	345.0	350.0	355.0	360.0	365.0	370.0	375.0	380.0	385.0	390.0	395.0	400.0	405.0	410.0	415.0	420.0	425.0	430.0	435.0	440.0	445.0	450.0	455.0	460.0	465.0	470.0	475.0	480.0	485.0	490.0	495.0	500.0	505.0	510.0	515.0	520.0	525.0	530.0	535.0	540.0	545.0	550.0	555.0	560.0	565.0	570.0	575.0	580.0	585.0	590.0	595.0	600.0
230.0	206.2	7019	9999.9	2942	64.87	17.91	14.40	11.67	11.89	9.809	9.349	9.335	8.230	7.219	5.808	5.009	4.738	3.923	3.836	3.263	3.057	2.955	2.629	2.492	2.373	2.207	2.090	1.934	1.999	1.777	1.766	1.581	1.564	1.433	1.352	1.274	1.244	1.145	1.005	0.995	1.065	1.362	1.330	1.073	0.975	0.988	5.801	28.41	48.50	33.77	10.32	1.943	0.757	0.639	0.666	0.560	0.613	0.600	0.636	0.599	0.533	0.595	0.531	0.545	0.549	0.523	0.527	0.549	0.546	0.548	0.503	0.493	0.537	0.508	0.580	0.505	0.534
235.0	199.1	1821	7722	9999.9	3122	141.7	18.73	15.31	12.78	10.64	11.83	9.746	8.426	7.436	6.351	5.491	4.775	4.319	3.609	3.502	3.251	3.012	2.874	2.532	2.308	2.435	2.180	1.889	1.953	1.852	1.689	1.693	1.525	1.540	1.458	1.246	1.258	1.042	1.125	1.026	0.868	1.101	1.107	1.240	1.469	1.017	1.928	7.418	16.53	29.89	42.76	25.58	19.03	5.568	0.887	0.600	0.593	0.648	0.623	0.620	0.575	0.605	0.587	0.544	0.622	0.590	0.626	0.521	0.606	0.526	0.445	0.591	0.600	0.508	0.531	0.508	0.588
240.0	255.7	525.6	2265	9999.9	9999.9	2482	61.96	20.44	16.30	13.05	13.20	11.64	7.855	9.203	6.808	5.392	4.942	4.309	4.423	3.570	3.421	2.867	2.956	2.509	2.672	2.385	2.197	2.014	1.854	1.949	1.733	1.945	1.553	1.349	1.407	1.159	1.190	1.021	1.090	1.042	0.999	1.054	0.971	1.244	1.601	1.580	1.403	2.421	4.393	8.656	20.73	49.55	73.17	26.92	15.48	2.493	0.705	0.801	0.599	0.738	0.546	0.666	0.609	0.555	0.606	0.647	0.570	0.641	0.612	0.597	0.549	0.483	0.579	0.426	0.531	0.488	0.552
245.0	190.6	357.9	589.3	3486	9999.9	9999.9	383.1	35.94	19.71	14.83	14.96	12.24	9.135	9.490	7.539	5.899	4.749	4.626	4.274	3.275	3.484	2.880	2.825	2.840	2.955	2.318	2.387	2.198	2.003	2.061	1.901	1.825	1.787	1.507	1.378	1.142	1.252	1.083	1.246	1.075	1.120	1.005	0.946	1.032	1.145	1.199	1.589	1.668	1.838	2.510	5.361	15.56	41.13	72.84	84.83	24.96	12.06	1.483	0.675	0.712	0.634	0.749	0.590	0.644	0.549	0.614	0.604	0.611	0.637	0.460	0.628	0.516	0.442	0.487	0.404	0.558	0.496
250.0	92.20	234.2	376.8	894.2	3528	9999.9	9999.9	6736	122.2	25.12	19.79	15.04	12.62	10.15	8.611	7.529	5.471	4.982	4.436	3.917	3.368	3.350	3.073	2.926	2.785	2.417	2.348	2.275	2.070	1.915	1.862	1.954	1.638	1.464	1.383	1.309	1.356	1.131	1.153	1.166	1.053	1.099	0.953	0.998	0.874	1.016	1.162	1.457	1.783	1.659	1.985	4.189	10.05	21.24	41.65	60.30	88.39	70.91	17.50	9.458	1.616	0.705	0.633	0.660	0.624	0.662	0.612	0.583	0.643	0.607	0.599	0.482	0.549	0.510	0.468	0.604	0.518
255.0	62.55	91.34	228.9	517.9	895.7	2546	9999.9	9999.9	9999.9	151.9	28.36	22.38	15.68	12.99	10.31	7.525	6.241	5.464	4.885	4.409	3.879	3.293	3.106	2.939	3.051	2.729	2.594	2.558	2.114	2.367	2.134	1.929	1.912	1.550	1.473	1.376	1.392	1.284	1.254	1.217	0.970	1.136	1.033	0.963	0.918	0.891	0.952	1.000	1.011	1.437	1.832	2.522	3.300	5.352	9.949	14.35	27.76	61.99	114.8	131.4	27.47	12.81	1.299	0.881	0.699	0.803	0.655	0.716	0.646	0.617	0.558	0.656	0.588	0.606	0.661	0.699	0.634
260.0	54.50	59.10	97.54	364.1	477.2	645.9	3002	9999.9	9999.9	1969	105.1	30.76	18.97	15.31	11.16	8.482	7.078	6.711	5.312	4.792	4.199	3.735	3.134	3.132	3.112	3.014	2.703	2.505	2.241	2.127	2.087	2.280	1.842	1.528	1.467	1.294	1.223	1.271	1.156	1.128	1.040	1.154	1.086	1.074	1.071	0.953	0.872	0.963	0.884	0.966	1.243	2.244	2.565	2.497	2.917	3.801	6.991	16.22	45.09	110.8	163.9	141.3	23.03	6.358	0.962	0.733	0.684	0.736	0.624	0.720	0.587	0.684	0.633	0.594	0.582	0.599	0.628
265.0	77.44	58.68	61.73	171.7	438.3	380.4	739.5	3954	9999.9	9999.9	1654	64.72	28.73	19.34	15.01	11.19	8.523	7.074	6.218	5.180	4.266	3.787	3.523	3.169	3.312	2.951	2.694	2.571	2.499	2.265	2.129	2.258	1.921	1.532	1.374	1.286	1.330	1.226	1.217	1.222	1.081	1.249	1.006	1.069	0.973	0.981	1.003	0.893	0.831	0.768	0.931	1.449	2.037	2.820	2.647	1.823	2.236	4.412	11.08	30.18	77.74	164.7	189.8	121.9	16.78	2.216	0.846	0.765	0.651	0.635	0.703	0.669	0.591	0.669	0.603	0.631	0.625
270.0	289.4	266.5	196.7	120.0	215.3	448.0	426.2	1004	4162	9999.9	9999.9	6809	109.9	32.68	20.91	15.28	10.77	8.625	6.925	6.070	5.355	4.531	3.883	3.729	3.291	3.234	2.976	2.571	2.609	2.582	2.572	2.170	2.216	2.078	2.010	1.798	1.730	1.603	1.507	1.550	1.415	1.607	1.616	1.524	1.569	1.530	1.492	1.467	1.402	1.042	1.022	1.047	1.149	1.573	2.325	2.538	2.717	2.528	3.438	7.638	18.54	44.30	82.32	136.2	170.1	125.9	97.55	11.77	2.339	0.859	0.784	0.696	0.663	0.759	0.647	0.673	0.668
275.0	813.6	798.3	593.0	232.5	123.2	233.8	598.6	529.8	1115	2656	9999.9	9999.9	9999.9	136.9	35.71	22.21	14.80	11.03	9.458	7.290	6.492	4.884	4.632	4.531	3.943	3.671	3.365	2.975	2.841	2.235	2.892	2.598	2.459	2.919	3.063	3.168	2.710	2.266	2.188	2.124	1.936	2.159	2.306	2.542	2.560	2.740	3.088	2.734	2.644	1.942	1.398	1.201	1.174	1.052	1.303	1.603	2.573	3.936	3.648	3.473	5.398	11.14	19.57	32.08	47.76	91.07	217.0	237.0	30.89	16.69	1.557	1.077	0.887	0.777	0.831	0.791	0.714
280.0	1216	1273	940.3	356.1	127.9	159.1	407.9	803.3	523.2	850.2	3078	9999.9	9999.9	7951	103.4	32.23	19.55	14.16	11.58	8.735	7.139	5.714	5.165	4.478	4.384	3.891	3.665	3.478	3.094	2.798	2.719	2.787	2.838	3.578	3.884	4.257	3.532	2.791	2.614	2.425	2.665	2.679	2.998	3.499	3.593	3.857	4.210	4.160	3.906	2.901	1.824	1.414	1.184	1.060	1.101	1.126	1.675	2.713	3.996	4.431	3.560	4.116	5.818	8.784	12.05	22.79	70.88	169.7	256.3	225.9	26.08	8.370	1.142	1.000	0.894	1.009	0.936
285.0	1600	1681	1256	471.1	157.5	153.3	283.3	715.8	935.0	657.2	1126	4016	9999.9	9999.9	5971	76.32	28.23	17.47	14.04	10.36	7.890	6.609	5.738	4.933	4.498	3.890	3.643	3.230	3.196	3.004	2.840	2.847	3.111	4.430	4.701	5.033	4.070	3.264	2.933	2.877	3.074	3.172	3.678	4.268	4.324	5.084	5.117	5.650	5.076	3.639	2.226	1.656	1.226	1.145	1.124	1.290	1.486	1.796	2.800	4.314	5.317	4.528	3.722	3.965	4.896	7.216	18.11	44.27	104.1	235.6	284.1	181.5	19.20	2.449	1.107	1.071	0.982
290.0	1994	2105	1528	579.4	207.4	199.9	300.5	554.8	1080	1407	1365	1978	4142	9999.9	9999.9	9999.9	334.4	30.71	19.88	13.93	10.01	8.467	6.517	5.490	5.205	4.579	4.038	3.561	3.520	3.347	3.086	3.119	3.633	4.660	5.538	5.618	4.781	4.058	3.633	3.457	3.507	3.679	4.355	4.769	5.230	6.129	6.299	6.624	5.618	4.339	2.705	2.007	1.564	1.396	1.326	1.362	1.683	1.858	2.501	3.154	4.391	5.828	6.801	6.633	5.842	6.048	8.593	14.50	27.93	61.66	108.9	184.4	219.8	183.1	113.9	13.34	2.978
295.0	2287	2395	1705	679.4	254.6	243.7	351.6	598.8	1045	1822	2531	2345	2585	3444	8723	9999.9	9999.9	89.67	33.11	20.39	13.70	9.983	8.640	6.781	5.837	5.018	4.449	3.835	3.632	3.460	3.290	3.137	4.087	5.190	6.381	6.549	5.082	4.288	3.719	3.760	3.851	4.285	4.856	5.572	5.986	6.603	6.605	7.121	6.296	4.623	3.089	2.252	1.755	1.582	1.667	1.770	2.114	2.187	3.023	3.360	4.325	5.444	6.613	8.928	10.69	10.47	9.670	11.01	13.76	20.59	30.29	45.56	60.14	118.1	268.1	269.8	35.33
300.0	2351	2463	1697	707.4	291.8	279.4	409.1	686.4	1144	1866	3013	3137	2648	2179	2713	9999.9	9999.9	5352	72.27	27.53	18.02	12.52	10.12	8.462	7.045	5.993	5.128	4.409	4.010	3.482	3.736	3.592	4.359	5.630	6.606	7.026	5.251	4.551	4.367	4.048	4.010	4.667	5.040	5.990	6.138	7.037	7.109	7.555	6.539	4.691	3.206	2.357	1.950	1.617	1.659	1.862	2.123	2.592	3.183	3.667	4.533	5.813	6.871	8.584	11.37	13.45	13.64	12.40	11.72	12.73	13.73	15.34	16.81	30.03	84.29	210.3	334.9
305.0	2314	2387	1674	721.9	322.5	307.3	448.7	752.0	1242	1960	2937	3820	3095	2100	1305	2952	9999.9	9999.9	4285	56.22	23.72	16.44	11.79	9.835	7.961	6.201	5.319	4.761	4.142	4.284	3.686	3.734	4.232	5.781	6.819	6.511	5.438	4.827	4.202	4.203	4.121	4.466	5.131	5.628	5.783	7.079	7.148	7.659	6.271	4.751	2.905	2.673	2.115	1.713	1.818	1.846	2.255	3.003	3.119	4.033	4.898	5.991	7.834	8.980	10.43	12.71	14.96	15.58	14.20	12.03	11.34	9.412	7.538	9.468	21.13	53.41	129.2
310.0	2187	2201	1524	708.1	358.8	350.4	502.4	818.6	1325	2031	2862	3617	3591	2426	1113	961.6	2925	9999.9	9999.9	9999.9	252.1	25.02	16.70	12.30	9.604	7.494	6.093	5.464	4.633	4.533	4.142	3.936	4.165	5.610	6.588	6.112	5.413	4.657	4.315	4.284	4.265	4.570	4.937	5.425	6.017	6.791	6.747	6.938	6.065	4.416	2.944	2.638	2.135	2.030	1.868	2.206	2.335	2.991	3.555	4.170	5.347	6.505	7.863	9.256	11.05	12.06	13.79	15.19	15.32	14.67	12.15	9.126	6.030	5.084	6.878	13.64	30.67
315.0	2076	2062	1434	713.8	392.6	404.7	559.9	876.7	1395	2078	2807	3323	3293	2820	1264	597.8	829.8	2378	7748	9999.9	9999.9	66.86	25.21	17.85	12.60	9.676	7.464	6.590	5.119	5.021	4.506	4.348	4.365	5.204	5.997	5.757	4.938	4.627	4.144	4.216	4.305	4.401	4.564	5.134	5.675	6.462	6.547	6.717	5.675	3.947	3.005	2.769	2.198	2.180	2.042	2.113	2.815	3.299	3.868	4.462	5.728	6.703	8.173	9.271	10.82	11.91	13.06	13.77	13.13	13.47	13.68	11.60	6.940	4.795	4.299	5.003	8.628
320.0	2026	1980	1386	726.0	440.4	436.6	616.0	930.2	1425	2093	2775	3208	3082	2669	1723	643.2	397.4	655.0	1935	9999.9	9999.9	4088	55.72	23.36	17.04	11.89	8.655	7.249	6.071	5.363	4.659	4.476	4.550	4.940	5.671	5.378	4.656	4.702	4.342	4.211	4.472	4.414	4.708	5.089	5.688	6.322	6.385	5.953	5.231	4.027	3.106	2.676	2.301	2.285	2.231	2.430	2.958	3.262	4.052	4.766	5.716	6.775	8.376	9.498	10.80	11.31	12.75	13.14	13.15	12.53	12.08	11.33	9.402	6.162	4.313	3.362	3.826
325.0	2009	1960	1376	763.4	472.5	489.1	674.9	991.9	1494	2137	2760	3141	3022	2460	1795	928.9	356.1	285.9	527.9	2623	9999.9	9999.9	3494	45.32	20.93	14.39	10.31	8.259	7.427	5.990	5.067	4.816	5.038	4.990	5.393	5.102	4.637	4.317	4.317	4.144	4.195	4.441	4.966	4.949	5.536	6.278	6.286	6.066	5.448	3.873	3.211	2.826	2.568	2.374	2.669	2.696	3.016	3.620	4.205	4.921	5.831	7.130	8.378	9.129	10.81	11.78	12.44	12.99	12.62	12.11	11.21	9.964	9.121	7.611	6.039	3.610	3.332
330.0	2013	1961	1458	835.7	530.4	531.8	729.2	1069	1555	2180	2743	3091	2981	2421	1642	1085	607.6	259.5	224.3	662.9	2716	9999.9	9999.9	9999.9	217.6	22.58	14.34	10.87	8.369	6.792	6.055	5.195	5.098	4.939	5.098	4.778	4.668	4.325	4.185	4.148	4.130	4.697	4.924	5.217	5.737	6.399	6.131	6.274	5.499	4.164	3.350	3.146	2.826	2.593	2.686	2.813	3.366	3.921	4.291	5.257	6.176	7.392	8.402	9.392	10.85	11.36	11.87	12.40	12.43	11.76	10.89	10.12	8.001	6.820	6.402	5.524	4.470
335.0	1999	1958	1472	885.5	565.6	570.6	778.7	1124	1610	2202	2722	3024	2931	2416	1622	931.9	744.0	459.5	181.7	226.3	667.1	2315	6818	9999.9	9999.9	56.66	21.49	14.82	10.82	7.888	6.847	5.518	5.539	4.964	4.994	4.596	4.587	4.256	4.242	3.771	4.152	4.531	4.983	5.156	6.056	6.289	6.138	6.293	5.509	4.395	3.363	3.214	2.980	2.687	2.827	2.805	3.606	4.010	4.484	5.623	6.310	7.518	8.202	9.583	10.65	10.97	11.46	11.86	12.22	11.89	10.51	10.02	8.114	6.655	5.181	4.468	4.879
340.0	2054	1965	1460	884.4	576.0	599.9	805.6	1134	1610	2169	2671	2944	2857	2380	1630	888.9	607.5	592.2	262.8	134.6	211.1	572.6	1666	9999.9	9999.9	9999.9	47.45	19.24	12.98	9.597	8.041	6.420	5.726	4.965	5.311	4.746	4.504	4.349	4.118	3.883	3.937	4.587	5.010	5.466	5.919	6.502	6.099	6.265	5.342	4.211	3.423	3.530	3.171	2.748	3.036	2.695	3.673	4.071	4.510	5.479	6.397	7.288	8.197	9.541	10.53	10.47	11.34	11.61	12.02	11.51	10.59	9.869	8.360	6.437	4.926	3.997	4.029
345.0	1983	1896	1414	884.9	588.5	600.7	790.4	1135	1569	2101	2570	2816	2739	2321	1615	881.2	511.3	497.8	423.8	153.3	113.1	186.5	426.1	2629	9999.9	9999.9	2995	39.61	17.90	11.98	9.573	7.101	5.895	5.075	5.314	4.794	4.279	4.359	4.385	4.136	4.070	4.819	4.989	5.412	5.538	6.400	6.139	6.141	5.393	4.155	3.551	3.336	3.016	2.713	2.809	2.790	3.667	4.100	4.641	5.459	6.047	7.364	8.225	9.067	9.971	10.05	11.00	11.48	11.13	11.03	10.36	9.399	8.548	6.079	4.849	3.920	3.593
350.0	1885	1799	1344	812.3	574.4	582.6	750.1	1071	1496	1973	2397	2615	2556	2159	1544	860.1	475.1	340.0	381.7	313.6	136.7	103.9	148.5	634.7	2772	9999.9	9999.9	9999.9	190.9	17.48	13.00	9.212	7.133	5.949	5.567	4.765	4.652	4.428	4.253	4.345	4.089	4.588	4.832	5.170	5.627	6.110	5.977	5.990	5.208	3.999	3.340	3.360	2.862	2.860	2.797	2.963	3.520	3.757	4.519	5.405	5.956	6.946	7.474	8.342	8.924	9.604	10.17	10.38	10.32	10.02	9.742	8.910	7.927	6.080	4.864	3.806	3.447
355.0	1767	1627	1219	747.4	548.1	559.2	707.5	987.8	1383	1799	2167	2379	2321	1971	1435	811.2	449.8	288.4	244.2	317.1	285.8	115.1	92.27	191.8	661.9	2304	6797	9999.9	9999.9	49.05	19.14	12.56	9.194	7.144	5.928	4.713	4.821	4.353	4.220	4.171	4.134	4.214	4.834	5.061	5.384	5.798	5.565	5.703	4.953	3.548	3.107	2.965	2.863	2.766	2.730	2.749	3.173	3.687	4.180	4.868	5.505	6.121	7.259	7.918	8.291	8.646	9.084	9.532	9.698	9.368	8.941	8.107	7.118	5.766	4.588	3.674	3.130
360.0	1642	1572	1088	696.0	516.9	519.8	660.3	926.8	1274	1662	1995	2174	2130	1831	1340	771.1	433.5	272.6	206.8	222.7	334.4	205.3	94.15	97.34	196.0	557.3	1652	9999.9	9999.9	3020	43.20	16.55	11.59	8.096	6.499	5.369	5.027	4.418	4.519	4.140	3.938	4.067	4.579	4.864	4.906	5.547	5.193	5.363	4.748	3.401	2.982	3.085	2.883	2.707	2.575	2.653	3.134	3.624	3.887	4.613	5.163	5.893	6.665	7.591	7.739	7.772	8.525	8.521	8.803	8.637	8.098	7.776	7.052	5.464	4.157	3.466	3.211
365.0	1573	1463	999.4	652.3	488.0	501.7	626.5	862.3	1185	1538	1837	1995	1944	1687	1247	729.4	419.9	266.2	198.8	178.8	255.2	310.6	143.9	84.96	96.10	169.0	410.4	2588	9999.9	9999.9	2722	30.74	14.40	10.03	7.816	6.037	5.175	4.662	4.728	3.812	3.696	4.115	4.755	4.681	5.060	5.434	5.170	5.027	4.664	3.287	2.848	2.948	2.855	2.506	2.481	2.540	2.916	3.342	3.510	4.454	5.136	5.658	6.128	6.850	7.069	7.404	7.843	7.975	8.043	7.797	7.431	7.413	6.890	5.292	4.030	3.349	3.015
370.0	1421	1300	902.2	595.2	452.6	459.7	577.1	779.1	1044	1357	1621	1757	1707	1481	1120	661.9	396.8	265.6	205.0	175.2	183.9	259.8	261.9	138.3	86.53	88.05	133.9	615.7	2719	9999.9	9999.9	9335	33.34	13.93	9.943	7.335	5.861	4.881	4.814	4.193	4.002	4.053	4.375	4.440	4.689	4.922	4.985	4.605	4.043	3.172	2.685	2.710	2.648	2.492	2.491	2.440	2.687	3.101	3.370	3.663	4.459	5.081	5.688	6.153	6.367	6.656	6.752	7.356	7.274	6.965	6.642	6.445	5.985	4.817	3.873	3.201	2.832
375.0	1233	1149	798.4	528.9	431.6	432.0	524.3	676.3	902.5	1173	1387	1506	1468	1287	985.7	600.8	369.7	258.2	213.6	185.2	175.7	186.1	241.6	260.2	123.9	79.58	77.63	176.0	639.3	2310	8006	9999.9	9999.9	38.93	13.56	9.325	7.220	5.517	4.767	4.572	4.002	3.999	3.922	4.512	4.396	4.479	4.255	4.339	3.619	2.820	2.484	2.397	2.332	2.413	2.429	2.275	2.658	2.738	3.021	3.252	4.074	4.561	4.905	5.318	5.480	5.965	5.932	6.262	6.277	6.037	5.700	5.675	5.255	4.381	3.855	3.195	2.978
380.0	1109	1056	740.2	484.3	404.6	408.1	480.1	619.9	817.7	1043	1225	1338	1307	1145	896.6	549.5	351.4	256.0	215.7	192.4	180.6	173.5	190.4	274.9	204.3	97.12	72.73	84.69	180.8	550.8	1969	9999.9	9999.9	2473	30.83	11.40	9.005	6.778	5.588	5.017	4.208	4.025	4.014	4.177	4.311	4.390	4.042	3.904	3.637	2.608	2.308	2.275	2.271	2.249	2.189	2.351	2.537	2.586	2.920	3.316	3.524	3.958	4.540	4.497	4.875	5.197	5.440	5.602	5.612	5.732	5.531	5.094	4.831	4.205	3.607	2.907	2.771
385.0	1001	950.2	680.2	451.2	376.0	386.5	435.4	568.2	729.9	927.5	1093	1176	1158	1019	799.5	501.4	331.6	252.3	220.6	200.8	188.0	179.5	176.0	220.1	266.4	152.1	85.03	72.78	84.40	161.7	479.2	3050	9999.9	9999.9	1960	22.96	10.55	8.143	6.335	5.028	4.334	4.157	4.094	4.195	3.996	4.320	3.935	3.848	3.289	2.605	2.337	2.193	2.115	2.235	2.161	2.247	2.549	2.712	2.786	3.018	3.494	3.584	4.073	4.241	4.626	4.664	4.921	5.054	5.137	5.100	5.029	4.663	4.361	3.735	3.258	2.814	2.599
390.0	898.8	830.8	596.6	414.9	352.0	358.7	400.0	497.5	634.3	793.7	931.2	1010	991.1	879.6	701.5	457.9	319.6	250.6	225.2	210.0	202.5	195.5	190.0	188.6	229.5	239.6	150.6	94.19	82.17	88.63	153.3	723.9	3046	9999.9	9999.9	7013	26.69	11.34	8.144	6.295	5.017	4.315	4.171	3.829	3.924	3.986	3.640	3.649	2.950	2.371	2.147	2.238	2.070	2.120	2.137	2.172	2.399	2.379	2.744	2.775	2.933	3.314	3.566	3.631	4.011	4.116	4.227	4.307	4.470	4.336	4.291	4.257	3.971	3.447	2.971	2.735	2.421
395.0	759.2	727.6	530.1	370.1	343.5	336.1	369.9	443.8	551.7	683.6	798.8	856.0	846.4	754.1	613.2	414.5	299.7	249.9	232.6	223.3	220.2	215.7	215.0	204.2	204.9	235.3	253.1	156.6	108.9	95.92	98.35	212.8	720.8	2318	7418	9999.9	9999.9	32.95	11.35	8.203	5.736	5.029	4.274	4.048	3.931	3.843	3.592	3.348	2.858	2.265	1.976	2.067	2.123	2.021	2.000	2.268	2.154	2.306	2.487	2.411	2.801	2.857	3.076	3.450	3.574	3.591	3.777	4.018	3.659	3.694	3.484	3.735	3.595	3.319	2.852	2.868	2.715
400.0	695.9	655.3	480.6	358.0	322.4	321.2	355.4	414.7	500.8	608.5	712.1	765.8	763.6	667.2	555.7	385.0	294.4	249.6	237.0	230.5	232.4	235.5	231.3	225.9	215.1	221.5	267.9	232.8	146.9	115.8	99.06	109.8	211.1	559.2	1849	9999.9	9999.9	2127	26.85	9.820	7.098	5.935	4.646	4.121	4.143	3.761	3.426	3.338	2.720	2.174	1.954	1.960	2.199	1.945	2.032	2.023	2.261	2.394	2.324	2.350	2.512	2.764	2.923	3.130	3.280	3.322	3.584	3.497	3.633	3.528	3.173	3.383	3.150	3.043	2.525	2.628	2.749
405.0	627.6	595.7	446.2	341.1	309.8	314.1	335.7	388.5	471.4	556.8	648.5	701.7	681.2	610.9	507.8	366.7	284.5	244.8	236.1	231.4	234.9	242.3	247.3	241.8	234.3	226.0	242.6	280.8	205.3	138.0	116.4	96.85	107.3	173.1	455.2	2693	9999.9	9999.9	1754	20.42	8.864	7.059	5.252	4.456	4.071	3.941	3.274	3.136	2.962	2.245	2.030	2.081	2.096	1.928	2.088	1.992	2.219	2.351	2.211	2.335	2.492	2.734	2.791	2.887	3.161	3.110	3.145	3.199	3.208	3.165	3.187	3.329	3.108	2.597	2.438	2.499	2.380
410.0	525.5	519.5	406.3	318.6	298.0	299.8	316.6	356.1	434.2	500.1	572.9	607.0	592.3	532.0	450.9	336.5	267.6	235.8	232.0	231.8	241.2	247.8	255.7	255.1	248.1	236.7	230.6	253.5	265.7	189.8	137.7	106.8	92.07	92.27	145.7	639.3	2793	9999.9	9999.9	6059	22.91	8.978	6.536	5.288	4.368	3.730	3.301	3.222	2.870	2.270	1.997	2.303	2.129	1.896	1.959	1.953	2.252	2.049	2.225	2.274	2.246	2.555	2.517	2.750	2.716	2.829	2.876	2.912	2.952	2.783	2.883	2.781	2.890	2.398	2.399	2.288	2.157
415.0	463.9	442.8	359.0	295.3	279.6	277.7	291.8	334.6	378.6	446.4	505.6	521.5	513.0	455.4	390.5	303.0	251.5	227.9	223.3	228.6	234.7	245.4	252.1	256.6	252.7	244.4	234.6	226.2	244.2	252.2	172.4	117.6	93.65	77.20	78.30	178.8	652.0	2290	6141	9999.9	7601	29.29	8.375	6.406	5.295	4.279	3.531	3.262	2.650	2.228	2.027	2.176	2.068	2.054	2.019	1.950	2.101	2.026	2.091	1.963	2.152	2.386	2.243	2.445	2.637	2.535	2.561	2.529	2.530	2.633	2.467	2.432	2.633	2.194	2.058	2.180	1.966
