Sample:	'1
File name:	T2025041707 ãÆ¼Ò´å¶«ÇÅ.FD3
Run date:	'10:37:21, 04/21/2025
Operator:	Administrator
Comment:	'

Instrument
Model:	F-2700 FL Spectrophotometer
Serial number:	23B8-004
ROM Version:	4J14000 07

Instrument parameters
Measurement type:	3-D scan
Data mode:	Fluorescence
EX  Start WL:	220.0 nm
EX  End WL:	600.0 nm
EX Sampling interval:	5.0 nm
EM  Start WL:	230.0 nm
EM  End WL:	650.0 nm
EM Sampling interval:	5.0 nm
Scan speed:	12000 nm/min
EX Slit:	5.0 nm
EM Slit:	5.0 nm
PMT Voltage:	700 V
Response:	Auto 
Corrected spectra:	Off
Contour interval:	50.000

Peak integration
Integration method:	Rectangular
Sensitivity:	1
Threshold:	1.000

Peaks
No.	ApexEX/EM(nm)	Height(Data)
1	225.0/310.0	516.9
2	230.0/305.0	521.3
3	230.0/345.0	1137
4	230.0/500.0	309.3
5	230.0/560.0	62.52
6	230.0/580.0	60.64
7	230.0/600.0	52.54
8	230.0/625.0	39.51
9	235.0/510.0	265.2
10	240.0/265.0	347.3
11	240.0/525.0	232.0
12	245.0/270.0	348.8
13	245.0/535.0	200.0
14	250.0/275.0	444.4
15	250.0/545.0	159.0
16	255.0/280.0	571.5
17	255.0/560.0	132.5
18	260.0/285.0	573.6
19	260.0/570.0	109.1
20	265.0/585.0	107.1
21	270.0/300.0	951.9
22	270.0/595.0	92.71
23	275.0/305.0	1113
24	275.0/610.0	80.51
25	280.0/310.0	999.0
26	280.0/340.0	848.1
27	280.0/620.0	68.41
28	285.0/315.0	930.7
29	285.0/635.0	51.24
30	290.0/325.0	856.2
31	305.0/345.0	556.6
32	315.0/355.0	449.0
33	320.0/365.0	426.2
34	330.0/375.0	387.7
35	335.0/380.0	380.0
36	430.0/505.0	30.98
37	445.0/525.0	17.71
38	460.0/345.0	3.043
39	505.0/275.0	2.992
40	510.0/280.0	3.261
41	520.0/285.0	3.780
42	530.0/290.0	3.358
43	540.0/295.0	4.771
44	545.0/300.0	5.291
45	555.0/305.0	5.527
46	560.0/310.0	5.030
47	580.0/320.0	5.330
48	585.0/325.0	5.066

Data points
	220.0	225.0	230.0	235.0	240.0	245.0	250.0	255.0	260.0	265.0	270.0	275.0	280.0	285.0	290.0	295.0	300.0	305.0	310.0	315.0	320.0	325.0	330.0	335.0	340.0	345.0	350.0	355.0	360.0	365.0	370.0	375.0	380.0	385.0	390.0	395.0	400.0	405.0	410.0	415.0	420.0	425.0	430.0	435.0	440.0	445.0	450.0	455.0	460.0	465.0	470.0	475.0	480.0	485.0	490.0	495.0	500.0	505.0	510.0	515.0	520.0	525.0	530.0	535.0	540.0	545.0	550.0	555.0	560.0	565.0	570.0	575.0	580.0	585.0	590.0	595.0	600.0
230.0	33.73	475.3	1606	628.8	35.85	5.432	4.283	3.622	2.719	2.638	2.634	2.166	2.057	1.765	1.440	1.419	1.206	0.982	0.936	0.756	0.759	0.625	0.650	0.601	0.564	0.525	0.486	0.435	0.427	0.442	0.365	0.374	0.391	0.336	0.356	0.296	0.294	0.303	0.297	0.268	0.288	0.366	0.371	0.306	0.255	0.273	0.551	2.430	5.370	4.701	2.103	0.558	0.204	0.197	0.185	0.194	0.164	0.171	0.190	0.192	0.192	0.190	0.179	0.199	0.182	0.161	0.166	0.166	0.174	0.169	0.181	0.183	0.183	0.164	0.186	0.167	0.183
235.0	79.71	152.2	960.7	1916	558.2	65.19	4.213	3.788	3.326	2.868	3.103	2.487	2.127	1.735	1.864	1.206	1.127	1.157	0.821	0.846	0.953	0.684	0.712	0.626	0.627	0.684	0.458	0.396	0.439	0.465	0.425	0.354	0.349	0.290	0.289	0.304	0.270	0.337	0.331	0.327	0.285	0.298	0.364	0.472	0.395	0.381	0.294	0.713	1.953	3.935	6.271	7.476	4.170	1.017	0.269	0.177	0.211	0.229	0.183	0.227	0.185	0.216	0.171	0.193	0.257	0.166	0.152	0.141	0.180	0.138	0.176	0.162	0.250	0.184	0.163	0.186	0.203
240.0	115.2	122.1	280.6	1448	2357	460.7	35.32	4.836	4.628	3.926	3.082	2.825	2.245	2.263	2.032	1.197	1.000	1.178	0.818	0.783	0.867	0.833	0.754	0.640	0.699	0.576	0.478	0.409	0.470	0.490	0.348	0.422	0.363	0.386	0.348	0.310	0.326	0.300	0.297	0.352	0.275	0.303	0.251	0.389	0.467	0.587	0.463	0.403	0.590	1.180	3.036	8.037	12.04	8.865	3.547	0.638	0.274	0.217	0.185	0.206	0.186	0.167	0.177	0.177	0.197	0.154	0.176	0.161	0.159	0.133	0.189	0.162	0.200	0.206	0.161	0.161	0.192
245.0	87.27	169.0	133.4	460.5	2176	2605	353.7	16.45	5.432	4.007	3.630	2.978	2.760	2.562	1.705	1.255	1.176	1.251	0.929	0.765	0.819	0.752	0.738	0.682	0.676	0.602	0.557	0.491	0.432	0.416	0.449	0.370	0.388	0.389	0.337	0.289	0.282	0.297	0.321	0.386	0.296	0.294	0.246	0.287	0.324	0.580	0.626	0.603	0.427	0.413	0.885	2.508	6.952	12.69	15.00	8.687	2.806	0.456	0.198	0.210	0.196	0.156	0.209	0.185	0.170	0.186	0.172	0.189	0.186	0.188	0.176	0.160	0.235	0.185	0.166	0.208	0.153
250.0	41.60	120.7	214.8	208.0	647.5	2110	3050	1240	86.11	5.741	4.739	3.727	3.298	2.282	2.147	1.574	1.380	1.384	0.969	0.882	0.882	0.762	0.798	0.713	0.694	0.601	0.560	0.464	0.460	0.433	0.482	0.419	0.379	0.356	0.321	0.303	0.313	0.328	0.311	0.349	0.311	0.378	0.308	0.261	0.249	0.327	0.420	0.652	0.785	0.787	0.629	0.844	1.799	3.909	7.658	11.59	15.74	15.74	9.759	3.075	0.458	0.182	0.226	0.173	0.223	0.180	0.183	0.178	0.184	0.172	0.178	0.186	0.195	0.205	0.175	0.212	0.183
255.0	26.32	45.44	134.2	319.0	259.5	521.8	1862	4620	1789	103.3	6.581	4.777	3.898	3.099	2.209	1.896	1.507	1.389	1.208	1.038	0.940	1.030	0.721	0.684	0.775	0.671	0.631	0.490	0.569	0.538	0.567	0.479	0.417	0.393	0.354	0.336	0.331	0.365	0.307	0.299	0.308	0.307	0.274	0.271	0.283	0.277	0.281	0.342	0.445	0.777	1.064	1.345	0.878	1.079	1.906	2.914	5.086	11.81	24.44	27.19	16.01	3.536	0.345	0.222	0.235	0.205	0.233	0.198	0.209	0.218	0.206	0.192	0.153	0.164	0.193	0.222	0.205
260.0	30.41	27.16	49.21	246.3	326.0	192.7	520.9	3043	5560	1411	52.98	6.586	5.115	3.209	2.826	2.138	1.738	1.622	1.326	1.318	0.940	0.969	0.803	0.683	0.803	0.787	0.639	0.518	0.552	0.579	0.478	0.518	0.425	0.414	0.396	0.377	0.293	0.325	0.289	0.250	0.342	0.292	0.401	0.250	0.251	0.336	0.237	0.253	0.316	0.402	0.635	1.371	1.686	1.096	0.756	0.835	1.447	3.128	9.272	21.46	33.61	26.34	12.58	2.032	0.252	0.251	0.247	0.241	0.271	0.227	0.218	0.194	0.213	0.202	0.242	0.233	0.243
265.0	29.76	26.29	24.52	104.0	347.3	277.4	160.1	918.2	4566	6010	232.9	23.16	7.063	4.333	3.295	2.447	1.989	1.586	1.423	1.533	1.014	0.975	0.767	0.768	0.620	0.753	0.610	0.616	0.528	0.513	0.616	0.508	0.405	0.440	0.348	0.432	0.345	0.393	0.317	0.365	0.312	0.299	0.236	0.323	0.289	0.312	0.286	0.243	0.263	0.241	0.346	0.671	1.297	1.979	1.544	0.763	0.586	0.893	2.412	5.835	15.33	30.24	40.28	24.25	7.802	0.874	0.297	0.235	0.200	0.211	0.280	0.239	0.195	0.180	0.241	0.285	0.198
270.0	47.38	50.35	41.80	45.96	150.6	348.8	305.0	265.9	1303	4336	6293	2476	70.38	7.136	4.481	3.254	2.564	1.840	1.592	1.465	1.173	1.056	0.998	0.878	0.811	0.783	0.704	0.743	0.564	0.658	0.623	0.570	0.435	0.438	0.409	0.429	0.423	0.371	0.348	0.370	0.336	0.353	0.318	0.366	0.347	0.354	0.338	0.325	0.290	0.270	0.286	0.372	0.538	1.017	1.499	1.870	1.910	1.097	0.976	1.612	3.788	8.229	16.78	27.07	29.63	33.53	16.34	6.935	0.821	0.283	0.271	0.233	0.239	0.202	0.278	0.250	0.213
275.0	106.1	127.7	114.1	66.93	60.50	143.6	444.4	348.4	352.7	1048	3225	8962	1305	72.91	7.129	4.684	3.344	2.359	2.192	1.714	1.294	1.189	1.114	0.932	0.863	0.779	0.719	0.700	0.650	0.645	0.654	0.536	0.497	0.501	0.593	0.547	0.456	0.395	0.445	0.438	0.328	0.454	0.407	0.371	0.437	0.535	0.479	0.457	0.406	0.395	0.344	0.314	0.319	0.497	0.604	0.936	1.976	2.992	2.442	1.268	1.174	2.136	4.055	6.467	8.372	19.13	41.41	55.24	25.73	7.864	0.593	0.259	0.318	0.241	0.260	0.282	0.256
280.0	167.5	216.3	189.6	112.7	63.16	67.59	252.1	571.5	284.6	308.6	882.3	5124	9858	963.5	36.40	6.503	4.386	3.024	2.488	1.907	1.772	1.392	1.205	0.999	0.933	0.964	0.730	0.805	0.679	0.746	0.652	0.673	0.634	0.559	0.532	0.621	0.556	0.478	0.519	0.517	0.360	0.438	0.475	0.519	0.577	0.620	0.644	0.700	0.667	0.551	0.496	0.476	0.402	0.388	0.424	0.505	0.878	1.610	3.261	3.103	1.792	0.981	1.311	1.933	2.397	5.027	12.84	32.86	54.65	33.72	20.28	3.801	0.429	0.310	0.298	0.276	0.325
285.0	223.1	316.5	270.7	164.8	79.78	60.26	116.0	434.2	573.6	235.5	309.5	1455	7263	7966	638.7	15.16	5.313	3.602	2.717	2.164	1.852	1.524	1.289	1.135	1.050	0.919	0.941	0.831	0.793	0.739	0.647	0.652	0.640	0.650	0.718	0.744	0.590	0.504	0.592	0.519	0.519	0.465	0.479	0.524	0.617	0.641	0.819	1.038	0.793	0.756	0.585	0.533	0.451	0.411	0.360	0.436	0.567	0.815	1.642	2.958	3.780	2.531	1.165	1.027	1.110	1.780	3.416	8.462	19.84	38.29	58.69	31.23	14.16	1.680	0.363	0.306	0.298
290.0	291.0	403.5	371.7	227.3	117.5	79.94	95.92	207.5	509.2	618.4	341.3	507.1	2002	5322	6701	2078	36.88	5.927	3.824	2.916	2.253	1.860	1.485	1.362	1.153	1.094	0.974	0.938	0.813	0.808	0.725	0.704	0.678	0.749	0.773	0.787	0.648	0.700	0.593	0.538	0.475	0.535	0.597	0.601	0.797	0.906	1.010	1.280	1.188	1.015	0.802	0.766	0.613	0.534	0.427	0.537	0.570	0.679	0.903	1.317	2.240	3.045	3.358	2.771	1.917	1.483	1.734	2.887	5.342	10.04	20.50	30.25	42.47	38.71	20.53	11.09	1.860
295.0	328.4	446.9	439.3	296.2	160.8	119.5	130.8	178.8	289.2	620.3	818.6	441.5	679.6	1354	3119	7966	718.4	38.20	5.629	3.628	2.890	2.060	1.782	1.595	1.396	1.258	1.053	1.002	0.822	0.841	0.823	0.778	0.553	0.715	0.845	0.787	0.764	0.784	0.587	0.610	0.586	0.603	0.543	0.667	0.969	1.023	1.182	1.333	1.197	1.206	0.969	0.863	0.755	0.649	0.646	0.747	0.665	0.723	0.883	1.018	1.288	1.735	2.101	3.691	4.771	3.469	1.955	2.032	2.419	3.374	5.686	7.586	10.89	16.23	36.68	67.94	31.87
300.0	365.9	493.6	497.9	336.4	195.0	150.0	173.5	212.7	281.9	466.6	951.9	761.2	471.4	512.1	884.1	4437	7375	561.3	17.35	5.304	3.392	2.582	2.161	1.904	1.543	1.450	1.156	1.101	0.879	0.867	0.829	0.694	0.796	0.800	0.914	0.715	0.907	0.830	0.779	0.760	0.624	0.643	0.596	0.763	0.946	1.104	1.344	1.416	1.559	1.315	1.151	1.025	0.944	0.747	0.701	0.736	0.913	0.954	1.007	1.271	1.363	1.524	1.705	2.341	3.999	5.291	4.555	2.966	2.291	2.200	2.708	2.928	3.374	4.438	10.55	30.81	51.79
305.0	364.5	498.5	521.3	360.7	217.6	187.4	215.8	263.3	337.5	449.7	753.4	1113	627.9	399.2	373.6	1244	5631	5043	78.42	8.842	4.143	3.219	2.594	2.107	1.790	1.441	1.407	1.151	0.951	1.007	0.851	0.704	0.942	0.889	0.911	0.860	0.850	0.727	0.798	0.772	0.661	0.726	0.737	0.759	0.987	1.204	1.258	1.469	1.541	1.308	1.197	1.072	1.065	0.862	0.860	0.819	0.983	1.156	1.147	1.484	1.610	1.704	1.833	2.269	2.879	3.778	5.357	5.527	3.920	2.418	2.338	2.188	1.919	2.038	3.304	7.827	16.45
310.0	381.2	516.9	513.8	382.0	251.2	227.2	259.0	316.1	390.5	495.3	632.7	903.4	999.0	576.2	322.3	408.9	1546	4097	4763	1387	22.42	4.181	3.184	2.584	1.882	1.567	1.556	1.053	1.180	1.029	0.908	0.819	0.932	0.968	0.931	0.834	0.845	0.781	0.791	0.709	0.643	0.775	0.768	0.849	0.941	1.259	1.169	1.509	1.594	1.411	1.231	1.232	1.157	1.028	1.072	0.943	1.214	1.389	1.412	1.633	1.809	2.021	2.166	2.369	2.632	3.137	3.572	4.606	5.030	4.768	3.788	2.867	2.011	1.860	1.902	2.699	4.494
315.0	362.7	505.3	526.7	403.3	280.9	262.5	293.6	353.8	434.8	539.5	629.9	737.7	852.8	930.7	459.9	273.8	464.8	1007	2585	6060	502.4	21.60	4.711	3.358	2.402	1.892	1.625	1.532	1.228	1.130	1.030	0.862	0.899	0.888	0.819	0.830	0.874	0.805	0.796	0.747	0.692	0.722	0.736	0.831	1.059	1.300	1.260	1.547	1.546	1.466	1.217	1.190	1.181	1.131	1.221	1.076	1.390	1.571	1.693	1.850	1.941	2.217	2.406	2.678	2.664	3.126	2.972	3.446	4.003	4.073	4.908	4.997	3.163	2.266	1.787	1.798	1.911
320.0	400.4	562.7	599.7	438.5	324.0	295.0	325.5	390.9	467.6	570.5	667.2	725.9	755.4	901.3	730.4	317.9	263.3	331.6	707.0	3822	4170	391.7	10.65	4.195	2.723	2.298	1.856	1.552	1.263	1.212	1.184	0.959	1.001	0.934	0.938	0.819	0.959	0.776	0.727	0.796	0.806	0.828	0.788	0.892	1.061	1.251	1.424	1.826	1.787	1.543	1.385	1.381	1.326	1.211	1.225	1.303	1.635	1.620	1.826	1.834	2.086	2.367	2.580	2.539	2.926	3.200	3.131	3.417	3.407	3.700	3.905	5.014	5.330	4.011	2.255	1.713	1.654
325.0	446.1	684.9	747.6	555.7	378.2	338.9	355.6	408.1	489.4	600.8	702.7	757.9	758.8	761.6	856.2	498.0	265.6	208.9	244.1	1094	4332	3626	57.78	6.678	3.510	2.580	2.009	1.565	1.653	1.375	1.163	1.215	0.969	0.823	0.820	0.799	0.834	0.718	0.703	0.688	0.710	0.822	0.761	0.924	0.948	1.389	1.715	2.003	1.972	1.868	1.766	1.598	1.519	1.451	1.343	1.330	1.672	1.650	1.865	2.067	2.237	2.339	2.939	2.781	2.984	3.129	3.448	3.558	3.414	3.669	3.652	3.933	4.585	5.066	4.290	2.478	2.082
330.0	497.9	784.7	922.2	735.1	480.3	380.8	385.1	435.1	518.7	629.8	733.1	799.7	800.8	736.8	718.2	685.6	432.5	232.1	173.9	325.8	1243	3378	3795	1004	16.79	3.967	2.746	1.933	1.594	1.379	1.312	1.180	0.977	1.041	0.929	0.880	0.799	0.778	0.771	0.728	0.747	0.782	0.830	0.945	1.131	1.448	1.855	2.284	2.654	2.468	2.210	2.147	1.979	1.714	1.650	1.487	1.708	1.722	1.956	2.186	2.388	2.527	2.835	3.073	2.998	3.250	3.581	3.583	3.642	3.756	3.756	3.708	3.737	3.909	3.945	4.258	3.742
335.0	521.1	891.9	1061	867.9	583.5	448.5	424.7	469.8	550.3	657.6	760.9	823.4	839.9	773.2	679.8	604.1	636.7	377.7	201.4	187.9	352.0	822.7	2462	4981	402.7	16.27	3.819	2.686	2.000	1.577	1.540	1.239	1.127	1.012	0.988	0.942	0.844	0.907	0.835	0.757	0.774	0.780	0.870	0.986	1.251	1.604	1.972	2.566	2.996	2.630	2.620	2.439	2.398	1.951	1.748	1.799	1.842	1.919	2.041	2.169	2.416	2.607	3.016	3.012	3.364	3.589	3.884	3.684	4.056	3.991	4.061	3.563	3.920	3.703	3.599	3.298	3.785
340.0	546.1	900.9	1115	943.9	647.9	490.6	456.3	490.1	565.9	667.7	770.4	843.5	848.1	789.7	697.1	569.7	588.8	543.6	269.6	181.7	171.6	241.3	673.2	3558	3384	315.1	7.712	3.462	2.435	1.883	1.609	1.465	1.373	1.073	0.920	0.912	0.791	0.845	0.716	0.773	0.658	0.751	0.887	1.077	1.158	1.648	1.998	2.612	2.842	2.928	2.726	2.713	2.634	2.008	1.843	1.922	1.925	2.012	2.286	2.211	2.499	2.521	2.891	3.076	3.553	3.651	3.829	3.699	3.644	4.086	4.288	3.923	3.838	3.996	3.440	3.277	3.482
345.0	558.4	875.8	1137	982.3	697.7	530.3	481.1	502.5	571.5	672.4	763.9	837.9	847.8	791.8	704.7	574.5	512.0	556.6	405.1	211.8	151.1	131.4	203.3	1056	3898	2948	49.01	5.639	2.997	2.340	1.500	1.386	1.237	1.192	0.981	0.918	0.878	0.879	0.807	0.766	0.685	0.796	0.969	1.127	1.232	1.680	1.945	2.750	3.043	3.024	2.673	2.955	2.680	2.264	1.985	2.008	2.125	1.994	2.213	2.156	2.547	2.578	2.743	3.053	3.561	3.413	3.723	3.601	3.599	3.922	4.282	4.076	4.230	3.894	3.458	3.471	3.373
350.0	538.3	842.1	1106	1003	727.6	566.3	502.9	508.8	580.5	657.6	742.7	803.9	816.2	783.8	699.5	585.2	498.6	468.7	475.7	344.9	190.3	137.9	122.6	290.5	1158	2987	3067	783.1	14.20	2.956	2.127	1.607	1.314	1.272	0.988	0.958	0.924	0.903	0.833	0.844	0.743	0.845	0.865	1.057	1.196	1.551	1.897	2.548	2.855	2.808	2.710	3.059	2.769	2.396	2.273	2.241	2.133	2.156	2.313	2.237	2.518	2.605	2.801	2.970	3.264	3.372	3.615	3.564	3.734	3.844	3.959	4.010	3.877	3.692	3.425	3.129	3.242
355.0	493.6	797.2	1033	979.0	754.7	605.1	547.2	532.1	588.0	653.6	725.7	778.9	791.3	767.2	703.9	603.5	518.9	452.4	415.8	449.0	311.4	178.7	134.9	142.6	308.0	730.3	2137	4027	358.6	13.48	3.178	2.137	1.627	1.319	1.169	0.966	0.934	0.885	0.829	0.856	0.802	0.836	0.849	0.983	1.197	1.471	1.806	2.356	2.677	2.847	2.846	3.036	2.670	2.534	2.338	2.167	2.366	2.226	2.439	2.278	2.546	2.612	3.003	2.894	3.277	3.465	3.325	3.584	3.497	3.571	3.884	3.788	3.726	3.812	3.539	3.599	3.446
360.0	492.5	734.7	974.7	948.2	773.8	637.0	571.6	560.7	595.1	657.3	710.1	754.3	771.7	751.5	698.8	613.5	542.3	463.9	410.7	418.8	419.2	251.4	165.9	130.1	138.9	209.4	590.2	3088	3035	286.6	6.446	2.637	1.994	1.402	1.241	0.994	1.039	0.930	0.821	0.821	0.821	0.799	0.838	1.017	1.181	1.572	1.670	2.341	2.584	2.811	2.730	3.058	2.715	2.689	2.287	2.226	2.463	2.368	2.344	2.495	2.722	2.618	2.804	2.777	3.125	3.281	3.234	3.554	3.355	3.517	3.770	3.691	3.790	3.727	3.630	3.472	3.436
365.0	467.1	701.1	932.5	913.0	785.6	659.5	597.0	567.1	601.0	661.9	708.5	737.2	754.0	733.1	690.3	614.5	553.2	485.4	427.0	388.4	426.2	356.5	208.3	149.7	119.5	107.4	172.1	943.5	3478	2661	44.23	4.201	2.246	1.627	1.498	1.274	0.961	0.991	0.880	0.747	0.844	0.806	0.860	1.075	1.193	1.489	1.584	2.250	2.394	2.576	2.533	3.022	2.846	2.627	2.637	2.154	2.524	2.420	2.521	2.662	2.540	2.727	2.959	3.056	3.196	3.253	3.377	3.478	3.540	3.617	3.709	3.739	3.847	3.435	3.686	3.536	3.616
370.0	458.4	666.8	889.3	890.7	785.9	679.1	613.5	591.2	611.1	662.2	700.2	718.6	730.3	713.6	680.2	613.1	563.1	506.9	452.3	407.0	388.0	397.5	323.6	205.7	146.4	110.9	97.72	253.2	1051	2732	2827	194.8	12.94	2.622	1.801	1.370	1.061	1.082	1.088	0.824	0.907	0.754	0.832	0.959	1.075	1.365	1.575	2.049	2.262	2.363	2.395	2.776	2.858	2.695	2.640	2.351	2.635	2.677	2.502	2.612	2.566	2.824	2.938	2.955	3.231	3.113	3.150	3.384	3.468	3.537	3.502	3.550	3.725	3.537	3.433	3.508	3.669
375.0	444.7	637.5	847.1	869.9	786.2	709.7	642.1	609.8	629.7	668.5	688.7	697.5	709.4	699.8	658.3	617.3	567.5	525.5	479.7	434.5	395.9	367.7	387.7	312.7	192.6	139.3	108.2	118.2	276.6	669.7	2115	2878	311.7	12.21	2.553	1.755	1.282	1.289	1.082	1.033	0.821	0.905	0.777	0.958	1.144	1.326	1.422	1.960	2.061	2.246	2.360	2.743	2.889	2.763	2.694	2.567	2.735	2.716	2.487	2.607	2.900	2.826	2.914	2.857	3.157	3.234	3.075	3.136	3.179	3.206	3.434	3.334	3.737	3.586	3.591	3.477	3.485
380.0	407.0	635.9	813.9	838.7	789.4	719.9	652.3	616.9	635.7	662.6	686.5	681.7	691.0	684.6	642.2	611.5	568.9	534.9	492.6	453.2	409.7	371.9	367.5	380.0	256.0	170.6	128.3	103.3	116.6	188.3	591.5	2519	2631	240.1	5.317	2.118	1.862	1.261	1.083	0.926	0.700	0.850	0.906	1.004	1.024	1.307	1.467	1.906	2.105	2.000	2.230	2.648	2.721	2.665	2.686	2.629	2.686	2.768	2.578	2.645	3.024	2.808	3.110	2.871	3.032	3.188	3.122	3.282	3.150	3.255	3.395	3.269	3.539	3.553	3.468	3.388	3.691
385.0	421.4	615.8	787.4	826.7	801.8	726.4	667.2	639.1	642.6	652.2	675.7	671.2	676.6	667.3	634.0	598.1	566.0	536.2	505.3	467.5	427.4	384.5	355.9	374.9	331.3	212.2	153.9	117.0	95.87	89.51	168.6	771.1	2902	2210	36.93	3.699	2.122	1.585	1.092	1.045	0.811	0.907	0.933	0.947	0.984	1.237	1.426	1.968	2.109	2.100	2.060	2.741	2.877	2.682	2.742	2.721	2.796	2.684	2.672	2.841	2.855	2.821	2.897	2.945	3.035	2.971	3.162	3.107	3.220	3.235	3.297	3.425	3.293	3.543	3.501	3.381	3.750
390.0	404.9	584.3	744.7	810.7	776.9	729.1	673.0	645.7	637.7	648.7	660.3	658.9	661.7	649.2	621.6	585.1	555.9	534.3	509.5	476.1	441.4	404.6	370.0	348.7	350.5	298.7	203.0	148.5	114.4	89.40	87.03	207.0	854.8	2096	2056	551.2	11.39	2.275	1.385	1.175	1.049	0.860	0.921	0.929	0.992	1.148	1.395	1.853	1.932	2.054	2.064	2.651	2.926	2.612	2.872	2.616	2.862	2.645	2.650	2.821	2.769	2.755	2.961	2.911	3.149	2.883	2.981	3.065	3.121	2.979	3.208	3.322	3.269	3.370	3.402	3.262	3.560
395.0	395.8	563.7	728.0	791.6	766.6	735.4	682.0	655.2	641.3	636.3	642.3	646.0	648.1	629.3	600.4	571.7	549.1	524.1	506.6	480.5	450.3	421.4	388.6	358.8	330.5	331.0	284.6	193.0	144.7	115.2	89.07	94.64	222.2	509.0	1407	2377	265.5	12.23	2.083	1.407	1.268	0.972	1.029	1.000	1.104	1.268	1.327	1.801	1.775	1.845	2.040	2.607	2.791	2.766	2.874	2.727	2.885	2.748	2.662	2.797	2.861	2.793	2.881	2.838	2.985	2.858	2.760	2.959	3.017	3.175	3.097	3.330	3.244	3.244	3.264	3.417	3.448
400.0	379.8	562.0	712.4	782.9	773.1	739.7	681.2	669.8	638.4	637.3	643.4	639.7	637.9	622.2	590.2	557.3	537.1	518.8	500.1	475.8	452.5	425.3	403.4	370.2	335.1	318.0	322.0	247.5	175.3	139.9	104.5	81.97	89.76	140.7	382.6	1823	2162	221.8	5.916	1.761	1.419	1.117	1.033	1.219	1.161	1.325	1.366	1.734	1.865	1.998	1.956	2.479	2.638	2.844	2.702	2.867	2.676	2.821	2.701	2.856	2.923	3.090	2.912	2.846	2.984	2.768	2.895	2.824	2.978	3.102	3.126	3.255	3.418	3.145	3.290	3.379	3.432
405.0	400.8	552.4	711.3	772.6	756.8	735.8	680.4	661.5	652.3	631.8	639.7	628.1	616.4	604.9	581.2	543.2	518.9	507.5	489.1	473.9	448.0	427.7	408.3	379.9	344.1	314.9	315.7	303.3	212.9	162.0	123.5	90.39	70.62	65.50	109.8	532.0	2036	1891	34.71	3.225	1.852	1.322	1.123	1.153	1.162	1.174	1.317	1.637	1.918	2.057	1.971	2.581	2.677	2.696	2.742	2.803	3.013	2.772	2.859	2.670	2.873	2.885	2.980	3.045	3.136	2.670	2.949	2.921	2.815	3.225	3.111	3.246	3.252	3.185	3.238	3.320	3.350
410.0	380.9	523.3	684.9	752.1	746.7	728.2	693.0	657.6	645.1	623.9	635.7	616.2	602.4	588.6	560.4	523.0	499.8	487.3	469.9	457.4	443.5	421.9	405.9	386.3	356.7	325.0	302.0	304.4	275.0	201.8	147.1	108.6	80.20	58.85	55.58	140.7	571.8	1524	1666	518.5	11.54	1.952	1.324	1.176	1.222	1.391	1.308	1.694	1.829	1.900	1.965	2.459	2.767	2.554	2.741	2.750	2.836	2.770	2.974	2.933	2.785	2.729	2.849	2.995	2.856	2.674	2.654	2.940	2.796	3.044	2.873	3.053	3.187	2.959	3.187	3.139	3.266
415.0	375.7	485.1	654.4	718.5	726.6	713.2	688.9	653.2	642.9	620.5	620.4	604.1	583.7	561.1	535.4	494.2	474.9	459.1	450.1	436.5	424.4	411.3	399.1	386.2	363.8	330.8	302.5	284.8	285.7	258.5	176.4	127.9	93.55	69.48	52.38	58.38	146.4	362.4	959.0	2036	251.6	13.87	1.811	1.525	1.364	1.457	1.387	1.650	1.851	1.787	1.994	2.273	2.639	2.793	2.728	2.732	2.721	2.637	2.897	2.644	2.777	2.827	2.624	2.709	2.681	2.484	2.588	2.823	2.725	2.708	2.771	2.829	3.024	2.730	2.838	2.915	3.113
