Sample:	'1
File name:	Default_20250723_162815.FD3
Run date:	'16:21:55, 07/23/2025
Operator:	Administrator
Comment:	'

Instrument
Model:	F-2700 FL Spectrophotometer
Serial number:	3064-004
ROM Version:	4J14000 07

Instrument parameters
Measurement type:	3-D scan
Data mode:	Fluorescence
EX  Start WL:	220.0 nm
EX  End WL:	600.0 nm
EX Sampling interval:	5.0 nm
EM  Start WL:	230.0 nm
EM  End WL:	650.0 nm
EM Sampling interval:	5.0 nm
Scan speed:	12000 nm/min
EX Slit:	5.0 nm
EM Slit:	5.0 nm
PMT Voltage:	700 V
Response:	Auto 
Corrected spectra:	Off
Contour interval:	50.000

Peak integration
Integration method:	Rectangular
Sensitivity:	1
Threshold:	1.000

Peaks
No.	ApexEX/EM(nm)	Height(Data)
1	230.0/340.0	925.3
2	230.0/585.0	59.98
3	230.0/620.0	34.89
4	235.0/345.0	923.9
5	235.0/510.0	222.5
6	235.0/625.0	34.50
7	240.0/520.0	224.4
8	245.0/265.0	346.9
9	245.0/530.0	208.6
10	250.0/545.0	200.7
11	255.0/280.0	692.3
12	255.0/555.0	192.0
13	260.0/285.0	917.1
14	260.0/570.0	174.7
15	265.0/290.0	 1028
16	265.0/580.0	178.6
17	270.0/295.0	 1426
18	270.0/380.0	 1153
19	270.0/595.0	155.2
20	275.0/305.0	 1708
21	275.0/375.0	 1169
22	275.0/605.0	150.0
23	280.0/310.0	 1562
24	280.0/340.0	 1237
25	280.0/615.0	123.7
26	285.0/315.0	 1465
27	285.0/630.0	93.65
28	290.0/320.0	 1316
29	290.0/645.0	69.96
30	305.0/340.0	861.4
31	315.0/355.0	634.0
32	320.0/360.0	688.8
33	325.0/365.0	669.9
34	330.0/375.0	624.9
35	335.0/380.0	671.8
36	340.0/385.0	662.9
37	350.0/400.0	595.6
38	355.0/405.0	575.2
39	370.0/425.0	451.7
40	415.0/485.0	123.9
41	430.0/505.0	78.69
42	445.0/525.0	47.90
43	455.0/540.0	33.61
44	460.0/340.0	4.059
45	505.0/275.0	3.482
46	510.0/280.0	4.068
47	520.0/285.0	4.522
48	530.0/290.0	4.843
49	540.0/295.0	6.713
50	545.0/300.0	7.902
51	550.0/305.0	8.276
52	560.0/310.0	7.340
53	570.0/315.0	7.292
54	580.0/320.0	6.672
55	590.0/330.0	5.952

Data points
	220.0	225.0	230.0	235.0	240.0	245.0	250.0	255.0	260.0	265.0	270.0	275.0	280.0	285.0	290.0	295.0	300.0	305.0	310.0	315.0	320.0	325.0	330.0	335.0	340.0	345.0	350.0	355.0	360.0	365.0	370.0	375.0	380.0	385.0	390.0	395.0	400.0	405.0	410.0	415.0	420.0	425.0	430.0	435.0	440.0	445.0	450.0	455.0	460.0	465.0	470.0	475.0	480.0	485.0	490.0	495.0	500.0	505.0	510.0	515.0	520.0	525.0	530.0	535.0	540.0	545.0	550.0	555.0	560.0	565.0	570.0	575.0	580.0	585.0	590.0	595.0	600.0
230.0	38.51	749.5	 2814	 1734	115.9	13.17	12.26	10.53	9.343	6.431	7.103	6.850	6.030	5.560	4.452	4.159	3.338	3.120	2.702	2.299	2.261	2.123	2.140	1.921	1.752	1.653	1.596	1.481	1.389	1.398	1.442	1.280	1.145	1.150	1.144	1.172	1.001	1.021	0.902	0.942	0.789	0.930	0.995	0.913	0.761	0.713	1.670	6.117	10.88	8.586	3.748	1.087	0.711	0.652	0.588	0.581	0.584	0.601	0.558	0.629	0.475	0.559	0.528	0.542	0.547	0.524	0.442	0.507	0.493	0.461	0.484	0.481	0.488	0.539	0.563	0.447	0.428
235.0	75.22	201.5	 1187	 3214	 1091	166.0	12.62	11.65	8.934	7.337	8.088	6.601	6.069	4.475	4.858	3.653	3.661	2.980	2.610	2.228	2.157	2.061	1.741	2.105	1.838	1.650	1.651	1.830	1.202	1.511	1.638	1.087	1.265	1.131	1.109	0.871	1.236	0.977	0.934	0.877	0.981	0.991	1.037	0.914	1.066	0.911	0.996	2.079	3.956	7.413	10.72	11.13	5.358	1.544	0.627	0.789	0.630	0.738	0.453	0.494	0.501	0.558	0.435	0.440	0.484	0.658	0.499	0.570	0.445	0.412	0.471	0.497	0.423	0.492	0.523	0.508	0.484
240.0	83.22	124.3	307.9	 1755	 4082	936.0	87.72	14.02	13.17	9.339	8.346	8.530	6.879	5.358	4.838	3.738	4.700	3.295	3.368	2.637	2.546	1.855	1.750	1.807	1.607	1.707	1.365	1.566	1.359	1.327	1.461	1.063	0.962	1.135	0.972	0.876	1.135	1.103	1.123	0.866	0.769	0.830	0.858	0.936	1.017	1.097	1.200	0.980	1.598	2.339	5.323	12.19	14.81	10.44	3.642	0.941	0.634	0.685	0.468	0.485	0.528	0.522	0.441	0.479	0.453	0.489	0.565	0.563	0.486	0.374	0.467	0.457	0.488	0.455	0.576	0.493	0.657
245.0	64.14	121.7	134.3	476.0	 2748	 4484	768.6	41.22	14.77	10.24	9.642	7.473	9.110	5.860	4.713	4.130	3.504	3.203	3.631	3.006	2.341	2.054	2.172	1.835	2.391	1.726	1.604	1.440	1.501	1.243	1.489	1.287	1.310	1.117	0.802	1.086	0.971	0.740	0.802	0.984	1.002	0.889	0.734	1.033	0.825	1.136	1.251	1.191	1.016	1.037	1.640	4.109	9.855	16.55	16.07	8.379	2.472	0.688	0.588	0.595	0.551	0.432	0.550	0.616	0.534	0.457	0.470	0.597	0.483	0.456	0.420	0.498	0.481	0.546	0.442	0.483	0.648
250.0	51.02	71.36	158.7	215.0	732.8	 2606	 4511	 2601	222.3	15.81	10.00	10.35	8.707	7.552	6.148	4.376	3.970	3.134	2.917	2.946	2.464	2.316	2.165	2.199	2.010	1.846	1.563	1.526	1.432	1.396	1.649	1.223	1.201	1.226	0.984	0.919	1.009	0.927	0.958	0.868	0.956	0.874	0.765	0.970	0.758	0.806	0.999	1.140	1.341	1.140	1.130	1.442	2.851	5.341	9.635	14.00	16.59	14.13	8.382	2.625	0.828	0.569	0.601	0.630	0.655	0.505	0.525	0.616	0.514	0.574	0.447	0.601	0.499	0.547	0.554	0.762	0.605
255.0	44.94	29.02	85.84	235.4	298.8	616.9	 1883	 6162	 4017	290.2	15.33	11.49	9.872	7.134	5.616	4.784	4.295	3.618	2.719	2.922	2.723	2.529	2.078	2.140	1.510	2.010	1.714	1.607	1.452	1.667	1.394	1.633	1.277	1.078	0.925	0.996	0.975	1.035	0.957	0.981	1.001	0.893	0.958	1.094	0.974	0.833	0.919	0.939	0.942	1.040	1.511	1.664	1.480	1.733	2.709	3.709	6.144	13.48	23.76	24.19	12.08	3.499	0.900	0.439	0.556	0.486	0.529	0.607	0.601	0.613	0.436	0.555	0.531	0.299	0.467	0.573	0.514
260.0	46.17	28.76	37.41	157.6	325.3	237.1	471.3	 3022	 7956	 3376	173.1	13.50	11.30	7.720	7.059	5.909	5.186	3.991	3.162	3.275	2.529	2.339	2.199	2.321	1.703	1.793	1.570	1.985	1.556	1.846	1.400	1.401	1.519	1.114	1.134	1.292	0.899	1.102	0.985	0.961	0.873	0.875	0.841	1.278	0.926	0.830	0.902	0.947	0.750	0.810	1.099	1.904	2.254	1.529	1.119	1.615	2.070	3.934	10.40	23.04	32.98	26.34	10.01	1.492	0.502	0.511	0.599	0.480	0.574	0.427	0.449	0.556	0.498	0.486	0.406	0.501	0.515
265.0	67.32	33.73	24.43	62.74	273.9	346.9	161.3	778.3	 4581	 9226	 2616	76.12	14.41	8.185	7.151	6.779	4.856	4.774	3.289	3.551	2.997	2.380	2.151	2.226	2.052	1.978	1.813	2.014	1.676	1.747	1.537	1.462	1.502	1.044	1.027	1.179	1.028	1.064	0.900	0.958	0.696	1.003	0.855	0.989	1.016	0.827	0.869	0.786	0.749	0.713	0.802	1.315	1.863	2.348	1.862	1.226	1.279	1.391	2.980	7.322	17.05	33.13	38.47	23.90	5.627	0.811	0.473	0.459	0.649	0.515	0.666	0.523	0.449	0.510	0.642	0.485	0.618
270.0	115.7	65.83	44.80	41.76	100.2	316.2	373.7	285.6	 1192	 4544	 8698	 4944	179.9	15.76	11.09	7.530	6.003	4.909	3.744	3.432	3.227	2.654	2.521	2.554	2.217	2.149	1.994	2.007	1.789	1.571	1.652	1.609	1.241	1.169	1.135	1.026	1.111	1.132	1.002	1.104	0.818	1.048	0.939	0.911	1.161	1.065	1.107	0.890	0.791	0.851	0.712	0.867	0.948	1.478	1.983	2.253	2.328	1.631	1.452	2.337	4.597	9.922	18.65	29.31	37.03	33.53	18.92	5.145	1.050	0.622	0.567	0.563	0.563	0.621	0.512	0.566	0.662
275.0	194.0	115.1	82.21	48.47	51.02	113.6	400.5	564.6	414.7	 1144	 3111	9999.9	 7931	221.4	15.21	10.03	7.062	6.089	5.148	3.898	3.276	2.758	2.345	2.438	2.355	2.154	2.005	1.743	2.007	1.599	1.749	1.794	1.154	1.035	1.279	1.066	1.593	1.196	1.217	1.195	1.018	1.393	1.385	1.363	1.389	1.532	1.211	1.175	0.956	1.093	0.738	0.755	0.655	0.994	1.227	1.534	2.436	3.482	2.689	1.632	1.949	3.107	5.136	7.787	12.15	25.87	49.31	50.59	26.99	4.850	0.811	0.501	0.518	0.701	0.400	0.477	0.725
280.0	243.5	194.1	153.0	92.12	65.90	69.15	205.5	692.3	539.4	457.5	923.8	 4184	9999.9	 2489	130.2	12.78	7.771	7.054	5.020	4.422	4.141	3.476	2.425	2.453	2.372	2.129	2.179	1.935	1.972	1.921	1.721	1.668	1.270	1.446	1.439	1.329	1.892	1.293	1.541	1.350	1.441	1.437	1.630	1.574	1.456	1.753	1.274	1.442	1.197	1.237	1.036	0.883	0.751	1.076	0.881	0.968	1.394	2.493	4.068	3.989	2.399	1.973	2.292	2.864	4.016	7.386	18.27	42.59	65.04	44.94	14.87	1.773	0.667	0.750	0.453	0.559	0.692
285.0	288.1	257.9	218.1	137.9	80.48	73.23	129.1	426.2	917.1	495.8	488.6	 1233	 5432	9999.9	 1839	61.38	10.71	8.977	5.999	4.476	4.695	3.415	3.228	2.966	2.692	2.208	2.043	2.146	1.958	1.781	1.670	1.437	1.407	1.201	1.563	1.518	1.760	1.583	1.502	1.714	1.396	1.360	1.996	1.663	1.767	1.792	1.472	1.991	1.427	1.520	1.069	1.015	1.104	0.912	0.987	1.011	1.191	1.403	2.415	4.326	4.522	3.713	2.469	1.817	2.502	3.058	5.486	12.51	30.47	58.30	57.19	33.59	6.704	0.986	0.712	0.830	0.551
290.0	336.1	311.4	299.3	212.4	123.3	102.0	136.7	265.3	664.3	 1028	747.8	678.4	 1594	 4942	9999.9	 5994	107.9	13.52	7.415	6.337	5.206	4.077	3.687	3.416	2.878	2.638	2.410	2.032	1.890	1.820	1.646	1.575	1.858	1.538	1.607	1.657	2.099	1.578	1.747	1.670	1.562	1.610	1.939	1.763	2.083	2.033	1.997	2.117	1.669	1.499	1.386	1.198	1.063	0.972	1.138	1.202	1.092	1.328	1.730	2.365	3.280	4.645	4.843	4.436	3.591	2.656	3.300	4.655	8.476	16.30	27.34	43.46	47.88	46.30	23.45	5.900	0.926
295.0	383.6	355.4	355.2	268.2	174.5	144.0	168.7	257.7	441.1	813.0	 1426	899.8	815.1	 1392	 3018	9999.9	 8194	140.6	11.97	8.225	5.665	4.066	4.622	3.721	2.972	2.614	2.625	2.113	2.023	2.173	1.811	1.800	1.713	1.513	1.563	1.707	1.986	1.879	1.951	1.863	1.862	1.913	1.927	2.227	2.046	2.131	2.282	2.166	2.256	1.557	1.722	1.469	1.365	1.115	1.201	1.374	1.322	1.712	1.643	2.156	2.332	2.985	3.719	5.929	6.713	5.184	3.429	3.543	4.080	5.676	7.288	11.01	14.54	32.47	65.69	57.80	32.09
300.0	385.6	378.4	402.7	340.5	212.9	181.5	203.9	288.9	439.2	667.4	 1324	 1478	789.9	692.4	888.8	 3560	9999.9	 5846	94.08	11.05	7.778	5.711	5.036	4.265	3.265	2.674	2.319	2.754	2.147	2.155	1.783	2.128	1.828	1.485	1.587	1.679	2.444	2.070	2.053	2.001	1.658	2.170	2.190	2.221	1.843	1.899	2.456	2.534	2.185	1.697	1.739	1.703	1.602	1.351	1.356	1.551	1.629	1.601	1.721	2.079	2.370	2.628	3.132	4.020	6.124	7.902	6.175	4.236	3.623	3.670	3.587	3.998	4.660	8.617	22.54	54.52	86.23
305.0	364.8	376.7	433.8	351.4	240.2	223.9	261.1	338.3	469.6	669.7	 1020	 1708	 1231	621.8	456.0	974.9	 4691	9999.9	 1208	52.77	9.696	7.279	5.733	4.605	3.241	2.927	2.945	2.527	2.460	2.132	2.056	1.956	1.776	1.532	1.715	1.862	2.095	1.918	2.069	1.987	1.675	1.889	2.005	2.184	1.873	1.898	2.615	2.281	1.953	1.788	1.708	1.686	1.419	1.497	1.619	1.593	1.715	1.684	2.189	2.238	2.413	2.613	3.418	3.662	4.437	6.044	8.276	7.596	4.348	3.665	3.117	2.520	2.637	3.184	6.214	14.94	38.71
310.0	344.7	373.3	437.2	369.7	273.5	254.7	302.4	382.7	516.8	684.7	930.4	 1255	 1562	 1065	489.2	436.2	 1219	 4462	 8300	 4645	76.57	10.82	7.099	4.935	4.209	3.666	2.967	2.810	2.436	2.479	2.255	2.069	2.037	1.584	1.912	1.972	2.247	1.761	1.692	1.922	1.507	1.662	1.875	1.778	2.110	2.063	2.390	2.073	2.131	1.937	1.642	1.816	1.585	1.438	1.622	1.628	1.918	1.947	2.239	2.416	2.805	2.861	3.332	3.617	4.366	4.661	5.364	6.739	7.340	6.387	4.357	3.106	2.661	2.494	2.766	4.802	10.10
315.0	368.7	408.7	454.2	383.4	301.3	281.3	325.2	430.9	569.4	727.8	938.5	 1098	 1216	 1465	876.4	408.1	457.3	 1125	 2471	 9115	 6646	102.3	9.180	6.365	5.481	4.489	3.172	2.804	3.248	2.845	2.325	2.089	2.000	1.725	1.802	1.973	2.077	1.834	2.072	1.713	1.575	1.657	1.874	1.996	2.205	2.307	2.438	2.417	2.028	1.946	1.678	1.721	1.694	1.803	1.765	1.725	1.627	2.179	2.477	2.293	2.604	3.001	3.569	3.994	4.487	4.510	4.390	5.182	5.705	5.965	7.292	5.825	4.104	2.463	2.189	3.003	3.634
320.0	405.9	484.5	571.4	476.4	325.3	310.4	359.4	457.9	610.7	776.5	983.7	 1098	 1138	 1260	 1316	584.6	347.4	415.9	667.7	 3266	9999.9	 4973	72.11	9.392	6.342	5.205	4.171	3.431	2.902	3.068	2.597	2.327	2.299	1.827	1.753	1.713	2.073	2.105	2.125	1.723	1.545	1.790	1.945	2.249	2.352	2.471	2.701	3.059	2.340	2.192	2.225	1.657	1.874	1.712	1.984	1.992	1.922	2.092	2.474	2.522	2.613	3.242	3.531	4.095	4.602	4.598	4.819	4.911	4.708	5.070	5.726	6.669	6.672	4.231	2.892	2.756	2.225
325.0	447.4	523.8	700.4	597.5	419.2	345.5	409.5	491.7	640.6	793.8	 1033	 1152	 1186	 1139	 1280	992.2	416.8	302.6	289.6	847.5	 4674	9999.9	905.0	41.82	8.190	5.631	4.753	4.480	3.455	3.318	2.544	2.439	2.492	1.774	1.961	1.790	1.977	2.209	1.908	1.780	1.949	1.886	2.062	2.233	2.263	2.570	2.821	3.285	3.291	2.661	2.351	2.385	1.784	1.926	1.835	2.074	2.088	2.318	2.454	2.527	3.074	3.328	3.873	4.093	4.971	5.207	4.957	5.150	5.232	5.047	4.865	5.752	6.526	6.432	4.115	3.455	2.872
330.0	481.5	568.1	815.3	752.0	504.4	395.0	427.8	523.5	655.9	816.6	 1046	 1181	 1232	 1139	 1046	 1061	781.1	370.9	253.4	322.1	 1176	 4382	 7875	 3620	59.78	8.847	5.742	4.504	3.762	3.660	3.075	2.668	2.287	2.062	1.841	1.956	1.918	2.051	1.812	1.556	2.048	1.802	2.081	2.029	2.468	2.910	3.116	3.366	3.733	3.293	2.812	2.781	2.163	2.094	2.140	1.946	2.066	2.491	2.711	2.804	3.388	3.362	3.828	4.134	4.763	4.713	4.861	5.082	5.376	5.086	5.004	4.706	4.941	5.401	5.952	5.774	4.625
335.0	462.7	625.7	910.7	813.4	612.7	463.4	476.3	548.7	686.8	829.8	 1051	 1199	 1232	 1170	989.4	832.1	904.0	693.3	310.8	245.5	394.7	 1074	 2439	 8513	 5410	80.59	9.121	5.810	4.714	4.130	3.071	2.689	2.531	2.266	1.929	2.288	2.085	1.808	1.806	1.741	1.863	2.049	1.891	2.357	2.359	3.052	3.239	3.789	4.024	3.433	3.016	2.858	2.862	2.273	2.541	2.404	2.145	2.443	2.530	2.768	3.762	3.422	4.475	3.875	4.314	5.158	5.363	4.871	5.615	5.375	5.337	4.932	5.231	4.326	4.663	4.841	5.972
340.0	420.4	607.5	925.3	879.7	659.7	527.1	516.8	562.0	711.9	847.4	 1039	 1193	 1237	 1182	 1000	787.5	747.9	861.4	485.6	266.5	246.6	354.8	641.8	 3336	9999.9	 4051	57.29	7.969	6.002	4.498	3.800	2.886	3.045	2.404	1.961	2.343	2.228	1.858	1.551	1.784	1.645	1.955	1.791	2.262	2.146	3.106	2.869	3.997	4.059	3.616	3.192	2.960	2.950	2.622	2.551	2.758	2.462	2.501	2.919	3.099	3.927	3.816	4.209	4.013	4.380	4.948	5.339	5.013	5.493	5.573	5.489	5.184	5.062	4.146	4.300	4.125	4.769
345.0	362.8	587.1	902.4	923.9	734.6	588.9	577.1	618.0	722.2	872.9	 1029	 1158	 1210	 1160	990.7	788.4	664.2	730.6	722.5	352.7	242.1	225.9	255.5	853.9	 4910	9999.9	739.8	34.25	7.186	5.706	4.149	2.950	3.074	2.413	2.296	2.451	2.248	1.598	2.015	1.950	1.764	1.829	1.973	2.234	2.358	2.906	3.062	3.860	4.014	3.604	3.085	3.402	3.068	2.891	2.573	2.758	2.914	2.747	2.952	3.056	3.535	3.303	3.692	4.601	4.388	5.087	5.313	5.194	5.031	5.063	5.274	5.024	4.870	4.624	4.235	4.528	4.142
350.0	377.8	520.3	818.9	902.1	761.1	672.6	642.4	680.0	779.8	896.3	 1022	 1132	 1166	 1143	991.5	812.8	667.2	594.9	675.5	611.5	346.0	246.6	211.3	303.4	 1230	 4553	 7320	 3064	50.86	7.890	5.229	4.181	3.261	2.939	2.332	2.334	2.132	1.910	2.023	1.966	1.761	1.802	1.905	2.300	2.151	2.895	2.974	3.381	3.664	3.414	3.139	3.281	3.386	3.119	2.892	2.887	3.148	2.981	3.061	3.307	3.919	3.475	3.839	4.514	4.599	5.246	4.779	5.129	5.030	4.952	4.870	5.120	4.763	4.946	4.406	4.295	4.348
355.0	371.8	507.5	756.9	857.1	804.2	749.5	729.9	787.1	869.3	965.6	 1051	 1123	 1141	 1135	 1007	849.4	704.4	602.0	564.0	634.0	603.0	336.6	244.8	225.4	392.5	 1104	 2485	 8152	 4567	70.32	8.479	5.562	3.784	3.360	2.735	2.505	2.320	2.024	2.043	1.710	1.956	1.827	1.921	2.243	2.260	2.744	3.110	3.399	3.236	3.372	3.080	3.429	3.357	3.777	3.115	3.383	3.332	3.555	3.562	3.740	3.644	4.116	4.371	4.287	4.596	4.465	4.803	4.790	5.289	4.869	5.124	4.771	5.048	4.799	4.766	4.358	4.072
360.0	353.0	456.9	729.5	814.4	826.5	798.7	799.8	832.3	928.5	 1005	 1087	 1123	 1142	 1109	995.6	849.3	727.4	639.3	556.5	561.3	688.8	503.9	296.1	243.5	237.0	353.7	644.3	 3524	 9351	 3476	45.59	6.502	5.002	3.619	2.730	3.003	2.361	2.024	1.769	1.956	1.537	1.801	1.795	1.970	2.250	2.668	2.562	3.290	3.256	3.068	3.203	3.260	3.308	3.568	3.322	3.317	3.561	3.638	3.231	4.127	3.943	4.485	4.381	4.439	4.381	4.293	4.653	4.845	5.226	5.222	5.103	4.974	5.092	5.040	4.708	4.690	4.098
365.0	312.3	441.8	677.5	813.5	828.6	853.7	839.3	871.0	967.7	 1039	 1094	 1125	 1123	 1094	 1008	870.7	761.4	662.8	583.7	541.8	606.4	669.9	401.5	283.3	230.5	214.8	238.8	898.3	 5105	 9582	647.0	24.61	6.183	4.497	3.382	2.926	2.321	2.553	1.972	1.855	1.696	1.822	2.288	2.136	1.984	2.309	2.765	2.798	2.977	3.119	2.906	3.172	3.361	3.680	3.232	3.265	3.833	3.479	3.892	4.103	4.060	4.604	4.720	4.516	4.792	4.578	4.852	4.887	5.290	5.049	5.281	5.163	4.820	5.071	4.728	4.537	4.170
370.0	282.7	418.9	622.4	769.6	822.0	874.8	885.6	925.6	 1019	 1070	 1123	 1139	 1112	 1097	994.2	871.8	790.9	697.0	624.7	575.2	558.5	623.4	615.1	403.1	286.5	230.1	186.9	296.7	 1283	 4805	 6015	 2639	40.82	6.097	4.315	3.405	2.805	2.459	2.362	2.156	1.774	1.962	2.008	2.150	2.087	2.248	2.545	2.900	2.796	2.873	2.953	3.184	3.237	3.622	3.471	3.557	3.742	4.030	4.356	4.033	4.216	4.902	4.699	4.796	5.082	4.901	4.794	5.162	5.106	4.767	4.956	4.728	4.821	4.988	4.880	4.717	4.624
375.0	274.0	401.6	607.0	763.6	853.7	932.4	936.1	973.0	 1062	 1107	 1132	 1169	 1122	 1076	982.2	890.9	805.6	732.1	672.6	632.0	581.1	566.3	624.9	624.1	402.0	297.2	229.8	206.5	381.4	 1141	 2419	 7996	 3754	52.01	6.236	4.535	3.646	2.774	2.111	2.003	1.876	2.026	2.015	2.127	2.109	2.196	2.596	2.772	2.922	2.694	2.999	3.485	3.625	3.974	3.887	3.626	4.501	4.180	4.489	4.103	4.493	4.497	4.948	5.052	4.973	4.934	4.651	5.043	5.080	4.616	4.889	5.222	5.374	4.548	4.725	4.992	4.819
380.0	289.3	388.3	567.4	739.2	857.0	924.3	950.3	974.2	 1044	 1104	 1153	 1143	 1126	 1072	957.5	877.1	810.1	757.8	708.7	660.3	618.1	585.8	582.1	671.8	555.2	372.7	280.9	216.3	204.6	338.8	619.5	 3766	 8633	 2546	32.51	6.111	4.179	3.549	2.427	2.261	1.972	2.284	2.065	2.396	2.236	2.492	2.283	2.860	2.831	2.568	2.728	3.671	3.767	3.645	3.693	3.614	4.126	4.103	4.183	4.295	4.779	4.558	4.905	5.001	4.763	4.756	4.654	5.121	4.879	4.299	5.354	4.803	4.985	5.297	4.738	5.133	5.117
385.0	283.9	397.0	545.4	729.2	852.3	912.3	959.5	988.3	 1012	 1092	 1117	 1129	 1126	 1045	926.5	881.0	814.9	764.3	714.6	670.3	643.8	608.4	571.2	610.2	662.9	473.5	324.5	252.5	197.5	183.4	212.3	962.0	 5136	 7605	499.4	14.46	4.990	4.057	2.820	2.421	2.092	2.293	2.005	2.454	2.458	2.182	2.203	2.702	2.664	2.689	2.902	3.352	3.687	3.785	3.555	3.638	4.040	4.046	3.895	4.363	4.358	4.635	4.608	4.928	5.198	5.008	4.905	4.987	5.243	4.749	4.904	4.624	4.624	4.664	4.963	4.595	5.011
390.0	281.9	368.8	532.2	675.4	810.4	940.6	931.3	984.7	 1041	 1056	 1104	 1107	 1073	 1016	927.8	861.5	809.5	758.9	735.2	702.3	675.1	632.3	604.9	586.2	615.6	611.3	431.9	303.5	229.8	180.7	149.5	287.0	 1301	 4146	 4953	 1840	31.88	5.911	3.656	3.168	2.540	2.300	2.183	2.085	2.153	2.293	2.379	2.518	2.492	2.670	2.835	3.221	3.484	3.692	3.873	3.864	4.113	4.316	4.034	4.558	4.681	4.882	4.527	4.602	4.582	4.721	4.794	4.824	5.007	4.938	4.677	4.863	4.650	4.810	4.720	4.857	4.709
395.0	269.8	350.1	517.6	635.0	782.0	875.8	928.3	972.1	 1008	 1048	 1053	 1076	 1050	 1000	921.1	851.1	814.6	749.8	736.3	708.7	696.3	657.4	632.9	602.5	574.0	592.3	581.4	389.9	276.1	222.9	171.8	163.5	358.9	976.6	 2123	 6444	 2859	40.77	5.987	4.110	3.146	2.696	2.381	2.231	2.166	2.274	2.486	2.611	2.561	2.878	2.484	3.118	3.355	3.687	3.549	4.105	4.319	4.354	4.261	4.139	4.658	4.907	4.376	4.527	4.789	4.732	4.845	4.887	4.788	4.954	4.624	4.971	4.734	4.371	4.637	5.493	4.919
400.0	263.8	351.6	483.9	670.8	766.5	867.2	911.2	957.3	 1017	 1019	 1030	 1059	 1030	975.7	889.9	827.4	803.6	754.1	739.0	709.7	700.7	675.5	644.9	613.4	582.8	562.2	595.6	509.2	333.9	251.7	195.9	156.7	166.1	275.2	536.5	 3236	 6645	495.4	24.16	5.036	3.543	2.563	2.515	2.454	2.204	2.255	2.575	2.656	2.536	2.649	2.590	3.283	3.444	3.380	3.613	3.646	4.104	4.290	4.050	3.970	4.564	4.465	4.447	4.230	4.362	4.251	4.491	4.649	5.191	4.618	4.603	4.820	4.481	4.385	4.760	5.003	4.748
405.0	250.7	328.6	498.3	638.4	742.5	819.0	906.9	951.3	980.0	991.8	 1027	 1020	995.6	947.2	873.8	826.3	787.8	742.8	740.1	709.4	694.1	682.1	650.2	626.6	595.5	555.0	549.2	575.2	417.0	288.7	228.0	174.1	141.0	131.4	172.9	833.6	 4171	 5516	409.0	11.40	4.590	2.918	2.475	2.706	2.348	2.621	2.392	2.350	2.744	2.633	2.465	3.274	3.237	3.506	3.394	3.802	4.475	4.113	3.580	3.911	4.193	3.858	3.946	4.242	3.823	4.160	4.613	4.516	4.728	4.705	4.660	4.289	4.320	4.597	4.275	4.776	4.881
410.0	237.2	315.6	461.2	607.8	724.5	805.5	870.7	921.0	938.4	967.3	994.2	991.4	954.0	921.7	849.6	802.8	762.6	732.6	713.5	701.1	684.1	669.0	647.9	627.9	599.6	562.6	527.5	524.4	514.9	376.4	271.3	208.0	160.3	123.7	107.5	235.9	 1066	 3264	 4074	 1533	26.77	4.520	3.417	2.754	2.565	2.385	2.329	2.500	2.517	2.419	2.455	3.124	3.116	3.609	3.387	3.583	3.563	3.937	3.845	4.133	4.309	4.042	4.009	4.255	4.091	4.149	3.939	4.387	4.329	4.461	4.366	4.215	4.430	4.256	4.126	4.868	4.399
