Sample:	'1
File name:	G2025051414晋控明水循环水4.FD3
Run date:	'14:22:04, 05/21/2025
Operator:	Administrator
Comment:	'

Instrument
Model:	F-2700 FL Spectrophotometer
Serial number:	23B8-004
ROM Version:	4J14000 07

Instrument parameters
Measurement type:	3-D scan
Data mode:	Fluorescence
EX  Start WL:	220.0 nm
EX  End WL:	600.0 nm
EX Sampling interval:	5.0 nm
EM  Start WL:	230.0 nm
EM  End WL:	650.0 nm
EM Sampling interval:	5.0 nm
Scan speed:	12000 nm/min
EX Slit:	5.0 nm
EM Slit:	5.0 nm
PMT Voltage:	700 V
Response:	Auto 
Corrected spectra:	Off
Contour interval:	50.000

Peak integration
Integration method:	Rectangular
Sensitivity:	1
Threshold:	1.000

Peaks
No.	ApexEX/EM(nm)	Height(Data)
1	225.0/560.0	23.79
2	240.0/265.0	303.8
3	240.0/525.0	158.1
4	245.0/270.0	354.8
5	245.0/385.0	1881
6	245.0/400.0	1555
7	245.0/535.0	160.0
8	250.0/275.0	480.3
9	250.0/550.0	138.7
10	255.0/280.0	519.6
11	255.0/565.0	118.6
12	260.0/290.0	492.8
13	260.0/575.0	100.2
14	265.0/295.0	590.1
15	265.0/585.0	85.66
16	270.0/300.0	763.6
17	270.0/600.0	74.72
18	275.0/305.0	697.0
19	275.0/610.0	59.44
20	280.0/315.0	636.6
21	280.0/385.0	3317
22	280.0/400.0	2628
23	280.0/625.0	50.72
24	285.0/320.0	685.8
25	285.0/640.0	38.87
26	290.0/325.0	598.1
27	300.0/335.0	423.3
28	305.0/345.0	392.4
29	310.0/350.0	331.3
30	315.0/355.0	330.8
31	320.0/365.0	336.8
32	355.0/385.0	1752
33	355.0/405.0	1511
34	370.0/405.0	1636
35	445.0/525.0	14.59
36	455.0/540.0	8.998
37	470.0/560.0	4.234
38	490.0/385.0	8.103
39	505.0/275.0	2.921
40	510.0/280.0	3.354
41	515.0/285.0	3.312
42	525.0/290.0	3.055
43	540.0/295.0	4.014
44	545.0/300.0	4.298
45	545.0/385.0	10.26
46	550.0/305.0	4.371
47	560.0/310.0	3.856
48	570.0/315.0	4.503
49	570.0/385.0	18.18
50	580.0/320.0	4.083
51	585.0/325.0	3.935

Data points
	220.0	225.0	230.0	235.0	240.0	245.0	250.0	255.0	260.0	265.0	270.0	275.0	280.0	285.0	290.0	295.0	300.0	305.0	310.0	315.0	320.0	325.0	330.0	335.0	340.0	345.0	350.0	355.0	360.0	365.0	370.0	375.0	380.0	385.0	390.0	395.0	400.0	405.0	410.0	415.0	420.0	425.0	430.0	435.0	440.0	445.0	450.0	455.0	460.0	465.0	470.0	475.0	480.0	485.0	490.0	495.0	500.0	505.0	510.0	515.0	520.0	525.0	530.0	535.0	540.0	545.0	550.0	555.0	560.0	565.0	570.0	575.0	580.0	585.0	590.0	595.0	600.0
230.0	22.60	81.37	205.8	105.1	15.04	6.271	5.153	4.241	4.020	3.685	3.605	3.017	2.911	2.428	2.007	1.691	1.528	1.486	1.323	1.239	1.068	1.095	1.095	1.064	1.031	0.939	0.911	0.918	0.841	0.881	0.843	0.825	0.703	0.570	0.557	0.474	0.499	0.460	0.470	0.432	0.431	0.419	0.375	0.390	0.354	0.380	0.392	0.570	0.740	0.777	0.579	0.384	0.317	0.295	0.301	0.285	0.290	0.274	0.269	0.315	0.283	0.314	0.309	0.293	0.282	0.267	0.248	0.283	0.280	0.300	0.313	0.251	0.290	0.276	0.319	0.273	0.320
235.0	25.23	32.74	169.5	558.4	385.0	38.83	6.416	5.385	4.231	4.194	3.951	2.870	3.018	2.473	1.940	1.951	1.667	1.731	1.321	1.121	1.146	1.018	1.171	1.082	1.040	0.823	1.077	0.923	0.820	0.924	0.882	0.823	0.607	0.682	0.557	0.473	0.535	0.445	0.494	0.407	0.358	0.402	0.440	0.338	0.330	0.383	0.340	0.363	0.440	0.749	1.736	2.941	2.075	0.769	0.373	0.311	0.319	0.315	0.250	0.324	0.283	0.363	0.346	0.249	0.287	0.254	0.372	0.273	0.245	0.355	0.278	0.275	0.259	0.229	0.327	0.297	0.274
240.0	25.28	20.65	64.64	595.8	1491	411.3	29.74	6.312	5.854	4.438	3.506	3.762	3.571	2.603	2.118	1.930	1.593	1.477	1.440	1.493	1.259	1.291	1.178	1.202	1.234	0.917	0.940	1.015	0.802	0.782	0.810	0.827	0.712	0.712	0.515	0.476	0.480	0.544	0.493	0.425	0.399	0.409	0.440	0.355	0.333	0.306	0.292	0.363	0.411	0.468	1.111	3.603	6.173	6.078	2.948	0.684	0.315	0.384	0.309	0.370	0.283	0.370	0.319	0.235	0.356	0.309	0.319	0.268	0.283	0.332	0.274	0.329	0.291	0.261	0.228	0.278	0.263
245.0	27.09	35.79	41.64	236.6	1749	2308	332.2	15.53	6.349	5.293	4.015	3.832	3.461	2.759	2.241	1.971	1.679	1.538	1.568	1.456	1.294	1.187	1.206	1.099	1.247	1.204	1.061	1.018	0.852	1.017	0.950	0.858	0.694	0.671	0.582	0.505	0.538	0.452	0.403	0.509	0.428	0.395	0.402	0.350	0.346	0.428	0.347	0.379	0.354	0.356	0.520	1.401	4.393	10.24	12.27	7.797	2.640	0.511	0.295	0.312	0.302	0.328	0.327	0.279	0.404	0.286	0.351	0.265	0.284	0.302	0.314	0.357	0.280	0.284	0.303	0.254	0.366
250.0	27.17	39.62	69.46	101.6	575.3	2302	3357	1191	72.93	7.167	5.600	4.544	3.684	2.840	2.452	2.055	1.956	1.475	1.633	1.331	1.352	1.122	1.103	1.194	1.192	1.097	1.097	1.045	1.018	1.062	0.935	0.872	0.739	0.615	0.511	0.503	0.531	0.416	0.412	0.505	0.490	0.446	0.436	0.413	0.399	0.396	0.378	0.376	0.468	0.460	0.481	0.601	1.334	3.501	7.185	12.31	16.80	16.08	8.806	2.615	0.489	0.340	0.321	0.343	0.363	0.339	0.295	0.275	0.293	0.289	0.292	0.310	0.337	0.266	0.309	0.261	0.312
255.0	25.01	29.55	59.64	167.0	195.4	593.0	2655	5514	1615	65.03	8.099	5.767	5.036	3.848	2.905	2.679	2.190	1.688	1.720	1.670	1.373	1.145	1.421	1.215	1.213	1.213	1.070	1.063	1.087	1.074	1.005	0.941	0.809	0.618	0.552	0.529	0.550	0.464	0.480	0.460	0.476	0.492	0.448	0.512	0.378	0.404	0.391	0.356	0.444	0.531	0.748	0.937	0.756	1.166	1.868	3.162	6.138	15.61	28.13	27.18	13.66	2.602	0.432	0.342	0.369	0.394	0.307	0.301	0.327	0.329	0.273	0.294	0.329	0.242	0.304	0.353	0.256
260.0	30.62	23.71	34.59	167.9	240.0	177.7	810.9	4640	6091	275.7	27.90	8.150	5.896	4.448	3.305	2.772	2.283	1.689	1.930	1.739	1.455	1.210	1.256	1.214	1.243	1.300	1.026	1.273	1.085	0.990	1.007	1.074	0.701	0.670	0.588	0.580	0.527	0.543	0.440	0.463	0.526	0.515	0.471	0.507	0.488	0.437	0.472	0.344	0.345	0.371	0.645	1.244	1.194	0.940	0.817	1.065	1.703	4.441	12.49	26.71	37.57	24.92	10.23	1.508	0.364	0.380	0.379	0.366	0.389	0.323	0.278	0.351	0.317	0.267	0.289	0.349	0.289
265.0	34.36	22.24	23.51	94.76	303.8	207.1	220.9	1589	6739	5810	213.5	13.03	7.447	5.105	3.973	2.844	2.654	2.211	1.870	1.901	1.551	1.533	1.400	1.226	1.221	1.209	1.087	1.208	0.933	0.943	0.981	0.927	0.773	0.664	0.624	0.548	0.535	0.509	0.484	0.519	0.427	0.485	0.520	0.492	0.486	0.498	0.396	0.395	0.353	0.349	0.440	0.674	1.206	1.738	1.233	0.786	0.678	1.424	3.291	7.854	20.47	37.59	33.51	21.93	5.436	0.734	0.341	0.380	0.359	0.394	0.310	0.353	0.242	0.281	0.284	0.312	0.293
270.0	39.80	26.90	23.90	39.59	153.9	354.8	259.2	405.3	2219	6545	7322	809.5	46.00	7.711	5.419	3.904	3.349	2.743	2.073	1.997	1.691	1.588	1.515	1.500	1.262	1.328	1.187	1.339	1.110	1.103	1.113	1.007	0.828	0.713	0.671	0.594	0.599	0.600	0.513	0.490	0.445	0.504	0.519	0.493	0.470	0.485	0.436	0.417	0.424	0.342	0.333	0.428	0.646	1.109	1.638	1.904	1.721	1.060	1.150	2.173	5.073	11.26	20.03	34.11	34.71	34.61	14.60	4.841	0.704	0.385	0.341	0.366	0.304	0.291	0.345	0.355	0.385
275.0	38.35	36.27	28.44	27.66	56.43	178.8	480.3	303.7	538.1	1674	6477	9999.9	1074	33.70	8.246	5.942	4.211	3.622	2.355	2.404	2.019	1.608	1.831	1.715	1.634	1.388	1.279	1.243	1.134	1.160	1.174	1.199	0.965	0.835	0.617	0.660	0.550	0.567	0.514	0.498	0.569	0.425	0.510	0.432	0.452	0.489	0.489	0.378	0.374	0.369	0.341	0.368	0.446	0.545	0.702	1.216	2.217	2.921	1.924	1.134	1.529	2.865	4.946	8.256	11.32	28.09	53.34	33.64	22.60	4.813	0.629	0.337	0.340	0.387	0.348	0.377	0.408
280.0	43.08	38.16	30.32	30.02	37.18	72.68	325.0	519.6	234.1	426.6	1978	9876	8893	147.9	17.17	7.587	5.258	4.426	2.767	2.977	2.368	1.886	1.829	1.547	1.555	1.329	1.352	1.286	1.200	1.188	1.279	1.233	0.941	0.958	0.784	0.669	0.727	0.609	0.489	0.574	0.603	0.515	0.558	0.453	0.507	0.527	0.424	0.436	0.392	0.402	0.330	0.389	0.467	0.492	0.481	0.621	1.156	2.281	3.354	2.891	1.197	1.096	1.562	2.273	3.105	7.349	20.04	40.84	62.04	32.34	16.78	2.214	0.435	0.402	0.414	0.363	0.390
285.0	49.21	42.74	39.19	36.69	35.87	47.16	133.6	507.9	339.6	169.4	512.2	3341	9999.9	6604	108.0	10.98	6.103	4.649	3.382	3.354	2.564	2.068	2.032	1.546	1.621	1.537	1.583	1.519	1.273	1.177	1.253	1.250	1.014	0.830	0.720	0.743	0.661	0.644	0.566	0.683	0.579	0.579	0.475	0.516	0.525	0.519	0.434	0.462	0.417	0.366	0.349	0.478	0.430	0.461	0.429	0.456	0.729	1.031	2.001	3.312	3.182	1.649	1.014	1.072	1.194	2.096	5.052	11.12	28.07	51.70	67.30	28.30	10.50	1.043	0.533	0.429	0.454
290.0	47.10	41.86	45.21	46.67	46.57	48.82	72.80	216.1	492.8	412.1	234.2	840.4	3403	9056	7914	429.5	24.08	6.736	4.935	3.974	3.087	2.421	2.245	1.924	1.953	1.734	1.686	1.448	1.385	1.300	1.395	1.310	0.983	0.893	0.816	0.770	0.677	0.604	0.582	0.622	0.595	0.519	0.549	0.526	0.531	0.478	0.445	0.533	0.443	0.440	0.436	0.482	0.530	0.547	0.497	0.550	0.676	0.731	0.965	1.451	2.244	3.055	2.952	2.162	1.292	1.176	1.724	3.228	7.036	14.00	27.53	39.59	51.76	44.55	18.86	8.595	1.215
295.0	49.34	41.08	52.86	59.68	58.64	63.71	68.95	112.1	221.1	590.1	488.1	315.5	854.3	2278	7354	9999.9	592.5	19.93	7.869	5.347	4.395	3.220	2.725	2.291	1.987	1.892	1.901	1.900	1.482	1.340	1.526	1.309	1.067	0.913	0.905	0.727	0.774	0.639	0.602	0.617	0.586	0.496	0.549	0.495	0.476	0.554	0.448	0.488	0.474	0.472	0.470	0.523	0.520	0.527	0.539	0.543	0.714	0.623	0.704	0.817	1.196	1.357	2.103	3.703	4.014	2.189	1.298	1.501	2.289	3.884	6.883	9.565	13.71	24.94	52.57	70.95	30.25
300.0	50.06	42.85	57.85	64.84	68.30	75.37	87.74	110.9	149.4	377.8	763.6	264.8	316.4	598.6	2157	9999.9	5721	86.00	13.00	7.132	4.683	4.025	3.252	2.653	2.151	2.089	2.036	1.860	1.536	1.581	1.428	1.419	1.114	1.035	1.038	0.642	0.857	0.746	0.572	0.628	0.551	0.573	0.582	0.555	0.526	0.523	0.469	0.458	0.471	0.450	0.533	0.534	0.541	0.663	0.505	0.726	0.668	0.786	0.838	0.820	0.872	0.971	1.245	2.194	3.713	4.298	2.936	1.760	1.493	1.688	2.303	2.891	3.779	6.384	16.30	41.47	67.56
305.0	58.90	48.41	58.10	71.19	82.49	102.5	116.2	136.9	170.7	266.2	626.4	697.0	289.8	256.3	574.6	3356	9999.9	4604	66.39	9.670	6.140	4.670	4.004	3.288	2.448	2.432	2.468	1.961	1.755	1.502	1.440	1.503	1.219	1.010	0.981	0.816	0.765	0.715	0.708	0.655	0.586	0.620	0.635	0.615	0.576	0.586	0.458	0.459	0.466	0.422	0.521	0.651	0.618	0.709	0.695	0.767	0.828	0.936	1.046	1.017	1.018	1.005	1.185	1.509	2.063	3.352	4.371	3.691	2.239	1.637	1.588	1.482	1.615	2.156	4.319	10.59	24.68
310.0	58.51	54.30	61.70	84.09	94.81	115.7	138.2	167.8	204.8	256.4	396.3	666.6	633.5	292.1	253.2	841.6	3381	8166	7159	301.9	18.72	6.679	5.282	3.914	3.354	2.640	2.463	2.336	1.876	1.594	1.679	1.730	1.196	1.114	0.874	0.948	0.815	0.732	0.857	0.673	0.656	0.629	0.567	0.587	0.558	0.562	0.430	0.524	0.459	0.479	0.495	0.682	0.718	0.751	0.817	0.736	0.908	0.998	1.060	1.131	1.171	1.316	1.378	1.491	1.685	2.064	2.602	3.459	3.856	3.567	2.630	1.760	1.370	1.463	1.821	3.171	6.263
315.0	59.50	52.83	71.86	89.90	106.8	123.9	151.5	186.0	225.4	271.3	338.4	427.5	636.6	601.5	240.5	291.7	834.8	2036	6917	9977	462.2	17.05	6.967	5.307	3.724	3.273	2.630	2.778	2.295	1.853	1.887	1.819	1.406	1.249	1.011	0.873	0.904	0.870	0.877	0.654	0.611	0.743	0.551	0.539	0.611	0.566	0.548	0.534	0.477	0.547	0.591	0.713	0.845	0.702	0.872	0.743	0.937	0.960	1.160	1.229	1.305	1.316	1.487	1.699	1.648	1.815	1.984	2.299	2.593	3.204	4.503	3.804	2.374	1.621	1.374	1.658	2.155
320.0	57.87	58.10	73.23	98.16	120.2	140.0	168.6	196.5	244.3	286.5	337.4	376.1	455.5	685.8	416.9	192.7	279.9	518.8	2001	9386	8411	66.05	11.29	6.638	4.668	3.905	3.323	2.760	2.327	2.058	2.006	1.907	1.524	1.227	1.087	0.917	1.011	0.895	0.853	0.662	0.682	0.811	0.616	0.608	0.583	0.577	0.619	0.503	0.593	0.570	0.549	0.654	0.809	0.834	0.900	0.977	1.172	1.123	1.138	1.265	1.280	1.444	1.571	1.847	1.810	1.928	1.908	1.994	1.979	2.279	2.907	3.906	4.083	2.790	1.828	1.360	1.530
325.0	72.98	62.95	88.05	116.0	133.0	147.9	182.7	213.0	256.8	303.1	346.6	372.6	388.8	503.9	598.1	256.4	164.5	188.0	496.0	3084	9999.9	3780	54.59	9.532	6.251	4.513	3.816	2.957	2.484	2.077	2.204	1.914	1.493	1.385	1.242	0.998	1.028	0.924	0.798	0.767	0.737	0.783	0.620	0.635	0.565	0.659	0.618	0.591	0.673	0.629	0.666	0.770	0.815	0.895	1.064	1.085	1.109	1.236	1.113	1.308	1.439	1.449	1.618	1.755	1.825	2.013	1.931	1.924	2.012	2.085	2.114	2.599	3.346	3.935	3.224	1.930	1.450
330.0	78.06	72.17	108.3	148.4	170.0	178.7	196.7	229.4	260.0	312.2	359.7	380.4	372.6	374.0	457.0	449.7	230.6	129.6	168.9	736.9	3247	7434	6645	1166	18.08	6.632	4.908	4.035	3.182	2.436	2.414	2.044	1.701	1.484	1.229	1.026	1.076	0.944	0.926	0.819	0.757	0.774	0.625	0.604	0.680	0.637	0.611	0.632	0.655	0.638	0.809	0.891	0.989	0.992	1.084	1.205	1.160	1.286	1.308	1.435	1.405	1.501	1.609	1.751	1.961	1.927	1.950	1.895	2.158	2.067	2.083	2.220	2.287	2.471	3.141	3.147	2.717
335.0	82.06	74.32	123.5	188.4	215.1	217.4	223.9	245.7	275.3	324.7	369.2	384.9	387.1	354.9	332.3	375.1	423.3	187.6	111.0	219.7	765.0	1846	6457	9717	405.8	16.89	6.770	5.101	3.944	3.325	2.840	2.728	1.926	1.896	1.496	1.207	1.041	0.938	0.947	0.855	0.897	0.796	0.740	0.618	0.700	0.584	0.602	0.547	0.667	0.649	0.825	1.042	1.115	1.102	1.251	1.256	1.330	1.439	1.383	1.523	1.439	1.627	1.571	1.788	1.944	1.960	2.004	1.975	2.172	2.179	2.030	2.200	1.971	2.026	2.056	2.367	2.774
340.0	83.30	84.89	141.0	203.0	257.0	248.8	251.2	269.1	294.3	329.6	375.7	394.6	390.0	356.0	308.9	288.5	406.8	327.1	129.7	116.5	222.2	451.4	1871	8825	8004	322.7	10.87	6.365	4.738	3.580	2.937	2.601	2.039	1.793	1.593	1.246	1.147	1.011	0.940	0.782	0.864	0.870	0.843	0.658	0.596	0.685	0.668	0.665	0.718	0.793	0.911	1.150	1.177	1.246	1.340	1.396	1.472	1.471	1.538	1.652	1.670	1.671	1.668	1.776	1.831	1.965	2.019	2.268	2.217	2.063	2.188	2.066	2.041	1.969	1.926	1.886	2.113
345.0	87.13	89.41	145.8	221.2	272.6	281.0	287.5	287.6	303.9	346.1	376.8	399.5	389.0	360.7	313.1	268.3	298.6	392.4	226.6	111.4	112.0	150.3	458.1	2858	9779	3357	49.60	8.765	5.674	4.223	3.369	2.943	2.312	1.771	1.513	1.406	1.175	1.074	1.077	0.917	0.922	0.787	0.765	0.678	0.593	0.580	0.593	0.731	0.771	0.803	0.899	1.344	1.307	1.453	1.416	1.512	1.500	1.619	1.549	1.631	1.640	1.645	1.919	1.803	1.880	1.844	1.889	1.986	2.058	2.003	2.152	2.081	2.121	1.833	1.765	1.867	1.881
350.0	92.89	88.81	143.4	243.1	313.1	333.9	332.6	325.5	336.6	364.8	388.6	401.1	393.3	363.7	321.4	277.3	256.8	293.9	331.3	210.3	118.1	101.5	156.7	683.3	3046	6388	5810	1132	18.18	5.761	4.325	3.425	2.495	2.038	1.584	1.446	1.330	1.176	1.012	0.881	0.851	0.862	0.702	0.700	0.682	0.657	0.582	0.650	0.734	0.791	0.904	1.264	1.413	1.508	1.515	1.674	1.751	1.687	1.647	1.760	1.834	1.803	1.939	1.948	2.001	1.958	2.109	1.992	2.107	2.165	2.091	2.147	2.046	1.916	1.813	1.952	1.977
355.0	90.54	81.87	147.1	262.8	347.1	381.2	389.1	374.2	376.0	393.9	403.8	407.9	400.2	375.6	340.2	295.4	265.1	254.2	269.3	330.8	207.2	121.8	112.2	207.8	723.4	1564	5147	8525	391.2	19.05	7.025	5.072	3.229	2.278	1.904	1.575	1.281	1.096	1.057	0.961	0.938	0.834	0.694	0.740	0.695	0.599	0.668	0.727	0.764	0.887	0.933	1.324	1.626	1.714	1.551	1.766	1.809	1.802	1.733	1.855	1.926	1.965	2.014	2.232	2.119	1.993	2.020	2.019	2.183	2.154	2.287	2.194	2.218	1.957	2.128	2.056	2.110
360.0	83.02	88.46	147.9	269.6	383.5	436.0	422.3	406.8	410.3	414.7	422.8	422.9	419.1	386.8	355.3	310.6	283.2	259.2	243.9	305.6	314.5	171.5	121.6	124.6	222.1	395.1	1437	7103	7577	331.5	14.56	8.398	4.775	2.828	2.199	1.718	1.336	1.368	1.180	0.954	0.905	0.933	0.709	0.730	0.640	0.619	0.700	0.742	0.805	0.882	0.908	1.359	1.489	1.839	1.807	1.914	1.792	2.012	1.978	2.215	1.924	2.060	2.188	2.351	2.248	2.111	2.097	2.070	2.340	2.087	2.161	2.260	2.461	2.002	2.025	2.125	2.131
365.0	85.91	86.37	149.7	285.2	414.1	472.3	460.3	437.9	438.2	448.1	452.9	455.0	447.2	407.7	366.4	328.3	300.7	278.2	256.4	265.4	336.8	271.1	156.5	129.3	130.3	152.0	376.7	2201	8336	3213	50.62	20.13	8.709	4.372	2.502	1.898	1.603	1.350	1.184	1.040	0.928	0.960	0.826	0.828	0.740	0.649	0.739	0.739	0.774	0.840	0.960	1.547	1.736	1.905	2.017	2.022	1.948	2.162	2.113	2.258	2.159	2.002	2.144	2.364	2.391	2.316	2.247	2.102	2.247	2.326	2.354	2.537	2.507	2.151	2.127	2.183	2.092
370.0	90.36	93.48	172.9	362.2	566.9	638.2	557.3	518.4	529.8	555.8	641.9	631.7	761.6	571.4	402.6	356.2	333.9	312.3	294.4	290.7	314.8	354.1	310.9	246.4	210.6	210.2	296.2	700.9	2606	5447	5417	1207	106.4	20.82	5.427	3.000	2.024	1.665	1.373	1.238	1.119	0.965	0.849	0.793	0.759	0.737	0.697	0.756	0.852	0.940	1.223	1.758	2.210	2.733	2.778	2.474	2.496	2.658	2.422	2.445	2.573	2.560	2.595	2.832	3.055	3.279	3.014	2.960	3.160	3.872	4.054	3.148	2.669	2.476	2.271	2.400	2.318
375.0	95.66	122.1	267.6	640.2	1123	1196	784.6	687.8	783.3	935.2	1281	1250	1907	1142	509.5	413.2	384.9	375.2	366.0	381.2	412.7	439.6	534.3	502.8	465.4	461.3	861.8	1015	1176	1907	5187	8558	1870	107.4	15.49	5.610	3.213	2.249	1.666	1.478	1.180	1.147	1.072	1.022	0.849	0.728	0.856	0.966	0.990	1.239	1.869	2.949	3.733	5.034	5.258	4.224	3.632	3.275	3.345	3.211	3.462	3.864	4.042	4.149	5.725	6.198	5.546	5.309	6.127	9.792	10.12	5.686	3.672	2.900	2.497	2.837	2.863
380.0	105.9	134.9	364.8	861.1	1597	1652	986.2	828.3	988.6	1238	1836	1764	2861	1672	591.4	453.9	427.4	426.3	424.1	457.1	512.1	539.7	701.7	917.8	822.5	869.3	1367	1494	1158	1376	2817	7388	7316	347.5	29.60	8.404	4.385	2.992	2.009	1.717	1.404	1.407	1.169	1.168	1.011	0.880	0.845	0.981	1.311	1.594	2.406	3.870	5.057	6.854	7.172	5.495	4.426	3.783	3.859	3.652	4.327	4.733	5.159	5.149	7.184	9.206	7.573	7.106	9.043	14.77	14.99	8.041	4.464	3.324	2.870	2.938	2.925
385.0	105.8	140.2	387.3	983.6	1818	1881	1098	897.1	1079	1400	2090	2017	3317	1919	630.3	472.2	445.1	450.1	454.2	497.5	567.1	594.9	766.5	1050	1024	1062	1619	1752	1269	1374	2278	3632	6968	5423	249.6	11.43	5.401	3.514	2.462	2.033	1.471	1.447	1.388	1.163	1.132	1.017	0.920	1.099	1.299	1.759	2.702	4.401	6.101	7.502	8.103	6.104	4.920	4.052	4.064	3.878	4.737	5.245	5.452	6.158	8.412	10.26	8.237	8.109	10.33	16.76	18.18	8.969	4.934	3.556	3.182	3.137	3.128
390.0	88.77	127.2	329.7	826.3	1519	1604	978.1	835.2	962.4	1206	1745	1693	2685	1595	581.8	447.9	427.0	428.0	429.9	464.4	515.3	535.4	661.1	853.0	874.8	946.6	1336	1421	1016	1073	1679	1967	2303	4561	4078	999.2	17.52	4.423	3.064	2.184	1.647	1.458	1.255	1.198	1.089	1.065	0.945	1.039	1.229	1.545	2.322	3.749	4.872	6.509	6.841	5.313	4.402	3.778	3.780	3.663	4.020	4.673	4.603	5.340	6.921	8.604	7.430	6.724	8.420	13.64	14.66	7.502	4.266	3.355	2.947	2.846	2.952
395.0	92.75	117.6	318.2	763.4	1408	1489	935.9	795.2	928.0	1140	1606	1568	2469	1470	554.9	431.9	410.8	414.8	424.5	453.8	498.8	521.4	633.6	794.5	781.5	899.8	1294	1328	944.8	983.1	1511	1556	914.0	1148	2699	5700	1564	20.54	4.077	2.648	2.084	1.721	1.563	1.217	1.155	1.055	0.902	1.036	1.169	1.471	2.110	3.395	4.505	6.182	6.387	4.809	4.272	3.839	3.739	3.467	4.160	4.501	4.452	5.173	6.281	7.965	6.708	6.185	7.739	12.76	13.51	7.141	4.159	3.230	2.870	2.915	2.917
400.0	89.00	114.9	325.8	803.2	1482	1555	966.3	827.7	959.2	1190	1691	1634	2628	1546	563.2	435.4	409.1	415.4	427.2	460.1	514.4	542.8	668.1	838.5	820.6	929.1	1414	1470	1029	1075	1634	1617	661.9	375.8	707.5	3678	5309	282.2	13.06	3.598	2.420	2.066	1.706	1.322	1.363	1.144	0.920	1.154	1.335	1.631	2.194	3.631	4.967	6.295	6.648	4.988	4.277	3.679	3.736	3.636	4.300	4.695	4.679	5.134	6.703	8.385	7.087	6.577	8.330	13.02	13.70	7.493	4.167	3.083	2.887	2.787	2.764
405.0	85.69	119.6	313.6	796.4	1449	1542	961.7	828.8	944.3	1177	1691	1620	2598	1527	550.3	430.9	402.2	408.2	416.6	451.9	511.8	539.3	662.7	834.1	817.3	911.4	1385	1511	1052	1081	1636	1601	608.2	205.1	191.7	987.7	4141	4308	234.9	6.911	2.810	2.318	1.797	1.448	1.257	1.106	1.013	1.101	1.408	1.643	2.226	3.668	4.804	6.173	6.837	4.974	4.238	3.650	3.526	3.766	4.166	4.521	4.709	4.958	6.975	8.373	6.934	6.474	8.272	13.05	13.46	7.251	4.143	3.138	2.792	2.757	2.597
410.0	72.58	101.6	256.8	637.7	1143	1234	834.3	736.0	821.3	976.8	1337	1280	1938	1187	490.8	388.7	371.5	372.2	378.1	404.7	446.3	463.1	549.8	671.6	656.3	714.7	1032	1136	843.0	829.4	1206	1174	446.1	140.2	75.16	239.4	1096	3086	3129	963.9	15.63	3.029	2.087	1.655	1.348	1.112	1.039	1.077	1.113	1.411	1.829	2.898	3.840	5.037	5.196	4.323	3.585	3.267	3.322	3.363	3.779	3.969	4.014	4.421	5.609	6.631	5.756	5.149	6.613	9.973	10.37	6.013	3.463	2.937	2.460	2.635	2.515
415.0	60.61	83.95	209.4	489.3	886.6	959.0	705.5	666.7	716.6	808.0	1022	985.7	1400	887.2	430.5	351.8	338.6	335.6	342.7	353.0	379.9	398.1	452.5	528.0	515.9	546.9	739.9	792.1	625.6	642.1	846.6	801.8	318.6	109.2	51.59	74.70	259.1	709.8	1734	4147	1449	20.29	2.867	2.037	1.617	1.142	1.152	1.013	1.022	1.161	1.612	2.311	3.335	3.780	4.228	3.555	3.209	2.947	2.928	3.065	3.274	3.392	3.417	3.829	4.451	5.174	4.675	3.887	4.868	6.981	7.453	4.446	3.006	2.595	2.345	2.299	2.448
