Sample:	'1
File name:	L2025090909Ãñ·çÂ·ÇÅ.FD3
Run date:	'15:21:51, 09/09/2025
Operator:	Administrator
Comment:	'

Instrument
Model:	F-2700 FL Spectrophotometer
Serial number:	3064-004
ROM Version:	4J14000 07

Instrument parameters
Measurement type:	3-D scan
Data mode:	Fluorescence
EX  Start WL:	220.0 nm
EX  End WL:	600.0 nm
EX Sampling interval:	5.0 nm
EM  Start WL:	230.0 nm
EM  End WL:	650.0 nm
EM Sampling interval:	5.0 nm
Scan speed:	12000 nm/min
EX Slit:	5.0 nm
EM Slit:	5.0 nm
PMT Voltage:	700 V
Response:	Auto 
Corrected spectra:	Off
Contour interval:	50.000

Peak integration
Integration method:	Rectangular
Sensitivity:	1
Threshold:	1.000

Peaks
No.	ApexEX/EM(nm)	Height(Data)
1	230.0/580.0	39.82
2	230.0/600.0	33.60
3	235.0/345.0	973.1
4	245.0/265.0	336.0
5	245.0/530.0	230.0
6	250.0/540.0	223.3
7	250.0/615.0	26.87
8	255.0/280.0	651.3
9	255.0/555.0	202.4
10	260.0/285.0	897.9
11	260.0/565.0	175.0
12	265.0/290.0	946.5
13	265.0/580.0	174.6
14	270.0/295.0	 1326
15	270.0/380.0	 1268
16	270.0/590.0	150.8
17	275.0/305.0	 1610
18	275.0/605.0	150.5
19	280.0/310.0	 1561
20	280.0/340.0	 1288
21	280.0/355.0	 1283
22	280.0/615.0	126.7
23	285.0/315.0	 1576
24	285.0/345.0	 1286
25	285.0/365.0	 1284
26	285.0/630.0	97.59
27	290.0/320.0	 1506
28	290.0/640.0	83.58
29	305.0/340.0	 1044
30	310.0/345.0	901.7
31	315.0/355.0	799.5
32	320.0/360.0	879.1
33	325.0/365.0	853.4
34	330.0/375.0	791.8
35	335.0/380.0	829.6
36	340.0/385.0	787.0
37	350.0/400.0	702.1
38	355.0/405.0	668.7
39	445.0/525.0	47.61
40	455.0/535.0	33.74
41	460.0/335.0	3.908
42	460.0/545.0	27.27
43	490.0/585.0	5.542
44	495.0/270.0	2.176
45	500.0/445.0	5.496
46	505.0/275.0	3.219
47	515.0/285.0	4.138
48	525.0/290.0	3.985
49	535.0/295.0	5.651
50	545.0/300.0	6.591
51	550.0/305.0	7.640
52	560.0/310.0	6.599
53	570.0/315.0	7.624
54	575.0/290.0	55.51
55	575.0/320.0	7.799
56	585.0/325.0	7.140
57	590.0/330.0	6.125

Data points
	220.0	225.0	230.0	235.0	240.0	245.0	250.0	255.0	260.0	265.0	270.0	275.0	280.0	285.0	290.0	295.0	300.0	305.0	310.0	315.0	320.0	325.0	330.0	335.0	340.0	345.0	350.0	355.0	360.0	365.0	370.0	375.0	380.0	385.0	390.0	395.0	400.0	405.0	410.0	415.0	420.0	425.0	430.0	435.0	440.0	445.0	450.0	455.0	460.0	465.0	470.0	475.0	480.0	485.0	490.0	495.0	500.0	505.0	510.0	515.0	520.0	525.0	530.0	535.0	540.0	545.0	550.0	555.0	560.0	565.0	570.0	575.0	580.0	585.0	590.0	595.0	600.0
230.0	17.47	910.8	 4636	 2171	96.53	5.975	6.083	7.062	3.398	3.250	3.374	3.571	3.313	2.992	2.614	2.674	2.057	1.899	1.435	1.499	1.206	1.336	1.098	1.113	1.018	0.823	0.818	0.779	0.678	0.535	0.634	0.509	0.475	0.485	0.535	0.688	0.480	0.498	0.460	0.412	0.456	0.594	0.660	0.399	0.351	0.376	1.624	5.950	8.727	6.578	2.331	0.515	0.230	0.321	0.214	0.208	0.237	0.175	0.198	0.063	0.143	0.138	0.138	0.142	0.077	0.107	0.057	0.032	0.046	0.124	0.053	0.020	0.067	0.029	0.077	0.032	0.017
235.0	44.55	234.4	 1975	 4424	 1092	175.1	7.130	13.30	3.626	3.510	6.283	3.772	3.239	4.529	2.611	2.493	2.101	1.778	1.727	1.684	1.271	1.483	1.049	1.216	1.062	0.907	0.702	0.564	0.776	0.729	0.847	0.413	0.444	0.488	0.471	0.540	0.626	0.473	0.479	0.573	0.448	0.467	0.731	0.381	0.566	0.450	0.650	1.704	3.815	5.922	8.631	7.516	3.166	0.879	0.209	0.207	0.250	0.162	0.237	0.180	0.260	0.207	0.125	0.181	0.188	0.257	0.052	0.046	0.106	-0.008	0.070	0.141	0.061	-0.038	0.036	0.007	0.028
240.0	62.94	115.9	498.3	 2470	 4409	957.1	99.85	19.63	3.956	4.116	5.668	5.346	3.819	3.460	2.643	1.707	2.272	1.589	1.699	1.893	1.710	1.053	1.431	0.919	1.428	1.116	0.855	0.549	0.526	0.705	0.852	0.510	0.393	0.548	0.415	0.526	0.700	0.523	0.360	0.561	0.448	0.325	0.490	0.566	0.658	0.826	0.641	0.644	1.038	1.914	5.022	10.69	13.34	7.883	2.278	0.419	0.184	0.144	0.201	0.157	0.116	0.106	0.180	0.243	0.150	0.244	0.066	0.048	0.080	0.049	0.132	0.051	-0.016	0.007	0.075	0.051	-0.015
245.0	42.65	114.3	178.4	664.5	 3168	 5868	819.8	85.04	11.28	5.122	6.111	4.315	4.417	3.982	3.055	2.439	2.340	1.493	1.574	1.450	1.143	1.554	1.373	1.152	1.323	0.979	0.876	0.794	0.601	0.646	0.794	0.617	0.554	0.540	0.281	0.245	0.570	0.433	0.471	0.499	0.380	0.374	0.399	0.406	0.453	0.600	0.874	0.695	0.496	0.664	1.323	3.839	9.779	14.88	14.51	7.084	1.171	0.255	0.200	0.152	0.116	0.049	0.153	0.193	0.095	0.356	0.077	0.132	0.036	0.035	0.067	0.069	-0.003	0.094	0.041	0.035	0.017
250.0	28.59	59.68	165.8	257.6	844.5	 3754	 6737	 9863	200.4	9.228	7.211	5.946	5.629	4.965	3.590	3.168	2.041	2.021	2.022	1.574	1.665	1.458	1.569	1.230	1.310	1.032	1.055	0.729	0.544	0.577	1.006	0.649	0.683	0.600	0.501	0.256	0.396	0.266	0.443	0.507	0.407	0.369	0.393	0.385	0.499	0.424	0.510	0.703	0.945	0.738	0.764	1.096	2.555	5.190	9.613	14.20	16.88	13.45	7.132	1.579	0.249	0.084	0.083	0.126	0.220	0.219	0.071	0.220	0.101	0.060	0.062	0.099	0.052	0.121	0.017	0.102	0.082
255.0	22.53	28.45	69.37	264.9	327.3	888.7	 3069	9999.9	 4067	248.5	10.63	6.881	6.946	4.968	4.563	4.082	2.061	2.585	2.172	2.156	1.983	1.487	1.782	1.177	0.859	1.321	0.767	1.197	0.672	0.615	0.866	0.764	0.727	0.404	0.873	0.475	0.333	0.177	0.368	0.578	0.589	0.472	0.402	0.414	0.470	0.376	0.538	0.395	0.561	0.678	1.273	1.273	0.992	1.224	2.396	3.762	7.377	17.49	26.62	24.55	9.141	1.536	0.126	0.225	0.155	0.066	0.135	0.152	0.240	0.242	0.124	0.099	0.077	0.076	0.205	0.093	0.159
260.0	29.41	25.93	31.98	163.8	352.2	291.7	768.9	 6607	9999.9	 3226	126.4	11.80	7.510	7.188	6.293	4.490	3.316	2.326	2.645	2.578	1.788	1.896	1.359	1.262	1.531	1.581	1.314	1.046	0.908	0.821	0.759	0.795	0.598	0.505	0.872	0.492	0.448	0.358	0.442	0.564	0.508	0.481	0.473	0.620	0.515	0.384	0.521	0.292	0.376	0.466	0.801	1.357	1.720	0.904	0.838	1.250	1.790	5.334	13.71	29.15	35.69	23.21	6.496	0.728	0.230	0.151	0.214	0.114	0.171	0.339	0.136	0.325	0.026	0.139	0.085	0.143	0.159
265.0	26.98	23.70	21.09	65.45	272.1	336.0	230.3	 1718	 9654	 9571	 2439	56.70	10.07	8.968	6.502	4.995	3.363	2.932	2.691	2.172	1.866	1.611	1.285	1.484	1.121	0.918	1.335	0.858	0.727	0.859	0.751	0.700	0.730	0.546	0.609	0.567	0.508	0.471	0.614	0.475	0.369	0.394	0.552	0.666	0.341	0.500	0.585	0.390	0.381	0.415	0.367	0.659	1.387	1.818	1.179	0.827	0.542	1.469	3.475	9.729	24.41	41.52	40.41	19.07	2.890	0.255	0.190	0.225	0.118	0.199	0.050	0.188	0.102	0.188	0.059	0.043	0.115
270.0	37.71	37.34	24.37	33.67	95.63	315.7	391.9	487.9	 2526	 5048	 9494	 5209	160.0	14.73	8.924	6.890	4.319	2.984	3.168	2.782	2.304	1.713	1.839	1.436	1.397	1.133	1.204	1.043	1.025	0.803	0.931	0.780	0.707	0.604	0.546	0.635	0.645	0.435	0.617	0.585	0.506	0.403	0.579	0.595	0.468	0.572	0.472	0.425	0.347	0.437	0.322	0.406	0.715	1.108	1.648	2.176	1.575	1.093	1.103	2.532	6.215	13.20	24.54	35.71	42.08	30.88	15.72	3.078	0.396	0.163	0.100	0.136	0.063	0.275	0.170	0.046	0.136
275.0	69.12	64.58	52.53	42.82	47.53	111.6	394.9	584.4	667.6	 1219	 3615	9999.9	 8290	192.2	11.78	7.438	6.858	3.849	3.407	3.279	3.288	2.192	1.916	1.897	1.290	1.606	1.551	1.243	0.835	0.965	1.163	0.523	0.968	0.660	0.597	0.568	0.464	0.500	0.766	0.651	0.680	0.420	0.380	0.572	0.620	0.699	0.515	0.673	0.504	0.447	0.300	0.271	0.388	0.468	0.609	1.176	2.082	3.219	2.054	1.323	1.649	3.376	5.928	8.820	16.69	37.06	63.46	46.05	19.06	1.944	0.162	0.185	0.166	0.204	0.183	0.044	0.157
280.0	106.7	98.04	93.76	70.18	42.19	70.86	188.5	651.3	556.4	399.1	980.8	 4760	9999.9	 2495	108.4	10.76	8.417	6.490	3.522	3.555	3.264	1.970	2.277	1.780	1.705	1.819	1.677	1.432	1.018	0.659	0.958	0.651	0.790	0.718	0.852	0.950	0.854	0.814	0.903	0.632	0.709	0.692	0.726	0.637	0.972	0.859	0.569	0.892	0.840	0.562	0.528	0.353	0.383	0.274	0.390	0.461	0.975	2.308	3.476	3.532	1.770	1.407	1.738	2.829	4.336	10.52	28.22	57.32	76.58	39.55	9.315	0.626	0.203	0.190	0.274	0.115	0.151
285.0	149.1	147.1	139.9	103.9	59.56	78.68	105.3	370.9	897.9	414.5	410.7	 1369	 6474	9999.9	 1812	48.10	11.20	8.120	5.074	4.480	3.478	3.014	2.318	2.099	1.750	1.392	1.335	1.636	1.125	1.085	1.071	0.773	0.909	0.831	1.018	0.872	1.059	0.889	0.874	0.819	0.623	0.869	0.961	0.898	0.993	1.210	0.779	1.079	0.809	0.596	0.575	0.470	0.384	0.382	0.394	0.350	0.749	1.203	1.988	4.138	4.100	2.473	1.245	1.357	2.194	3.222	7.553	17.94	43.23	73.40	54.61	28.78	3.663	0.207	0.484	0.198	0.205
290.0	195.0	225.1	214.1	157.3	102.8	102.5	109.9	214.6	590.2	946.5	624.5	641.7	 1847	 5800	9999.9	 6043	96.72	12.36	6.689	6.095	3.753	3.799	2.694	2.509	1.934	1.676	1.621	1.530	1.298	1.156	1.147	0.955	0.984	0.956	0.862	0.947	1.132	1.062	1.016	1.034	1.029	1.052	1.043	1.088	1.115	1.469	1.194	1.123	1.071	0.971	0.805	0.655	0.549	0.559	0.493	0.580	0.688	0.821	1.236	1.881	2.940	3.985	3.621	3.292	2.407	2.165	3.090	5.512	11.32	21.68	34.92	55.51	55.29	48.57	19.84	3.918	0.439
295.0	231.0	256.1	295.9	223.0	151.9	146.5	168.0	213.4	351.5	672.8	 1326	817.5	838.5	 1589	 3343	9999.9	 8583	125.8	11.04	7.276	4.639	4.045	3.645	3.200	2.150	2.153	1.898	1.463	1.348	1.291	0.918	1.206	0.784	0.756	0.991	1.291	1.079	1.203	1.310	1.227	1.137	1.327	0.975	1.118	1.497	1.477	1.610	1.385	1.396	0.990	1.092	0.849	0.821	0.734	0.518	0.731	0.701	0.921	1.113	1.365	1.805	2.223	2.937	5.651	5.134	3.675	2.578	3.012	4.013	6.083	9.155	13.80	19.47	44.10	80.62	54.23	27.30
300.0	226.7	293.1	318.4	258.4	208.4	184.7	203.3	245.8	338.7	517.0	 1169	 1420	761.0	736.1	998.7	 4016	9999.9	 5961	80.92	8.318	5.870	4.408	4.060	3.114	2.133	2.442	1.830	1.601	1.561	1.487	1.189	1.204	0.855	0.877	0.846	1.191	0.906	1.574	1.416	1.677	1.486	1.243	1.074	1.229	1.442	1.392	1.534	1.573	1.479	1.113	1.097	1.360	1.039	0.780	1.093	0.944	1.035	1.095	1.189	1.257	1.854	1.962	2.197	3.517	5.640	6.591	5.190	2.832	3.044	3.053	3.570	4.452	5.174	11.68	31.41	65.39	94.03
305.0	227.9	305.6	342.6	302.6	236.2	233.3	248.4	293.3	386.5	520.2	868.7	 1610	 1202	663.3	552.2	 1126	 5282	9999.9	 1193	41.57	8.744	6.168	4.693	3.540	2.643	2.505	2.123	1.940	1.928	1.505	1.564	1.325	0.858	1.094	0.892	1.225	1.269	1.533	1.282	1.545	1.551	1.186	1.407	1.400	1.739	1.609	1.631	1.545	1.352	1.247	1.058	1.324	1.263	0.931	1.193	1.092	1.244	1.121	1.459	1.436	1.993	1.887	2.241	3.013	3.734	5.598	7.640	6.553	4.026	2.692	2.790	2.389	2.828	3.561	7.930	18.01	47.21
310.0	243.0	306.6	372.0	341.2	267.9	281.2	298.6	364.2	458.9	576.6	801.6	 1157	 1561	 1163	583.8	520.5	 1403	 4866	 8891	 4729	71.16	9.752	5.472	4.248	3.161	3.053	2.329	2.102	2.015	1.473	1.571	1.440	1.138	1.195	1.118	1.192	1.455	1.361	1.399	1.460	1.415	1.400	1.258	1.319	1.527	1.583	1.678	1.745	1.627	1.402	1.307	1.317	1.265	1.095	1.251	1.426	1.414	1.318	1.631	1.839	2.028	2.220	2.616	3.010	3.330	4.181	5.119	6.409	6.599	5.700	4.198	2.669	2.348	2.239	3.027	5.380	11.85
315.0	256.8	335.3	408.4	376.6	309.4	295.2	334.1	414.3	510.4	643.1	827.4	 1024	 1214	 1576	 1027	488.8	552.3	 1241	 2703	9999.9	 6686	95.91	9.842	6.822	4.101	3.740	3.057	2.423	2.060	2.093	1.547	1.585	1.008	1.213	1.019	1.238	1.288	1.225	1.181	1.303	1.485	1.418	1.397	1.518	1.523	1.491	1.591	1.983	2.003	1.644	1.251	1.420	1.355	1.183	1.110	1.459	1.770	1.502	2.052	1.989	2.258	2.451	2.918	3.434	3.751	3.694	4.079	4.232	4.943	6.392	7.624	5.821	3.692	2.689	2.223	2.595	3.928
320.0	293.4	429.3	533.4	467.9	349.3	338.1	384.8	462.7	540.5	722.1	887.7	 1068	 1143	 1346	 1506	714.6	431.9	487.4	742.6	 3614	9999.9	 4960	62.52	8.017	5.154	4.296	3.358	2.529	2.262	2.165	1.324	1.533	1.262	1.220	1.202	1.182	1.187	1.310	1.346	1.189	1.136	1.826	1.312	1.395	1.722	1.574	1.785	2.348	2.246	1.971	1.586	1.632	1.414	1.409	1.420	1.729	1.643	1.527	2.176	2.324	2.660	2.919	3.007	3.470	3.607	4.039	3.707	4.876	4.606	4.983	6.423	7.799	6.274	4.285	2.935	2.242	2.884
325.0	342.2	520.5	716.7	633.6	410.7	373.1	402.0	487.1	608.9	768.9	963.6	 1126	 1212	 1218	 1433	 1174	519.7	375.6	336.9	942.4	 4913	9999.9	901.7	33.61	6.721	5.515	3.967	2.765	2.324	2.298	1.555	1.780	1.504	1.765	0.996	1.199	1.339	1.457	1.355	1.423	1.331	1.702	1.639	1.884	2.181	1.995	2.446	3.071	3.019	2.800	2.243	1.975	1.490	1.935	1.744	1.716	1.913	1.854	2.130	2.652	2.650	3.004	3.033	3.626	3.544	4.280	3.945	4.862	5.244	4.958	5.404	6.065	6.871	7.140	4.290	3.061	2.661
330.0	366.3	558.3	839.9	809.9	521.5	437.0	438.6	537.1	644.9	800.3	 1003	 1166	 1241	 1226	 1187	 1221	949.8	473.9	307.2	374.1	 1250	 4490	 8304	 3673	57.20	8.107	5.090	3.945	3.046	2.486	1.877	1.895	1.552	1.355	1.224	1.397	1.206	1.524	1.458	1.573	1.457	1.594	1.717	1.832	2.036	2.589	2.781	3.320	3.313	3.267	2.545	2.314	1.976	2.070	1.774	1.971	1.933	2.185	2.292	2.795	2.700	3.192	3.419	3.553	4.065	4.630	4.630	5.002	5.241	5.322	5.374	4.708	5.474	5.936	6.125	6.003	4.311
335.0	388.0	584.6	920.5	914.5	599.2	516.8	501.3	587.2	691.9	848.9	 1039	 1201	 1288	 1259	 1149	 1007	 1063	857.5	400.6	310.4	441.8	 1119	 2575	 8793	 5427	77.20	7.473	5.425	4.175	2.864	2.246	2.149	1.715	1.596	1.550	1.515	1.313	1.551	1.333	1.307	1.327	1.659	1.870	2.426	1.890	2.602	2.973	3.584	3.908	3.567	2.735	2.688	2.337	2.394	1.969	2.287	2.240	2.349	2.398	2.840	2.466	3.408	3.599	3.671	4.399	4.759	4.545	5.292	5.097	4.987	5.650	4.928	5.613	4.728	4.826	5.140	5.956
340.0	395.4	602.0	942.6	960.3	687.0	579.2	564.2	631.6	724.3	860.4	 1065	 1200	 1288	 1277	 1179	985.4	889.0	 1044	629.1	347.9	299.4	399.8	688.2	 3421	9999.9	 4069	52.03	7.396	5.214	3.299	2.714	2.657	1.834	1.762	1.151	1.338	1.488	1.399	1.202	1.306	1.309	1.840	1.980	1.877	1.910	2.765	3.011	3.775	3.893	3.610	3.210	3.044	2.596	2.057	2.297	2.425	2.129	2.508	2.732	3.218	2.999	3.356	3.649	3.807	3.819	4.910	4.311	5.363	5.373	5.023	5.622	5.110	5.277	4.852	4.680	4.385	4.875
345.0	387.4	573.1	935.3	973.1	748.3	637.1	635.1	643.5	745.1	882.3	 1074	 1198	 1279	 1286	 1193	 1005	827.9	891.3	901.7	469.8	318.1	281.6	290.2	890.5	 4942	9999.9	743.3	29.53	6.635	4.876	3.491	2.479	2.050	1.923	1.464	1.445	1.061	1.347	1.435	1.534	1.362	1.481	1.976	1.900	2.035	2.586	2.999	3.614	3.898	3.518	2.778	3.010	3.058	2.260	2.758	2.221	2.658	2.946	2.938	2.766	3.490	3.248	4.038	4.122	4.396	4.939	4.714	5.278	5.457	5.575	5.234	5.390	5.435	4.629	4.643	4.636	4.544
350.0	370.9	547.2	853.5	972.6	830.4	760.8	728.8	751.2	816.6	942.2	 1080	 1180	 1265	 1274	 1178	 1041	865.8	784.6	847.5	783.5	466.9	328.2	265.0	350.3	 1260	 4553	 7427	 3090	50.30	7.762	4.516	2.927	2.493	2.503	1.614	1.518	1.353	1.394	1.542	1.486	1.434	1.705	1.826	1.678	2.059	2.287	2.853	3.480	3.605	3.330	2.964	3.148	3.296	2.715	2.779	2.853	2.915	3.180	3.097	2.952	2.980	3.595	3.924	4.432	4.581	5.008	4.627	4.949	5.562	5.311	4.916	5.441	5.594	4.929	4.942	4.504	4.232
355.0	348.4	543.0	787.9	962.2	900.9	894.4	862.7	885.3	941.9	 1047	 1138	 1202	 1283	 1269	 1215	 1091	942.7	823.6	759.1	799.5	783.7	463.4	331.8	290.2	438.0	 1128	 2500	 8034	 4618	68.48	6.954	4.771	2.949	2.738	1.918	1.657	1.506	1.434	1.595	1.599	1.305	1.396	1.824	1.686	1.922	2.094	2.612	3.032	3.696	3.485	2.838	3.110	3.238	3.385	3.364	3.096	3.319	3.165	3.436	3.446	4.156	4.117	4.027	4.520	4.157	4.427	4.437	4.766	5.384	5.098	5.305	5.387	5.258	5.251	4.816	4.745	5.012
360.0	306.9	501.9	758.8	935.4	944.9	949.1	934.1	946.9	 1004	 1105	 1178	 1212	 1272	 1268	 1222	 1127	987.5	871.4	777.9	741.4	879.1	682.2	406.6	328.6	295.5	394.6	666.1	 3405	 9405	 3360	45.82	5.772	4.060	2.790	2.136	1.797	1.663	1.517	1.476	1.658	1.348	1.568	1.862	1.552	2.300	2.129	2.510	2.977	3.254	3.751	2.761	3.313	3.257	3.401	3.394	3.436	3.631	3.318	3.621	3.649	4.162	4.441	4.491	4.222	4.736	4.784	4.638	4.775	5.467	5.075	5.719	5.398	5.339	5.070	5.145	5.512	5.221
365.0	294.1	494.6	725.9	923.9	983.8	965.8	 1020	 1021	 1068	 1150	 1205	 1246	 1279	 1284	 1242	 1140	 1025	913.5	812.6	758.7	796.9	853.4	549.5	381.9	305.0	263.8	272.4	884.5	 5057	 8934	657.8	24.76	4.747	3.436	2.196	2.157	1.931	1.951	1.545	1.524	1.497	1.570	1.765	1.536	1.959	1.986	2.343	2.405	3.291	3.032	2.912	3.449	3.469	3.674	3.936	3.975	3.679	3.319	3.784	3.513	4.343	4.064	4.631	4.697	4.507	4.504	5.032	4.509	5.391	5.253	5.341	5.573	5.028	5.220	5.166	5.489	5.249
370.0	307.4	458.0	675.8	897.0	966.2	 1010	 1070	 1080	 1135	 1211	 1232	 1274	 1275	 1263	 1222	 1143	 1048	956.9	878.5	811.3	765.4	811.5	782.3	538.8	378.2	297.7	234.4	320.9	 1280	 4356	 5847	 2650	40.19	5.526	3.578	2.732	2.048	1.951	1.732	1.627	1.439	1.673	1.666	1.745	1.786	2.009	2.307	2.561	2.833	2.886	2.989	3.385	3.484	3.807	4.003	4.102	3.999	3.879	4.222	4.121	4.462	4.390	4.919	4.760	4.650	4.770	5.354	4.975	5.417	5.379	5.293	5.352	4.998	5.280	5.434	6.023	5.693
375.0	296.5	445.5	642.9	878.6	950.4	 1058	 1110	 1145	 1163	 1219	 1251	 1266	 1275	 1247	 1221	 1151	 1065	 1003	931.4	853.4	805.4	764.2	791.8	783.2	510.0	375.0	286.3	245.8	402.1	 1050	 2275	 7460	 3688	53.67	6.190	4.282	2.668	2.118	2.270	1.738	1.242	1.630	1.577	1.861	1.855	2.157	2.355	2.800	2.713	2.758	3.047	3.505	3.683	3.907	3.789	4.209	4.087	4.001	4.566	4.019	4.139	4.711	4.933	4.794	4.696	4.779	4.812	5.463	5.114	5.208	5.425	5.351	5.115	5.596	5.234	5.624	5.850
380.0	268.5	449.3	653.2	846.2	951.5	 1083	 1098	 1166	 1180	 1219	 1268	 1262	 1256	 1245	 1212	 1125	 1089	 1026	962.4	885.6	846.4	781.7	744.5	829.6	674.0	446.6	334.6	266.3	238.8	337.1	595.1	 3412	 7855	 2537	33.38	5.576	2.968	2.834	2.315	1.937	1.573	1.534	1.400	1.934	1.972	2.184	2.063	2.435	2.766	2.737	3.000	3.487	3.536	3.737	4.243	4.376	4.059	4.180	4.369	4.320	4.624	4.940	4.945	5.149	4.720	5.061	5.349	5.108	5.062	4.861	5.552	5.240	5.302	5.179	5.646	6.176	6.126
385.0	274.2	423.5	638.1	837.1	980.7	 1057	 1124	 1180	 1209	 1221	 1262	 1237	 1245	 1229	 1183	 1115	 1070	 1024	968.9	913.9	866.8	804.1	747.1	759.0	787.0	560.3	383.5	305.9	237.1	204.7	223.3	876.0	 4518	 7170	508.7	16.58	4.079	3.170	2.555	2.066	2.037	1.738	1.500	1.790	1.871	2.561	2.001	2.304	2.668	2.755	2.825	2.859	3.584	3.555	3.998	3.958	4.023	4.342	4.568	4.736	4.408	4.566	4.673	4.748	4.482	4.965	4.894	5.240	4.992	5.049	5.309	5.266	5.119	5.359	5.123	5.504	5.804
390.0	272.4	406.1	589.7	803.0	941.6	 1051	 1131	 1160	 1195	 1209	 1228	 1200	 1206	 1190	 1158	 1099	 1044	 1013	967.8	936.8	885.6	836.3	774.1	731.0	746.0	713.8	513.5	366.6	280.5	221.1	173.4	280.5	 1150	 3780	 4656	 2038	31.90	4.782	3.072	2.719	2.133	1.709	1.818	1.787	2.070	2.037	2.253	2.145	2.453	2.797	2.604	3.056	3.384	3.732	4.107	4.248	4.241	4.433	4.175	4.496	4.684	4.894	4.335	4.533	4.379	4.747	4.513	5.075	5.014	4.847	5.297	5.275	5.256	5.198	5.235	5.509	5.638
395.0	263.2	385.3	585.1	783.0	908.5	 1056	 1104	 1132	 1170	 1202	 1196	 1180	 1177	 1160	 1115	 1070	 1016	 1002	957.3	939.0	893.2	852.7	799.3	741.4	696.4	700.9	674.1	474.3	340.2	271.3	197.0	181.0	334.2	898.4	 1908	 6217	 2863	42.34	4.739	3.433	2.489	2.226	1.991	2.003	2.072	2.067	1.770	2.397	2.690	2.744	2.751	3.057	3.538	3.317	3.825	3.922	4.470	4.404	4.452	4.153	4.763	4.632	4.958	4.638	4.536	4.541	4.277	4.657	4.824	5.117	5.019	4.844	5.362	5.270	5.110	5.140	5.343
400.0	259.0	390.2	561.7	760.1	901.9	 1017	 1093	 1135	 1138	 1170	 1170	 1148	 1155	 1133	 1084	 1042	 1005	975.0	940.7	920.5	893.7	849.3	804.7	759.1	702.2	661.7	702.1	599.0	395.5	305.8	231.8	178.4	168.0	266.0	486.9	 3020	 6203	502.6	25.11	4.253	2.786	2.878	2.028	2.239	2.010	1.935	1.955	2.698	2.560	2.415	2.542	3.073	3.502	3.472	4.119	4.167	4.232	4.215	4.585	4.315	4.191	4.503	4.519	4.656	4.651	4.914	4.112	4.761	4.884	4.667	4.590	4.615	5.007	4.997	5.318	4.939	5.352
405.0	251.6	364.9	529.2	746.2	880.7	993.9	 1116	 1116	 1129	 1102	 1150	 1131	 1122	 1094	 1057	 1025	963.9	959.0	931.0	924.9	879.5	840.9	814.6	763.6	711.0	653.0	651.3	668.7	485.6	345.8	262.7	201.9	153.1	139.0	163.3	773.0	 3716	 4995	414.6	11.58	3.285	3.097	2.208	2.193	2.210	1.865	2.108	2.504	2.319	2.645	2.347	2.808	3.379	3.318	3.874	3.763	3.920	4.547	4.146	4.142	3.975	4.499	4.397	4.511	4.533	4.750	4.393	4.766	4.572	4.255	4.710	4.693	4.571	4.982	5.139	5.024	4.945
410.0	253.3	355.6	519.2	695.9	832.5	949.8	 1033	 1084	 1111	 1103	 1091	 1107	 1074	 1061	 1011	984.6	934.9	917.4	899.4	887.0	865.3	829.7	803.3	761.8	711.7	663.5	621.0	620.0	591.7	441.5	309.3	237.2	174.5	132.2	108.4	221.3	938.9	 2802	 3724	 1516	27.21	4.211	2.831	2.452	2.406	2.058	2.161	2.244	2.299	2.480	2.380	2.935	3.124	3.421	3.758	3.524	3.929	4.081	4.098	4.146	4.185	4.548	4.279	4.348	4.502	4.174	4.113	4.572	4.411	4.588	4.746	4.510	4.562	4.643	4.402	4.834	4.798
