Sample:	'1
File name:	G2025090902月河六路西029污水井.FD3
Run date:	'14:01:29, 09/10/2025
Operator:	Administrator
Comment:	'

Instrument
Model:	F-2700 FL Spectrophotometer
Serial number:	24D1-003
ROM Version:	4J14000 07

Instrument parameters
Measurement type:	3-D scan
Data mode:	Fluorescence
EX  Start WL:	220.0 nm
EX  End WL:	600.0 nm
EX Sampling interval:	5.0 nm
EM  Start WL:	230.0 nm
EM  End WL:	650.0 nm
EM Sampling interval:	5.0 nm
Scan speed:	12000 nm/min
EX Slit:	5.0 nm
EM Slit:	5.0 nm
PMT Voltage:	700 V
Response:	Auto 
Corrected spectra:	Off
Contour interval:	50.000

Peak integration
Integration method:	Rectangular
Sensitivity:	1
Threshold:	1.000

Peaks
No.	ApexEX/EM(nm)	Height(Data)
1	225.0/580.0	41.85
2	225.0/605.0	38.83
3	225.0/615.0	41.21
4	230.0/340.0	1089
5	230.0/505.0	183.2
6	230.0/620.0	35.50
7	235.0/515.0	194.0
8	240.0/265.0	398.5
9	240.0/525.0	197.7
10	245.0/270.0	394.4
11	245.0/535.0	175.2
12	250.0/275.0	485.6
13	250.0/415.0	529.9
14	250.0/435.0	537.2
15	250.0/550.0	152.0
16	255.0/280.0	618.6
17	255.0/560.0	137.8
18	260.0/285.0	646.3
19	260.0/575.0	118.1
20	265.0/585.0	126.0
21	270.0/300.0	1372
22	270.0/600.0	119.8
23	275.0/305.0	1673
24	275.0/610.0	118.2
25	280.0/310.0	1480
26	280.0/620.0	101.8
27	285.0/315.0	1240
28	285.0/635.0	72.74
29	290.0/325.0	1058
30	295.0/330.0	852.2
31	300.0/335.0	760.3
32	305.0/340.0	679.8
33	315.0/355.0	437.8
34	320.0/360.0	462.9
35	325.0/365.0	431.8
36	335.0/380.0	402.6
37	340.0/385.0	384.4
38	350.0/400.0	318.7
39	355.0/405.0	304.3
40	360.0/410.0	268.7
41	365.0/415.0	247.8
42	370.0/425.0	228.0
43	380.0/440.0	172.0
44	400.0/465.0	94.03
45	415.0/485.0	53.64
46	425.0/500.0	37.75
47	430.0/505.0	32.16
48	440.0/520.0	21.94
49	455.0/540.0	12.60
50	465.0/345.0	3.434
51	465.0/555.0	7.505
52	470.0/560.0	6.843
53	475.0/350.0	3.413
54	485.0/580.0	3.348
55	500.0/270.0	2.116
56	505.0/275.0	3.128
57	510.0/280.0	3.518
58	520.0/285.0	4.162
59	530.0/290.0	4.032
60	540.0/295.0	5.720
61	545.0/300.0	6.674
62	550.0/305.0	6.839
63	560.0/310.0	6.468
64	570.0/315.0	6.096
65	575.0/320.0	5.943
66	585.0/325.0	5.730

Data points
	220.0	225.0	230.0	235.0	240.0	245.0	250.0	255.0	260.0	265.0	270.0	275.0	280.0	285.0	290.0	295.0	300.0	305.0	310.0	315.0	320.0	325.0	330.0	335.0	340.0	345.0	350.0	355.0	360.0	365.0	370.0	375.0	380.0	385.0	390.0	395.0	400.0	405.0	410.0	415.0	420.0	425.0	430.0	435.0	440.0	445.0	450.0	455.0	460.0	465.0	470.0	475.0	480.0	485.0	490.0	495.0	500.0	505.0	510.0	515.0	520.0	525.0	530.0	535.0	540.0	545.0	550.0	555.0	560.0	565.0	570.0	575.0	580.0	585.0	590.0	595.0	600.0
230.0	33.71	495.7	1291	326.7	15.19	8.394	6.796	5.453	4.885	4.584	3.918	3.487	3.194	2.815	2.451	2.056	1.899	1.575	1.411	1.236	1.209	1.100	1.116	1.023	0.960	0.864	0.835	0.781	0.841	0.813	0.802	0.668	0.735	0.704	0.644	0.627	0.599	0.530	0.522	0.555	0.503	0.525	0.543	0.482	0.460	0.512	0.614	1.973	3.789	3.122	1.326	0.578	0.446	0.466	0.356	0.391	0.407	0.420	0.437	0.436	0.422	0.432	0.430	0.448	0.413	0.423	0.439	0.397	0.469	0.479	0.419	0.436	0.473	0.475	0.454	0.516	0.468
235.0	37.70	149.3	1008	2104	418.4	25.38	8.105	6.518	5.790	5.114	4.156	3.357	3.102	2.590	2.934	2.173	1.821	1.356	1.419	1.355	1.200	0.997	1.034	0.979	1.104	1.019	0.785	0.825	0.841	0.747	0.740	0.847	0.638	0.632	0.678	0.609	0.638	0.544	0.586	0.562	0.414	0.533	0.524	0.504	0.556	0.472	0.445	0.814	1.672	3.479	5.350	6.244	3.737	0.983	0.365	0.381	0.503	0.422	0.464	0.399	0.308	0.384	0.467	0.451	0.409	0.454	0.384	0.348	0.417	0.473	0.474	0.428	0.462	0.448	0.412	0.505	0.539
240.0	65.98	74.49	326.2	2001	2622	330.1	12.78	8.214	5.905	5.148	4.541	3.086	3.493	2.462	2.618	2.286	1.740	1.412	1.621	1.193	1.250	1.132	1.075	1.147	0.968	1.002	0.780	0.850	0.857	0.651	0.749	0.811	0.623	0.718	0.619	0.594	0.599	0.524	0.658	0.559	0.441	0.632	0.655	0.488	0.574	0.673	0.440	0.520	0.676	1.289	3.043	7.702	10.59	7.443	2.682	0.675	0.492	0.457	0.404	0.394	0.334	0.331	0.429	0.423	0.376	0.539	0.433	0.337	0.439	0.485	0.497	0.353	0.526	0.425	0.385	0.526	0.484
245.0	61.49	118.0	117.5	681.4	2848	2633	254.8	8.418	6.231	5.750	4.662	3.429	3.728	3.003	2.447	2.472	1.776	1.729	1.566	1.262	1.537	1.223	1.219	1.012	1.079	0.883	0.954	0.855	0.833	0.766	0.681	0.855	0.524	0.701	0.515	0.631	0.503	0.559	0.601	0.600	0.366	0.497	0.580	0.518	0.516	0.569	0.681	0.830	0.588	0.568	1.023	2.696	6.663	11.40	12.02	6.622	1.726	0.545	0.417	0.436	0.360	0.360	0.454	0.419	0.429	0.418	0.481	0.378	0.517	0.494	0.440	0.362	0.505	0.477	0.538	0.462	0.490
250.0	35.39	102.1	192.2	228.3	889.6	2524	2913	944.3	47.50	6.484	5.461	4.683	3.580	2.952	2.387	2.320	1.843	1.719	1.506	1.436	1.339	1.220	1.076	0.964	1.125	0.879	0.900	0.879	0.907	0.761	0.653	0.747	0.675	0.721	0.598	0.684	0.622	0.533	0.586	0.585	0.454	0.482	0.498	0.456	0.513	0.446	0.555	0.794	0.927	0.911	0.777	1.002	1.840	3.647	6.601	9.353	10.98	9.471	5.485	1.840	0.481	0.415	0.356	0.433	0.410	0.394	0.471	0.478	0.417	0.429	0.452	0.493	0.450	0.468	0.545	0.480	0.487
255.0	34.03	42.63	155.4	314.4	279.4	632.0	1997	3922	1299	41.34	5.890	5.602	4.146	3.507	2.893	2.449	1.796	1.786	1.308	1.241	1.441	1.368	0.973	0.953	0.939	0.965	1.007	0.910	0.830	0.787	0.984	0.715	0.727	0.790	0.607	0.592	0.664	0.606	0.514	0.548	0.501	0.508	0.594	0.562	0.465	0.412	0.487	0.518	0.584	0.898	1.418	1.504	1.054	1.201	1.916	2.397	4.078	8.127	14.29	14.78	7.911	1.792	0.533	0.515	0.422	0.424	0.480	0.438	0.450	0.361	0.448	0.511	0.491	0.508	0.474	0.414	0.465
260.0	28.02	25.89	64.63	280.6	325.2	190.9	583.9	2918	4020	247.9	20.78	6.745	5.254	4.134	2.859	2.561	2.561	1.818	1.321	1.275	1.305	1.413	1.257	1.100	0.953	0.847	0.992	0.847	0.849	0.757	0.992	0.774	0.731	0.703	0.575	0.551	0.619	0.532	0.514	0.550	0.497	0.607	0.510	0.599	0.525	0.422	0.489	0.501	0.471	0.526	0.945	1.640	2.038	1.397	1.074	0.950	1.323	2.412	6.037	12.88	18.89	14.54	5.544	1.021	0.447	0.554	0.396	0.393	0.502	0.427	0.380	0.490	0.485	0.441	0.483	0.437	0.481
265.0	27.20	22.33	28.85	129.5	398.5	252.9	162.4	902.7	3579	3746	204.9	11.48	5.674	4.330	3.391	2.512	2.460	2.264	1.439	1.545	1.489	1.317	1.267	1.185	1.009	0.912	0.965	0.772	0.970	0.771	0.885	0.741	0.649	0.690	0.605	0.533	0.703	0.477	0.561	0.529	0.403	0.500	0.509	0.500	0.503	0.371	0.475	0.463	0.396	0.455	0.509	0.816	1.659	2.132	1.768	1.020	0.681	0.959	1.832	3.826	9.479	17.71	20.49	12.57	3.530	0.674	0.417	0.341	0.564	0.514	0.528	0.408	0.558	0.450	0.450	0.505	0.383
270.0	26.91	25.10	23.60	43.78	174.7	394.4	277.5	250.5	1039	3016	4027	833.1	59.26	5.874	4.003	3.210	2.367	2.334	1.699	1.644	1.598	1.143	1.187	0.994	1.040	1.045	1.039	0.863	0.859	0.786	0.922	0.795	0.765	0.734	0.713	0.579	0.594	0.531	0.569	0.481	0.532	0.474	0.489	0.492	0.496	0.497	0.449	0.495	0.440	0.396	0.382	0.556	0.733	1.139	1.662	2.097	2.116	1.365	0.890	1.247	2.567	5.120	9.185	14.38	17.89	15.78	9.517	2.741	0.648	0.460	0.468	0.467	0.465	0.496	0.464	0.406	0.424
275.0	43.63	35.77	35.95	29.45	52.03	157.9	485.6	322.9	280.5	746.4	2127	5376	1283	66.18	5.009	3.505	2.666	2.315	1.860	1.679	1.518	1.421	1.259	1.057	1.159	1.169	0.990	0.895	0.860	0.893	0.896	0.793	0.801	0.735	0.693	0.633	0.489	0.653	0.628	0.647	0.561	0.497	0.445	0.403	0.392	0.554	0.500	0.529	0.431	0.472	0.401	0.423	0.578	0.595	0.720	1.041	2.038	3.128	2.342	1.177	1.087	1.470	2.553	3.825	5.307	10.62	20.87	24.90	13.68	2.620	0.527	0.544	0.470	0.590	0.473	0.520	0.453
280.0	54.26	71.40	67.71	39.91	32.96	58.50	276.3	618.6	257.1	249.9	633.6	3212	5666	945.3	34.28	4.798	3.285	2.615	1.771	2.070	1.590	1.457	1.332	1.002	1.072	1.095	0.946	0.757	0.955	0.971	0.888	0.795	0.753	0.815	0.679	0.629	0.555	0.523	0.466	0.542	0.452	0.444	0.436	0.507	0.457	0.573	0.582	0.568	0.492	0.467	0.476	0.470	0.504	0.551	0.503	0.561	0.937	1.773	3.518	3.027	1.772	1.091	1.174	1.340	1.889	3.335	7.411	17.33	27.17	22.87	8.770	1.241	0.490	0.512	0.461	0.606	0.568
285.0	72.60	120.8	125.5	61.94	37.20	41.14	115.2	491.7	646.3	251.5	326.0	1033	3722	5373	684.5	13.20	4.443	3.018	2.162	2.001	2.015	1.677	1.433	1.209	1.263	1.030	0.915	0.983	0.809	1.045	0.912	0.990	0.908	0.885	0.592	0.573	0.541	0.542	0.538	0.484	0.520	0.580	0.438	0.506	0.655	0.782	0.626	0.807	0.791	0.740	0.524	0.629	0.553	0.485	0.552	0.487	0.684	0.848	1.788	3.082	4.162	2.801	1.422	1.189	1.441	1.841	2.700	5.345	11.06	22.28	28.64	18.28	4.166	0.692	0.578	0.584	0.574
290.0	121.6	218.8	221.2	114.6	61.12	54.41	91.30	239.6	629.7	800.1	519.9	581.8	1197	3081	4329	1818	39.15	4.526	2.853	2.278	2.034	1.617	1.648	1.378	1.384	1.130	1.031	1.034	0.903	0.885	0.896	0.832	0.752	0.880	0.693	0.597	0.589	0.522	0.523	0.564	0.569	0.515	0.572	0.629	0.585	0.736	0.851	1.080	1.141	0.882	0.718	0.706	0.646	0.533	0.595	0.643	0.677	0.715	1.133	1.594	2.505	3.592	4.032	3.623	2.531	2.261	2.287	2.780	4.259	6.775	11.28	17.68	21.78	19.50	11.75	3.355	0.669
295.0	152.6	295.2	305.2	161.0	82.06	85.98	113.1	205.8	395.7	849.4	1174	701.1	672.9	905.2	1565	4735	779.0	48.61	4.523	2.952	2.429	1.794	1.625	1.410	1.246	1.107	0.930	1.015	1.172	0.917	0.984	0.928	0.649	0.797	0.911	0.591	0.676	0.508	0.634	0.480	0.655	0.484	0.606	0.610	0.701	0.861	1.071	1.391	1.393	1.228	0.886	0.830	0.726	0.580	0.644	0.712	0.775	0.896	1.069	1.329	1.668	2.213	3.079	4.748	5.720	4.628	3.351	2.885	3.154	3.499	3.748	4.920	6.298	11.77	23.92	29.83	16.40
300.0	160.9	327.3	332.2	189.6	107.2	115.2	158.3	237.2	381.6	690.2	1372	1179	687.3	495.9	501.3	2127	4820	642.4	29.33	3.961	2.725	2.012	1.626	1.620	1.280	1.146	1.049	1.047	1.054	0.977	1.144	0.876	0.789	0.749	0.859	0.771	0.701	0.622	0.696	0.540	0.575	0.550	0.667	0.739	0.665	0.907	1.219	1.407	1.498	1.223	1.077	0.946	0.809	0.679	0.738	0.830	0.859	1.128	1.246	1.394	1.745	2.036	2.593	3.551	5.178	6.674	6.116	3.894	3.192	2.911	2.420	2.214	2.443	3.623	8.066	19.70	31.40
305.0	185.0	348.8	370.1	230.1	138.2	151.6	215.1	320.3	473.0	729.7	1179	1673	1077	538.0	368.7	694.6	2800	4637	498.4	11.94	3.385	2.646	1.644	1.723	1.420	1.360	1.196	1.115	1.068	0.974	0.984	0.907	0.648	0.713	0.725	0.722	0.631	0.707	0.653	0.618	0.685	0.476	0.589	0.652	0.660	0.887	1.254	1.499	1.658	1.254	1.113	0.984	0.997	0.874	0.937	0.938	1.055	1.392	1.557	1.875	2.195	2.570	2.714	3.463	4.111	5.555	6.839	6.544	5.123	3.651	2.639	2.055	2.017	2.157	3.177	6.005	12.32
310.0	173.5	334.8	376.8	245.2	168.5	187.4	255.8	369.0	525.6	751.6	1013	1376	1480	847.9	429.0	393.1	865.4	2462	3518	1490	29.67	3.593	2.550	1.874	1.601	1.480	1.253	1.213	1.185	0.953	0.976	0.944	0.734	0.830	0.781	0.635	0.692	0.676	0.637	0.591	0.664	0.550	0.635	0.618	0.692	0.964	1.219	1.431	1.645	1.319	1.166	1.159	1.117	0.873	1.140	1.050	1.355	1.606	1.752	2.125	2.267	2.782	3.145	3.868	4.095	4.412	4.984	6.008	6.468	5.913	4.368	2.857	2.368	2.231	2.290	2.662	4.105
315.0	163.9	335.6	390.1	265.3	198.1	210.4	290.1	393.7	542.3	748.1	949.0	1099	1180	1240	681.1	372.7	423.2	732.4	1234	3745	2030	37.58	3.650	2.366	2.066	1.366	1.292	1.208	1.166	1.010	1.053	1.056	0.843	0.796	0.713	0.691	0.660	0.592	0.642	0.662	0.546	0.602	0.587	0.702	0.770	0.836	1.021	1.506	1.590	1.359	1.121	1.179	1.162	1.114	1.129	1.235	1.620	1.500	1.733	2.040	2.340	2.673	3.308	3.652	3.873	4.132	4.244	4.626	4.669	5.406	6.096	5.699	3.549	2.633	2.283	2.250	2.436
320.0	178.8	399.3	485.1	330.1	230.2	233.5	320.5	412.8	555.0	754.6	945.3	1035	1032	1096	1030	482.3	360.0	364.1	364.7	1634	4047	492.6	22.48	3.410	2.282	1.674	1.376	1.251	1.081	1.005	1.209	1.005	0.809	0.790	0.777	0.677	0.778	0.730	0.595	0.539	0.574	0.605	0.548	0.641	0.714	0.930	1.053	1.789	1.816	1.599	1.252	1.356	1.244	1.156	1.130	1.233	1.670	1.655	2.051	2.243	2.464	2.879	3.143	3.877	3.687	4.118	4.428	4.354	4.398	4.576	4.740	5.943	5.664	4.012	2.788	2.252	2.346
325.0	201.4	524.8	691.4	467.3	286.1	263.7	336.3	427.0	566.5	747.4	928.3	1023	1001	911.3	1058	762.2	388.5	297.8	181.6	447.7	2188	3492	395.8	10.42	2.695	1.850	1.537	1.627	1.337	1.022	1.255	0.936	0.895	0.887	0.691	0.815	0.736	0.699	0.586	0.612	0.672	0.649	0.564	0.656	0.923	1.041	1.456	2.000	2.459	2.205	1.550	1.739	1.410	1.258	1.385	1.337	1.512	1.582	2.034	2.216	2.495	2.876	3.140	3.768	3.777	4.059	4.266	4.384	4.508	4.573	4.102	4.291	5.181	5.730	4.507	3.065	2.513
330.0	218.0	591.0	862.1	649.5	416.0	321.1	348.4	434.7	552.3	707.2	882.8	963.0	952.8	837.6	801.6	852.2	628.7	325.5	173.0	186.8	582.8	1809	2778	1202	25.48	2.945	1.767	1.765	1.234	1.189	1.117	1.028	0.928	0.896	0.847	0.779	0.674	0.657	0.597	0.650	0.585	0.684	0.583	0.663	0.856	1.085	1.410	2.190	2.725	2.846	2.319	2.224	2.112	1.739	1.648	1.590	1.691	1.791	1.932	2.212	2.476	2.789	3.154	3.577	3.702	3.864	3.930	4.167	4.300	4.157	3.660	3.819	3.913	4.300	4.800	4.431	3.837
335.0	230.1	634.6	1029	852.3	581.5	414.1	379.1	441.3	535.5	682.0	841.9	939.1	920.6	826.2	724.1	661.6	760.3	542.8	224.4	161.8	221.5	473.7	1005	3094	1687	33.47	2.863	2.028	1.499	1.211	1.192	1.045	1.011	0.961	0.793	0.601	0.623	0.773	0.586	0.598	0.578	0.597	0.594	0.708	0.746	1.061	1.561	2.524	3.252	3.283	2.892	3.043	2.718	2.317	2.094	1.724	1.879	1.794	1.846	2.270	2.482	2.808	2.944	3.455	3.537	3.532	4.093	3.940	4.144	3.996	3.976	3.910	3.776	3.597	3.733	3.727	4.382
340.0	234.1	682.1	1089	925.2	668.4	453.2	386.7	439.5	528.1	657.9	799.1	892.2	881.7	811.6	709.4	593.5	606.5	679.8	339.0	177.5	157.3	186.5	290.7	1418	3299	410.7	20.67	2.504	1.985	1.254	1.152	1.217	1.038	0.927	0.736	0.737	0.668	0.685	0.817	0.655	0.554	0.614	0.700	0.585	0.700	1.019	1.570	2.558	3.298	3.431	3.179	3.337	3.106	2.609	2.226	1.833	1.963	1.802	2.082	2.091	2.337	2.612	3.033	2.998	3.220	3.496	3.623	3.787	3.872	3.878	3.864	3.848	3.489	3.472	3.613	3.051	3.222
345.0	212.4	617.0	1029	952.2	697.7	472.2	394.2	430.9	510.5	615.3	740.7	828.9	823.5	763.0	674.7	563.7	492.3	585.9	513.6	233.3	157.4	136.1	136.7	391.0	1846	2783	335.6	8.789	2.318	1.586	1.443	1.081	1.057	0.964	0.902	0.845	0.657	0.692	0.594	0.670	0.530	0.560	0.547	0.646	0.744	1.027	1.548	2.407	3.293	3.434	3.239	3.329	2.781	2.705	2.374	1.999	2.000	1.852	1.955	2.098	2.115	2.420	2.638	2.825	3.097	3.297	3.406	3.656	3.602	3.603	3.652	3.649	3.466	3.353	3.222	3.006	2.963
350.0	197.1	544.0	929.7	919.5	722.7	511.8	414.4	427.2	488.1	573.0	674.1	742.0	750.2	704.3	634.3	541.7	455.3	434.6	482.8	414.4	220.6	150.9	125.8	157.3	488.6	1484	2190	927.3	21.99	2.483	1.704	1.457	1.030	0.886	0.831	0.784	0.797	0.613	0.678	0.574	0.564	0.559	0.579	0.703	0.706	1.007	1.359	2.194	2.900	3.111	3.030	3.413	3.178	2.879	2.526	1.978	2.034	1.919	1.915	2.110	2.196	2.256	2.622	2.625	2.875	2.970	2.988	3.294	3.273	3.198	3.457	3.435	3.402	3.145	3.123	3.007	2.894
355.0	169.2	485.9	829.6	859.9	730.4	530.7	441.1	434.9	485.7	554.2	622.3	677.0	686.3	653.1	601.9	518.6	447.8	393.8	366.0	437.8	397.9	206.1	149.9	128.8	174.2	375.5	809.4	2408	1342	25.15	2.434	1.855	1.210	1.032	0.874	0.754	0.793	0.716	0.695	0.573	0.526	0.581	0.635	0.624	0.798	0.951	1.199	1.922	2.482	2.701	2.979	3.258	3.042	2.914	2.474	2.196	2.095	2.152	2.107	2.328	2.175	2.175	2.617	2.570	2.633	2.695	2.806	3.000	3.096	3.081	3.151	3.091	3.137	2.939	2.945	2.895	2.849
360.0	169.1	449.3	742.0	800.9	696.4	538.4	449.0	435.4	479.7	524.8	587.3	627.8	634.8	611.3	569.3	503.3	440.6	385.4	340.9	356.4	462.9	311.8	178.3	140.1	119.4	135.2	224.8	1117	2670	355.3	15.03	2.283	1.701	1.285	1.097	0.752	0.809	0.752	0.638	0.535	0.666	0.620	0.625	0.651	0.711	0.892	1.221	1.737	2.309	2.546	2.651	3.121	3.015	2.868	2.558	2.184	1.988	2.226	2.080	2.166	2.063	2.233	2.327	2.209	2.361	2.544	2.476	2.783	2.863	2.916	2.884	2.765	2.934	2.985	3.155	2.853	2.978
365.0	154.9	389.8	672.1	753.3	683.5	546.4	460.9	448.4	480.8	524.6	571.6	597.0	598.3	578.2	540.9	490.9	432.4	383.7	345.7	322.7	394.4	431.8	249.4	163.1	125.2	99.95	98.66	303.0	1505	2303	294.0	4.428	2.062	1.598	1.171	0.773	0.728	0.677	0.766	0.728	0.700	0.653	0.598	0.747	0.713	0.900	0.999	1.544	2.083	2.277	2.289	2.792	2.940	2.710	2.568	2.135	1.921	2.167	2.038	2.109	2.221	2.346	2.176	2.280	2.320	2.719	2.771	2.621	2.736	2.711	2.690	2.553	2.608	2.813	2.935	2.730	2.927
370.0	142.6	341.5	589.2	696.1	667.6	554.8	473.1	454.4	477.3	509.3	538.4	562.8	560.4	541.4	509.6	469.7	428.6	388.8	356.3	330.9	332.0	395.5	385.6	237.7	155.5	117.4	92.71	115.9	397.6	1368	1893	635.2	15.53	2.052	1.290	1.006	0.810	0.903	0.645	0.681	0.659	0.654	0.569	0.625	0.688	0.856	1.003	1.543	1.817	2.016	2.287	2.604	2.871	2.631	2.486	2.064	2.205	2.154	2.151	2.154	2.153	2.327	2.184	2.392	2.323	2.391	2.596	2.599	2.575	2.608	2.538	2.627	2.586	2.542	2.668	2.790	2.677
375.0	122.1	320.6	518.2	648.3	628.8	567.6	487.2	469.9	478.2	503.7	525.3	540.9	533.3	503.6	482.8	449.8	419.6	395.5	369.6	344.5	334.9	333.3	382.7	376.4	216.8	148.8	114.8	94.94	134.2	339.4	760.2	2111	331.9	17.63	1.848	1.171	1.040	0.838	0.866	0.684	0.677	0.644	0.608	0.544	0.736	0.801	1.019	1.364	1.639	1.918	2.034	2.481	2.767	2.340	2.475	2.136	2.196	1.977	2.123	2.244	2.141	2.434	2.178	2.390	2.294	2.202	2.414	2.500	2.447	2.550	2.637	2.512	2.429	2.441	2.575	2.526	2.818
380.0	116.3	290.0	475.3	604.6	622.6	560.8	501.9	473.4	473.4	497.8	509.2	514.3	515.3	484.3	467.0	446.9	414.6	395.6	374.5	357.7	343.3	327.7	335.6	402.6	312.8	183.3	137.7	104.6	90.66	114.5	204.0	1184	1921	274.8	7.936	1.550	1.194	0.918	0.833	0.670	0.647	0.611	0.692	0.740	0.750	0.844	0.875	1.375	1.638	1.755	1.875	2.391	2.740	2.328	2.382	2.170	2.107	2.144	2.178	2.243	2.209	2.391	2.186	2.409	2.211	2.209	2.479	2.337	2.497	2.363	2.452	2.435	2.511	2.520	2.561	2.697	2.835
385.0	106.4	262.0	450.2	560.8	595.3	549.8	511.8	477.2	480.2	482.1	502.6	506.8	495.0	470.9	456.3	428.4	408.5	391.9	377.7	362.7	354.2	335.5	319.3	352.2	384.4	244.1	159.1	122.2	93.77	72.42	79.73	326.9	1364	1635	201.5	3.672	1.449	1.030	0.904	0.594	0.695	0.688	0.717	0.639	0.724	0.696	0.809	1.245	1.455	1.627	1.780	2.128	2.502	2.328	2.342	2.112	2.214	2.083	2.046	2.160	2.103	2.519	2.103	2.201	2.349	2.131	2.366	2.138	2.327	2.343	2.308	2.249	2.372	2.506	2.616	2.438	2.761
390.0	101.8	241.9	419.9	531.9	570.4	549.5	515.4	492.2	483.8	490.2	493.0	490.7	475.5	453.0	435.0	411.1	395.2	385.4	376.5	364.6	359.0	346.6	329.1	317.3	342.0	332.0	222.5	146.8	111.8	82.70	65.22	104.0	368.7	1044	1322	463.0	13.03	1.517	1.100	0.856	0.734	0.676	0.712	0.657	0.628	0.734	0.861	1.248	1.367	1.557	1.667	2.108	2.351	2.343	2.364	2.280	2.350	2.182	2.168	2.184	2.158	2.429	2.142	2.182	2.282	2.197	2.167	2.161	2.375	2.356	2.225	2.232	2.315	2.448	2.410	2.412	2.454
395.0	106.3	240.3	394.8	496.1	552.2	542.6	513.4	493.5	477.7	483.0	483.9	470.2	457.1	439.4	419.6	396.5	382.5	377.9	373.2	366.2	356.5	346.9	334.7	313.0	300.0	311.8	314.6	198.7	136.8	103.7	77.60	65.32	111.0	255.8	598.7	1465	273.3	14.81	1.812	1.095	0.900	0.799	0.686	0.686	0.601	0.754	0.932	1.107	1.297	1.443	1.697	2.226	2.376	2.283	2.436	2.370	2.331	2.234	2.283	2.102	2.317	2.296	2.099	2.218	2.071	2.114	2.109	2.030	2.390	2.271	2.131	2.188	2.242	2.409	2.222	2.432	2.542
400.0	109.9	225.0	379.7	494.1	535.0	534.6	519.0	493.8	482.3	483.3	480.3	469.0	448.3	424.8	408.7	390.6	375.3	369.2	367.6	364.7	358.0	347.2	334.7	314.2	295.1	276.3	318.7	267.1	165.8	120.1	89.89	64.94	60.14	81.84	159.7	797.1	1354	229.4	6.781	1.454	0.985	0.810	0.688	0.746	0.658	0.777	0.795	1.133	1.378	1.358	1.638	2.009	2.222	2.182	2.508	2.366	2.213	2.056	2.222	2.421	2.306	2.153	2.144	2.245	2.220	2.096	2.061	2.034	2.105	2.182	2.001	2.349	2.247	2.260	2.132	2.384	2.598
405.0	104.6	217.1	354.9	475.0	510.5	528.5	517.9	499.9	485.9	481.1	475.1	464.4	443.3	419.5	397.7	376.0	365.9	360.0	358.1	354.2	352.5	347.4	332.4	318.2	298.0	269.5	277.6	304.3	215.4	136.9	104.0	74.95	57.07	48.67	56.05	217.2	929.4	1184	170.8	3.094	1.309	0.840	0.732	0.712	0.687	0.849	0.798	1.128	1.235	1.398	1.486	1.862	2.089	2.199	2.532	2.182	2.206	2.098	2.305	2.363	2.277	2.139	2.129	2.186	2.239	2.066	2.027	2.109	2.060	2.151	1.886	2.154	2.180	2.261	2.311	2.268	2.387
410.0	95.83	201.4	339.0	451.1	518.4	524.0	517.5	496.9	486.0	473.6	474.5	460.5	433.8	408.7	383.9	362.3	348.5	345.1	343.0	343.2	339.2	334.5	327.5	314.5	294.8	271.1	255.7	267.1	268.7	183.5	124.1	89.34	67.00	50.79	40.29	69.27	250.2	737.1	965.1	342.2	11.40	1.353	0.978	0.862	0.781	0.768	0.933	1.115	1.193	1.270	1.415	1.872	2.104	2.222	2.296	2.227	2.292	2.154	2.374	2.277	2.288	2.144	2.132	2.135	2.182	2.142	2.114	2.073	2.066	2.028	1.983	2.079	2.082	2.172	2.103	2.238	2.182
