Sample:	'1
File name:	t2025032804金星厂内雨水井2.FD3
Run date:	'15:13:53, 03/28/2025
Operator:	Administrator
Comment:	'

Instrument
Model:	F-2700 FL Spectrophotometer
Serial number:	23B8-004
ROM Version:	4J14000 07

Instrument parameters
Measurement type:	3-D scan
Data mode:	Fluorescence
EX  Start WL:	220.0 nm
EX  End WL:	600.0 nm
EX Sampling interval:	5.0 nm
EM  Start WL:	230.0 nm
EM  End WL:	650.0 nm
EM Sampling interval:	5.0 nm
Scan speed:	12000 nm/min
EX Slit:	5.0 nm
EM Slit:	5.0 nm
PMT Voltage:	700 V
Response:	Auto 
Corrected spectra:	Off
Contour interval:	50.000

Peak integration
Integration method:	Rectangular
Sensitivity:	1
Threshold:	1.000

Peaks
No.	ApexEX/EM(nm)	Height(Data)
1	225.0/335.0	3602
2	235.0/400.0	1763
3	235.0/410.0	1759
4	240.0/525.0	244.3
5	245.0/535.0	187.6
6	250.0/550.0	160.0
7	255.0/565.0	170.8
8	265.0/585.0	302.8
9	270.0/300.0	4334
10	270.0/595.0	326.9
11	395.0/305.0	7.042
12	410.0/480.0	61.32
13	430.0/505.0	32.66
14	445.0/300.0	9.121
15	445.0/525.0	19.24
16	455.0/340.0	10.18
17	455.0/540.0	12.81
18	480.0/355.0	9.361
19	485.0/350.0	9.424
20	545.0/300.0	18.52
21	555.0/305.0	18.34

Data points
	220.0	225.0	230.0	235.0	240.0	245.0	250.0	255.0	260.0	265.0	270.0	275.0	280.0	285.0	290.0	295.0	300.0	305.0	310.0	315.0	320.0	325.0	330.0	335.0	340.0	345.0	350.0	355.0	360.0	365.0	370.0	375.0	380.0	385.0	390.0	395.0	400.0	405.0	410.0	415.0	420.0	425.0	430.0	435.0	440.0	445.0	450.0	455.0	460.0	465.0	470.0	475.0	480.0	485.0	490.0	495.0	500.0	505.0	510.0	515.0	520.0	525.0	530.0	535.0	540.0	545.0	550.0	555.0	560.0	565.0	570.0	575.0	580.0	585.0	590.0	595.0	600.0
230.0	82.75	1902	4014	913.5	33.30	6.990	5.664	4.825	4.977	5.081	5.120	4.496	4.376	3.725	3.435	2.960	2.447	2.481	2.275	2.313	1.908	1.923	1.745	1.695	1.615	1.557	1.451	1.394	1.331	1.320	1.423	1.300	1.257	1.134	0.966	1.032	0.876	0.792	0.720	0.721	0.727	0.834	0.848	0.653	0.615	0.601	2.575	9.247	13.99	9.370	3.120	0.669	0.419	0.402	0.384	0.365	0.327	0.325	0.280	0.263	0.238	0.252	0.219	0.227	0.234	0.206	0.201	0.166	0.142	0.194	0.166	0.140	0.133	0.139	0.111	0.136	0.121
235.0	106.7	529.0	2791	4295	610.1	59.38	8.378	6.689	6.481	5.718	5.554	5.405	4.821	4.084	3.795	3.189	2.748	2.770	2.146	2.134	1.802	1.903	1.961	1.856	1.862	1.444	1.396	1.458	1.328	1.354	1.475	1.396	1.127	1.093	0.975	1.037	0.937	0.768	0.788	0.662	0.624	0.796	0.820	0.791	0.820	0.663	1.050	2.658	5.799	10.65	14.31	14.51	6.574	1.418	0.403	0.301	0.352	0.386	0.329	0.289	0.265	0.296	0.246	0.240	0.227	0.232	0.220	0.155	0.154	0.277	0.220	0.158	0.164	0.116	0.113	0.184	0.128
240.0	161.6	197.5	878.4	4085	4672	491.6	31.04	9.397	7.317	6.225	6.128	5.522	5.213	4.854	4.121	3.280	3.153	2.872	2.385	2.362	1.992	2.098	1.923	1.998	1.990	1.653	1.699	1.610	1.300	1.427	1.372	1.458	1.062	1.212	1.002	1.085	0.950	0.666	0.759	0.817	0.674	0.672	0.741	0.749	0.872	0.912	0.987	1.062	1.723	3.364	8.703	20.17	24.07	16.20	5.224	0.765	0.413	0.422	0.370	0.305	0.299	0.281	0.256	0.200	0.244	0.196	0.250	0.165	0.175	0.306	0.132	0.212	0.130	0.143	0.110	0.126	0.110
245.0	112.2	194.2	257.7	1480	6229	4083	371.4	17.48	8.693	7.540	7.347	5.692	5.560	4.735	4.582	3.745	3.027	3.158	2.866	2.427	2.485	2.381	2.144	1.888	1.925	1.579	1.824	1.582	1.311	1.621	1.482	1.408	1.077	1.356	1.163	1.082	0.984	0.850	0.753	0.806	0.687	0.646	0.556	0.704	0.642	0.909	1.127	0.961	0.905	1.227	2.379	7.234	18.13	30.81	26.08	14.77	3.535	0.548	0.315	0.397	0.277	0.291	0.244	0.223	0.209	0.198	0.222	0.186	0.179	0.214	0.198	0.152	0.134	0.169	0.123	0.133	0.132
250.0	52.74	155.1	238.2	412.2	2101	5878	6856	1464	91.95	13.65	10.36	7.802	6.775	5.518	4.874	4.183	3.412	3.240	2.786	2.593	2.327	2.402	2.138	2.056	1.857	1.693	1.799	1.728	1.611	1.552	1.526	1.398	1.293	1.234	1.081	1.065	0.970	0.874	0.824	0.843	0.729	0.693	0.657	0.698	0.624	0.658	0.886	1.092	1.194	1.058	1.096	2.068	4.726	10.30	18.13	29.65	34.81	33.90	13.42	4.828	0.495	0.375	0.320	0.319	0.279	0.255	0.273	0.224	0.216	0.227	0.145	0.128	0.170	0.161	0.137	0.130	0.145
255.0	37.97	59.09	171.6	328.1	550.8	1532	6659	9999.9	2089	103.6	17.15	11.62	8.824	6.791	5.931	4.659	3.758	3.838	2.917	2.777	2.442	2.430	2.443	2.204	1.720	1.789	2.075	2.004	1.746	1.622	1.584	1.632	1.499	1.243	1.078	1.115	0.919	0.998	0.872	0.908	0.859	0.773	0.924	0.645	0.666	0.677	0.638	0.681	0.843	1.167	1.313	1.555	1.632	2.683	4.487	7.443	13.75	36.61	65.76	70.16	21.17	4.381	0.412	0.390	0.359	0.272	0.251	0.247	0.217	0.231	0.165	0.197	0.176	0.189	0.156	0.102	0.169
260.0	30.85	33.83	80.21	271.9	338.2	401.3	2053	9999.9	9999.9	1648	56.10	17.34	12.16	8.517	6.698	5.481	4.163	4.352	3.766	3.105	2.928	2.590	2.450	2.333	2.232	1.824	2.081	1.962	1.882	1.878	1.818	1.669	1.345	1.238	1.106	1.024	0.982	0.962	0.955	0.952	0.963	0.827	0.810	0.803	0.714	0.681	0.658	0.648	0.619	0.723	1.003	1.794	1.607	1.473	1.516	2.170	3.507	9.945	29.91	69.08	85.55	30.09	17.05	2.356	0.393	0.348	0.342	0.307	0.217	0.262	0.277	0.188	0.187	0.202	0.194	0.207	0.196
265.0	42.64	43.65	47.31	133.8	352.9	261.3	513.7	3564	9999.9	9999.9	245.5	31.16	16.42	12.56	8.965	6.734	5.640	4.806	4.189	3.326	2.797	2.641	2.877	2.393	2.174	2.206	1.979	1.982	1.993	1.854	1.756	1.939	1.373	1.432	1.166	1.175	0.999	1.039	1.036	0.958	1.048	0.897	0.871	0.798	0.766	0.784	0.555	0.665	0.576	0.604	0.647	1.001	1.680	1.917	1.478	1.163	1.262	2.673	7.286	20.37	48.60	82.37	101.6	27.71	11.04	0.975	0.429	0.376	0.273	0.254	0.298	0.242	0.218	0.167	0.165	0.224	0.194
270.0	186.9	175.2	123.6	89.40	193.9	367.2	343.3	905.4	3805	9999.9	9999.9	4332	77.76	19.42	13.02	9.592	6.800	5.675	4.577	4.386	3.613	3.238	3.072	2.907	2.518	2.412	2.361	2.293	2.179	1.965	1.978	2.102	1.788	1.728	1.582	1.488	1.331	1.322	1.291	1.340	1.274	1.169	1.287	1.126	1.164	1.121	0.928	1.013	0.944	0.761	0.616	0.726	0.941	1.298	1.688	2.136	1.959	1.591	2.254	5.269	11.93	24.31	50.98	77.18	103.5	80.76	18.06	8.810	1.183	0.428	0.425	0.324	0.277	0.237	0.275	0.295	0.280
275.0	634.2	580.5	412.6	178.1	134.1	244.1	561.2	525.8	1093	2794	9999.9	9999.9	1379	92.27	21.61	14.63	9.594	7.986	6.562	5.385	4.233	3.628	3.499	3.467	3.084	2.798	2.514	2.599	2.191	2.071	2.170	2.390	2.131	2.423	2.237	2.493	1.967	1.923	2.050	1.828	1.901	2.225	2.176	2.071	2.012	2.127	1.934	2.067	1.825	1.521	0.945	0.890	0.744	0.984	1.180	1.485	2.459	3.628	2.945	2.655	3.809	6.682	12.81	18.93	31.00	64.23	129.4	150.8	29.20	11.98	1.103	0.520	0.532	0.371	0.376	0.345	0.369
280.0	1215	1108	800.4	365.8	196.7	233.9	511.8	864.0	847.4	1278	3582	9999.9	9999.9	1103	64.20	20.45	12.94	9.988	8.020	6.411	5.362	4.099	4.167	3.420	3.426	3.034	2.599	2.608	2.255	2.366	2.350	2.537	2.347	3.103	3.131	3.325	2.959	2.569	2.544	2.468	2.856	2.680	3.047	3.298	3.321	3.532	3.323	3.239	2.922	2.228	1.567	1.173	1.146	1.212	1.237	1.240	1.930	3.227	4.108	4.368	3.654	4.047	5.549	7.060	10.03	18.24	45.90	108.4	158.1	148.0	25.42	7.096	0.794	0.468	0.520	0.434	0.410
285.0	1901	1724	1250	637.0	335.6	314.2	503.7	1059	1395	1472	2075	4763	9999.9	9999.9	802.7	37.55	17.99	13.53	9.915	7.957	6.409	5.166	4.501	4.027	3.738	3.240	2.789	2.928	2.494	2.743	2.626	2.596	2.772	3.547	4.118	4.414	3.839	3.695	3.313	3.475	3.801	3.978	4.659	4.552	4.916	5.180	4.697	4.636	4.078	3.180	2.124	1.908	1.722	1.539	1.556	1.616	2.033	2.701	3.547	5.445	6.757	6.150	5.749	6.786	7.866	9.445	15.14	31.38	66.06	143.0	189.9	132.9	19.76	2.686	0.727	0.558	0.554
290.0	2753	2500	1804	966.2	546.8	470.6	651.9	1129	1962	2562	2636	2980	4991	9999.9	9999.9	3181	56.34	21.85	13.89	10.78	7.956	6.642	5.708	4.758	4.156	3.777	3.644	3.263	2.863	3.106	2.820	2.757	3.262	4.451	5.275	5.844	5.178	4.989	4.690	4.528	4.999	5.145	5.612	6.144	6.525	6.759	6.389	6.399	5.747	4.261	3.199	2.740	2.429	2.153	2.092	2.056	2.687	3.351	4.057	5.411	7.171	9.206	10.45	11.56	11.24	11.14	11.90	15.12	21.54	39.23	71.48	116.3	143.7	108.7	96.71	14.41	4.300
295.0	3375	3037	2226	1252	713.9	602.3	804.7	1318	2141	3297	3807	3268	2579	2992	9999.9	9999.9	4650	66.96	22.96	15.74	11.19	8.715	7.006	5.879	5.137	4.456	4.287	4.108	3.350	3.427	2.727	2.975	3.790	5.255	5.913	6.702	6.339	6.080	5.856	5.692	5.909	6.270	6.804	7.491	8.013	8.339	8.046	7.821	6.869	5.244	4.085	3.818	3.107	2.867	2.497	2.624	3.347	3.751	4.696	6.162	7.792	9.887	12.03	15.10	17.02	15.64	14.26	14.34	13.38	14.87	19.99	28.83	36.63	57.44	152.3	224.6	160.9
300.0	3500	3214	2371	1405	830.5	681.7	901.9	1422	2264	3345	4334	3782	2291	1408	3047	9999.9	9999.9	682.6	50.63	22.19	14.27	10.97	8.461	7.386	5.785	5.327	4.918	4.506	3.848	3.697	3.370	3.504	3.891	5.236	6.326	7.019	6.486	6.233	6.349	6.076	6.033	6.880	7.314	7.607	8.606	9.121	8.145	8.169	7.320	5.493	4.330	4.023	3.761	3.222	2.776	3.066	3.499	4.115	5.299	6.387	8.298	10.12	12.01	14.41	17.63	18.52	17.27	15.49	13.04	10.48	9.245	10.17	10.51	14.91	42.83	113.8	227.0
305.0	3517	3178	2367	1408	869.4	741.8	948.9	1449	2300	3281	4182	4166	2456	1210	1089	3666	9999.9	9999.9	552.4	38.52	19.89	14.38	11.09	8.644	7.356	5.823	5.640	5.285	4.263	4.173	3.694	3.842	3.982	5.225	6.387	7.042	6.697	6.762	6.016	6.461	6.113	6.527	7.077	7.644	8.576	8.780	7.882	7.940	7.241	5.655	4.721	4.415	3.654	3.491	3.050	3.495	3.743	4.487	5.548	6.838	8.195	10.35	12.27	14.08	16.54	17.30	18.08	18.34	14.48	10.31	7.938	6.372	5.290	5.819	11.44	28.17	71.37
310.0	3243	2961	2201	1374	883.1	781.6	953.8	1419	2160	3037	3744	3831	2809	1431	801.5	1113	3704	9999.9	9999.9	8215	47.68	22.09	15.37	11.64	9.322	7.270	6.799	5.872	4.828	4.492	4.197	3.962	4.212	5.046	6.110	6.793	6.748	6.255	5.830	6.099	6.045	6.029	6.979	7.409	7.825	8.002	7.518	7.598	6.883	5.214	4.465	4.327	3.828	3.448	3.223	3.484	3.896	4.663	5.367	6.926	7.757	9.511	11.82	13.35	15.19	15.48	15.79	16.55	15.12	12.26	9.262	6.875	4.959	4.382	4.982	8.409	17.65
315.0	3106	2878	2060	1331	888.0	827.3	989.5	1368	1994	2754	3339	3347	2703	1899	976.6	647.8	1051	2511	9999.9	9999.9	3872	56.54	24.25	15.93	12.67	9.301	7.588	6.892	5.874	5.194	4.728	4.502	4.317	5.164	6.101	6.289	6.370	5.720	5.715	5.511	5.589	5.800	6.893	7.007	7.414	7.953	7.181	7.197	6.417	5.127	4.294	4.450	3.930	3.617	3.344	3.852	4.145	4.408	5.359	6.865	7.453	8.805	10.61	12.13	13.17	14.41	14.47	14.60	12.77	11.64	10.76	9.408	6.704	4.791	4.185	4.269	5.861
320.0	3230	2981	2122	1348	949.3	881.3	1026	1371	1919	2587	3135	3154	2564	2020	1336	667.8	512.6	728.9	2782	9999.9	9999.9	3059	45.96	21.99	16.05	11.40	8.437	8.254	6.466	6.031	5.318	4.571	4.614	5.089	5.424	5.779	6.093	5.623	5.523	5.172	5.381	5.832	7.011	7.127	7.877	8.795	7.620	7.787	6.491	5.129	4.215	4.412	4.206	3.929	3.724	3.910	4.348	4.783	5.585	6.655	7.315	8.825	10.35	11.77	12.56	13.49	13.13	13.56	12.29	11.17	9.991	9.572	9.076	6.901	4.870	3.935	3.846
325.0	3373	3231	2385	1499	1084	987.1	1105	1406	1867	2485	2997	3055	2558	1979	1592	883.2	473.7	379.3	765.2	3637	9999.9	9999.9	456.7	36.71	21.28	14.77	10.69	9.575	7.611	6.761	5.907	5.559	4.791	5.142	5.487	5.687	5.695	5.473	5.075	5.099	5.218	5.727	6.531	7.325	8.156	9.082	8.762	8.684	7.320	5.831	4.505	4.714	4.814	4.220	4.208	4.108	4.595	5.235	6.054	6.356	7.281	8.566	9.495	11.14	11.99	12.93	12.99	12.99	12.39	11.40	9.770	8.758	8.617	8.632	7.163	5.464	4.024
330.0	3297	3385	2705	1890	1464	1297	1309	1509	1892	2408	2866	2981	2615	2071	1632	1220	708.4	411.0	381.9	960.1	3754	9999.9	9999.9	8026	43.38	21.46	15.40	12.62	9.193	8.231	7.105	6.436	5.344	5.546	5.531	5.584	5.594	5.524	5.019	5.193	5.063	5.579	6.489	7.336	8.343	9.235	9.194	9.131	8.047	6.553	5.614	5.979	5.774	5.358	5.443	5.187	5.440	6.005	6.377	6.883	7.574	8.497	9.585	10.83	11.72	12.64	12.49	12.52	12.27	11.61	10.67	9.393	8.645	8.351	7.948	7.343	6.311
335.0	3423	3602	3134	2360	1966	1718	1627	1710	1970	2417	2834	2989	2746	2265	1758	1296	1033	623.8	382.5	412.7	968.5	2503	9999.9	9999.9	3373	48.44	24.04	17.94	12.56	10.29	8.284	7.096	6.211	5.474	5.659	5.769	5.583	5.684	5.115	5.228	5.259	5.452	6.097	7.709	8.389	9.339	9.236	9.869	9.258	7.532	6.968	7.426	7.264	6.979	6.543	6.728	6.734	7.155	7.132	7.742	8.245	8.941	9.809	10.67	11.96	11.99	12.31	12.48	12.19	12.42	11.30	10.25	9.581	9.126	7.719	7.030	7.120
340.0	3294	3597	3310	2734	2309	2028	1836	1813	2015	2398	2798	2938	2774	2351	1858	1342	1063	849.2	462.8	326.3	372.5	677.2	2870	9999.9	9999.9	2690	42.84	23.99	16.19	12.33	9.316	8.043	6.832	6.231	5.940	5.806	5.542	5.745	5.131	5.357	4.992	5.420	6.273	7.292	8.259	9.369	9.400	10.18	9.621	8.406	7.528	8.432	8.355	8.025	7.741	7.654	7.544	7.670	7.617	8.324	8.697	8.571	9.691	10.72	11.50	11.61	12.47	12.85	12.18	11.99	11.62	11.05	10.26	9.740	8.331	7.638	6.743
345.0	3026	3512	3349	2923	2549	2257	1979	1888	2026	2339	2705	2828	2733	2366	1892	1387	1028	902.7	618.0	343.7	262.8	285.0	744.1	3893	9999.9	9999.9	402.9	35.24	20.01	14.95	11.19	9.379	7.400	6.545	6.087	6.196	5.636	5.586	5.204	5.232	4.649	5.398	6.220	6.407	7.756	8.662	8.895	9.807	9.612	8.650	7.837	9.056	9.170	8.996	8.617	7.945	8.548	8.208	8.493	8.580	8.654	8.589	9.434	10.29	11.54	11.39	12.07	12.43	11.78	12.23	11.55	10.83	10.74	9.818	8.643	7.884	7.014
350.0	2791	3214	3245	2959	2685	2394	2077	1920	1970	2201	2523	2671	2585	2270	1858	1398	1028	820.3	708.4	488.1	283.7	225.1	286.4	961.3	4310	9999.9	9999.9	8102	39.26	21.42	15.21	11.86	8.460	7.223	6.493	6.401	5.723	5.729	5.261	5.097	4.820	5.143	5.789	6.200	7.305	8.124	8.097	9.215	9.115	8.660	8.154	9.407	9.340	9.424	8.960	8.436	8.760	8.266	8.226	8.027	8.637	8.559	9.097	9.736	10.51	10.79	11.18	11.38	11.31	11.33	11.27	10.42	10.03	9.668	8.877	7.626	7.021
355.0	2464	2912	3031	2878	2704	2385	2068	1863	1891	2049	2310	2434	2374	2130	1766	1365	1027	793.0	645.2	599.6	406.6	252.0	216.2	320.8	1039	2519	9999.9	9999.9	3082	46.26	22.03	15.60	10.68	8.861	7.004	6.515	6.444	6.258	5.499	5.127	4.635	4.957	5.324	5.888	6.444	7.496	7.826	8.612	8.507	8.266	7.732	9.082	9.361	9.206	9.054	8.576	8.517	8.103	8.171	7.538	8.459	8.179	8.716	9.121	9.612	9.710	10.37	10.14	10.59	10.29	10.41	9.859	9.323	9.108	8.486	7.513	7.138
360.0	2133	2633	2839	2747	2624	2336	1999	1787	1781	1925	2134	2239	2179	1985	1655	1313	1015	794.1	631.7	565.2	514.2	323.3	227.8	200.2	328.0	639.5	3049	9999.9	9999.9	2477	38.88	20.77	13.23	10.52	7.993	7.001	6.573	6.248	5.349	4.970	4.740	4.822	5.226	5.605	6.098	6.954	6.915	8.230	8.112	7.624	7.554	8.780	9.159	9.081	8.880	8.585	8.447	7.909	7.707	7.853	7.526	7.651	8.184	8.419	8.852	8.993	9.590	9.207	9.918	9.682	9.322	9.469	8.885	8.836	8.333	7.473	6.772
365.0	2028	2416	2624	2602	2476	2250	1923	1734	1690	1802	1965	2074	2021	1836	1564	1254	994.1	798.7	644.9	536.4	531.8	438.8	272.4	198.8	189.4	230.6	758.4	4580	9999.9	9999.9	370.2	32.92	17.06	12.85	9.638	8.189	7.086	6.316	5.813	5.173	4.826	5.116	5.048	5.243	5.835	6.651	6.537	7.869	7.761	7.152	7.294	8.312	8.778	8.596	8.701	8.115	8.306	7.707	7.411	7.524	7.396	7.025	7.480	8.219	8.288	8.375	8.891	8.703	9.087	8.807	8.864	8.461	8.737	8.040	7.503	7.388	6.693
370.0	1767	2143	2329	2386	2289	2069	1805	1612	1563	1639	1785	1852	1797	1650	1423	1172	963.3	796.5	673.0	565.6	504.0	502.0	405.3	255.0	190.2	167.8	256.5	1107	4716	9999.9	9999.9	6971	35.08	18.57	13.42	10.38	8.433	7.285	6.133	5.728	5.108	5.042	4.963	5.218	5.501	6.180	6.127	6.872	7.136	6.460	6.675	7.914	8.230	8.310	8.296	7.583	7.735	7.131	7.072	6.958	6.863	6.713	6.965	7.424	7.708	7.618	8.089	7.888	7.974	7.864	7.968	7.539	7.659	7.370	6.909	6.750	6.495
375.0	1627	1903	2099	2099	2076	1879	1650	1491	1439	1483	1603	1643	1591	1472	1287	1097	926.2	799.6	699.2	612.7	531.6	494.7	495.5	385.7	242.4	188.8	169.3	328.2	1112	2668	9999.9	9999.9	2644	39.24	19.51	14.04	10.28	8.039	6.913	6.187	5.475	5.212	5.240	4.929	5.562	5.549	5.769	6.114	6.274	6.121	5.950	7.459	7.812	7.693	7.551	7.168	7.107	6.707	6.372	6.739	6.442	6.449	6.333	6.841	7.002	6.754	7.297	7.147	6.789	7.044	7.420	6.990	7.049	6.742	6.297	6.304	6.222
380.0	1479	1757	1948	1944	1929	1782	1565	1407	1370	1401	1485	1510	1459	1350	1196	1038	906.3	809.4	722.2	650.5	571.5	515.2	494.2	473.1	323.1	225.3	173.9	172.0	319.1	657.7	3387	9999.9	9999.9	2043	33.05	17.78	12.78	9.750	7.582	6.904	5.804	5.470	5.455	4.782	5.359	5.607	5.588	6.068	6.227	5.779	5.635	7.281	7.386	7.175	6.848	6.675	6.980	6.389	6.272	6.094	5.896	6.127	6.035	6.149	6.342	6.377	6.745	6.689	6.465	6.704	6.636	6.543	6.391	6.160	6.136	5.953	6.016
385.0	1415	1714	1820	1826	1805	1674	1499	1352	1309	1341	1409	1408	1355	1269	1135	1001	892.2	817.5	748.4	692.0	619.7	557.0	511.0	493.2	420.6	281.3	201.7	157.7	157.3	216.1	828.9	4975	9999.9	9999.9	301.8	25.43	15.48	12.35	8.895	7.448	6.381	5.468	5.360	5.419	5.223	5.461	5.398	5.838	6.038	5.750	5.445	6.634	7.378	7.146	6.800	6.548	6.480	6.345	6.068	5.980	6.066	6.149	6.014	6.153	6.234	5.896	6.131	6.431	6.104	6.085	6.303	5.824	6.068	6.044	6.216	5.243	5.717
390.0	1374	1628	1759	1768	1729	1603	1448	1334	1283	1280	1318	1309	1259	1179	1066	965.1	883.5	832.7	787.3	744.4	683.1	625.5	571.8	509.2	479.4	406.5	276.8	202.9	161.1	148.7	264.8	1196	4787	9999.9	9999.9	5531	29.00	15.98	11.46	9.196	7.520	6.213	6.060	5.555	5.451	5.648	5.200	5.835	5.987	5.464	5.490	6.460	6.775	6.715	6.645	6.525	6.483	6.196	6.071	5.990	5.904	5.625	5.817	5.859	5.866	5.811	5.863	6.109	6.017	5.834	5.879	5.511	6.057	5.524	5.674	5.474	5.566
395.0	1322	1651	1694	1744	1681	1537	1423	1336	1266	1237	1261	1248	1190	1120	1024	946.3	879.6	847.3	824.4	792.7	742.4	692.5	640.3	564.9	501.4	489.0	401.9	277.6	211.5	172.5	169.5	352.5	1131	2637	9999.9	9999.9	2174	32.87	15.72	12.06	9.314	7.853	6.727	6.211	5.725	5.892	5.552	6.164	6.016	5.812	5.631	6.380	6.558	6.784	6.521	6.284	6.578	5.765	6.109	6.035	5.766	5.441	5.700	5.832	5.905	5.834	5.877	5.518	5.884	5.857	5.519	5.545	5.554	5.350	5.371	5.393	5.631
400.0	1369	1594	1706	1763	1674	1510	1408	1321	1255	1216	1233	1229	1157	1084	999.4	935.5	888.6	861.6	852.6	829.4	781.2	744.3	686.8	612.6	538.2	503.4	475.3	358.4	258.6	207.7	173.0	180.3	324.7	644.8	3216	9999.9	9999.9	1729	27.38	14.39	10.72	8.669	7.484	6.644	6.180	6.135	5.741	6.558	5.889	5.448	5.585	6.467	6.553	6.559	6.450	6.539	6.210	5.877	6.161	5.859	6.022	5.569	5.647	5.576	5.672	5.671	5.774	5.348	5.705	5.229	5.496	5.323	5.369	5.329	5.240	5.313	5.521
405.0	1330	1564	1719	1751	1661	1490	1376	1331	1268	1217	1219	1186	1130	1063	982.0	933.1	892.5	875.1	871.6	856.5	814.6	780.1	729.3	651.6	575.5	524.6	498.1	442.2	315.6	245.4	199.3	161.4	158.5	201.6	768.6	4422	9999.9	9999.9	270.6	21.36	12.56	9.983	8.672	6.784	6.433	6.425	5.944	6.708	6.081	5.670	5.489	6.430	6.708	6.672	6.198	6.379	5.997	6.014	6.233	5.987	5.769	5.668	5.648	5.483	5.406	5.579	5.702	5.441	5.432	5.412	5.403	5.445	5.038	5.430	5.133	5.165	5.623
410.0	1312	1559	1721	1759	1641	1466	1370	1314	1248	1195	1195	1158	1101	1036	973.7	916.6	890.9	880.3	878.9	869.7	833.5	805.8	764.9	691.9	622.7	562.8	509.5	474.9	411.0	308.7	240.6	181.6	138.4	114.1	217.9	1036	4163	9999.9	9999.9	4813	24.93	13.50	10.32	8.193	7.223	6.714	6.004	6.243	6.352	5.966	5.728	6.935	6.977	6.594	6.253	5.959	6.044	6.045	6.346	5.927	5.862	5.844	5.501	5.156	5.345	5.524	5.388	5.381	5.320	5.485	5.359	5.306	5.156	5.171	4.887	5.271	5.406
415.0	1304	1562	1688	1733	1600	1420	1325	1286	1245	1176	1156	1120	1059	1014	947.4	899.5	888.0	877.0	877.7	867.1	841.5	817.7	781.1	710.6	650.3	592.1	537.0	477.0	452.7	388.5	285.4	210.6	152.4	106.0	102.2	270.0	958.3	2566	9999.9	9999.9	1958	29.57	14.16	9.867	8.062	7.663	6.343	6.802	6.478	6.112	5.713	6.843	6.542	6.331	6.249	5.893	6.163	6.024	6.270	5.907	5.726	5.742	5.687	5.233	5.337	5.296	5.024	5.325	5.123	5.212	5.163	5.111	4.982	5.031	4.836	5.284	5.344
420.0	1234	1513	1666	1695	1530	1369	1291	1271	1224	1157	1135	1089	1028	989.6	926.4	880.9	860.4	861.1	859.3	856.2	835.8	810.0	777.2	714.9	654.0	607.5	551.0	488.1	450.7	422.2	331.5	233.1	164.2	112.4	81.25	102.7	247.2	604.7	2949	9999.9	9999.9	1607	24.96	12.31	9.677	8.347	6.600	6.888	6.837	6.134	5.742	6.760	6.700	6.498	6.167	5.866	5.753	5.840	6.137	5.985	5.582	5.603	5.365	5.301	5.185	5.137	5.132	5.164	4.655	5.117	5.083	5.194	5.230	5.086	4.770	5.069	4.769
425.0	1220	1443	1614	1637	1495	1320	1242	1251	1189	1141	1104	1065	1014	956.4	901.0	854.5	837.3	831.0	844.1	841.4	813.8	795.0	762.0	711.2	652.8	610.9	556.1	497.0	444.2	418.0	370.2	255.7	177.0	120.1	82.73	69.59	90.48	165.7	692.0	3723	9999.9	9999.9	255.6	17.92	11.23	9.113	7.264	7.181	6.848	5.991	5.505	7.031	6.737	6.567	5.795	5.775	5.856	5.591	5.829	5.875	5.813	5.727	5.536	5.164	4.981	5.135	5.034	5.080	4.835	4.943	4.857	4.929	4.650	4.913	4.436	4.671	4.774
