Sample:	'1
File name:	Default_20250722_164736.FD3
Run date:	'16:41:15, 07/22/2025
Operator:	Administrator
Comment:	'

Instrument
Model:	F-2700 FL Spectrophotometer
Serial number:	3064-004
ROM Version:	4J14000 07

Instrument parameters
Measurement type:	3-D scan
Data mode:	Fluorescence
EX  Start WL:	220.0 nm
EX  End WL:	600.0 nm
EX Sampling interval:	5.0 nm
EM  Start WL:	230.0 nm
EM  End WL:	650.0 nm
EM Sampling interval:	5.0 nm
Scan speed:	12000 nm/min
EX Slit:	5.0 nm
EM Slit:	5.0 nm
PMT Voltage:	700 V
Response:	Auto 
Corrected spectra:	Off
Contour interval:	50.000

Peak integration
Integration method:	Rectangular
Sensitivity:	1
Threshold:	1.000

Peaks
No.	ApexEX/EM(nm)	Height(Data)
1	225.0/570.0	53.07
2	225.0/600.0	41.89
3	230.0/615.0	29.82
4	230.0/635.0	35.72
5	235.0/355.0	754.1
6	235.0/565.0	64.66
7	240.0/520.0	245.3
8	245.0/265.0	312.7
9	245.0/535.0	232.6
10	250.0/545.0	211.4
11	255.0/280.0	609.3
12	255.0/555.0	205.8
13	260.0/285.0	799.4
14	260.0/570.0	171.9
15	265.0/290.0	881.8
16	265.0/580.0	164.9
17	270.0/295.0	 1170
18	270.0/385.0	 1408
19	270.0/595.0	138.1
20	275.0/305.0	 1339
21	275.0/605.0	122.3
22	275.0/645.0	44.93
23	280.0/310.0	 1256
24	280.0/615.0	104.6
25	285.0/315.0	 1283
26	285.0/630.0	84.17
27	290.0/320.0	 1248
28	290.0/640.0	72.21
29	295.0/330.0	 1055
30	300.0/335.0	989.6
31	305.0/340.0	 1037
32	310.0/350.0	945.3
33	315.0/355.0	960.6
34	315.0/390.0	 1200
35	320.0/360.0	 1027
36	320.0/395.0	 1201
37	335.0/380.0	 1118
38	340.0/385.0	 1100
39	440.0/515.0	70.22
40	445.0/525.0	58.54
41	505.0/275.0	2.821
42	515.0/280.0	3.353
43	520.0/285.0	4.046
44	530.0/290.0	4.495
45	540.0/295.0	5.403
46	545.0/300.0	6.375
47	550.0/305.0	6.660
48	560.0/310.0	6.021
49	570.0/315.0	6.301
50	580.0/320.0	6.620
51	585.0/325.0	6.630
52	590.0/330.0	5.800

Data points
	220.0	225.0	230.0	235.0	240.0	245.0	250.0	255.0	260.0	265.0	270.0	275.0	280.0	285.0	290.0	295.0	300.0	305.0	310.0	315.0	320.0	325.0	330.0	335.0	340.0	345.0	350.0	355.0	360.0	365.0	370.0	375.0	380.0	385.0	390.0	395.0	400.0	405.0	410.0	415.0	420.0	425.0	430.0	435.0	440.0	445.0	450.0	455.0	460.0	465.0	470.0	475.0	480.0	485.0	490.0	495.0	500.0	505.0	510.0	515.0	520.0	525.0	530.0	535.0	540.0	545.0	550.0	555.0	560.0	565.0	570.0	575.0	580.0	585.0	590.0	595.0	600.0
230.0	22.24	361.6	 2268	 1388	94.95	11.21	8.949	8.648	7.523	6.781	6.174	5.784	4.266	3.677	3.544	2.889	2.607	2.539	2.348	2.346	1.992	1.969	1.703	1.790	1.591	1.543	1.432	1.505	1.336	1.217	1.271	0.991	1.009	0.826	0.941	0.928	0.880	0.978	0.720	0.720	0.686	0.822	0.855	0.765	0.566	0.626	1.274	4.839	8.624	7.078	3.070	0.919	0.538	0.479	0.390	0.498	0.493	0.488	0.446	0.440	0.391	0.424	0.421	0.397	0.447	0.412	0.319	0.378	0.383	0.358	0.377	0.412	0.346	0.394	0.416	0.286	0.404
235.0	42.83	107.1	929.2	 3182	 1068	138.0	11.15	8.808	8.434	7.238	5.935	5.503	5.711	4.809	3.880	3.170	2.965	2.785	2.305	2.020	1.867	2.173	1.782	1.732	1.870	1.403	1.145	1.399	1.314	1.431	1.442	1.332	0.972	0.753	1.008	1.063	1.030	0.842	0.718	0.758	0.833	0.788	0.703	0.832	0.890	0.634	0.793	1.583	3.387	6.149	8.768	8.844	4.228	1.378	0.583	0.432	0.577	0.546	0.359	0.457	0.594	0.490	0.366	0.695	0.424	0.398	0.390	0.336	0.246	0.259	0.413	0.399	0.394	0.428	0.411	0.438	0.296
240.0	57.95	68.87	236.6	 1891	 3547	901.6	79.76	10.47	8.695	8.912	6.987	7.763	6.370	4.023	4.703	3.636	3.138	2.510	2.040	1.933	1.573	1.743	1.728	1.619	1.728	1.211	1.437	1.613	1.159	1.258	1.387	1.203	1.093	0.947	0.779	0.921	0.837	0.920	0.844	0.673	0.797	0.639	0.724	0.906	0.909	0.686	0.876	0.865	1.358	2.151	4.424	9.641	11.80	9.022	2.885	0.764	0.533	0.448	0.521	0.399	0.599	0.512	0.641	0.527	0.403	0.326	0.531	0.336	0.319	0.327	0.336	0.470	0.445	0.322	0.343	0.414	0.307
245.0	31.32	94.45	109.3	519.8	 2451	 4866	740.9	33.36	11.04	8.491	5.568	6.843	6.653	4.576	5.071	3.353	3.792	3.165	1.955	2.262	1.936	1.686	2.052	1.647	1.585	1.645	1.769	1.465	1.271	1.412	1.347	1.020	0.952	0.874	0.922	0.684	0.592	0.819	0.844	0.710	0.807	0.578	0.716	0.713	0.728	0.922	1.084	0.753	0.759	0.886	1.426	3.378	8.118	13.92	14.16	7.576	2.219	0.562	0.547	0.615	0.440	0.477	0.558	0.423	0.346	0.397	0.426	0.328	0.376	0.377	0.387	0.314	0.362	0.306	0.327	0.371	0.294
250.0	16.21	50.54	136.0	209.4	647.7	 3035	 3938	 2345	203.8	11.62	9.002	6.983	5.431	6.113	4.953	3.657	3.457	3.400	2.156	2.567	2.126	1.987	2.016	1.812	1.618	1.709	1.786	1.900	1.372	1.318	1.260	1.167	0.997	1.047	0.876	0.783	0.652	0.771	0.899	0.952	0.720	0.795	0.781	0.652	0.716	0.752	0.750	1.060	1.051	1.036	0.922	1.232	2.459	4.641	8.321	11.96	13.86	11.85	6.628	2.155	0.672	0.506	0.500	0.416	0.445	0.412	0.435	0.368	0.372	0.381	0.397	0.343	0.389	0.351	0.335	0.548	0.312
255.0	13.00	24.08	73.21	243.5	279.1	708.8	 1657	 5382	 3688	269.1	14.33	10.99	6.536	6.888	4.727	3.891	3.949	2.929	2.510	2.597	2.447	2.561	1.802	2.065	1.786	1.695	1.859	1.483	1.575	1.352	1.416	1.249	1.073	0.920	0.838	0.789	0.753	0.769	0.709	0.815	0.928	0.984	0.714	0.594	0.644	0.764	0.607	0.651	0.958	1.111	1.400	1.753	1.368	1.444	2.245	3.271	5.240	11.34	20.76	20.89	11.47	2.482	0.439	0.443	0.531	0.573	0.511	0.399	0.338	0.397	0.455	0.425	0.297	0.342	0.296	0.376	0.378
260.0	14.78	19.42	29.83	147.9	334.0	253.5	417.4	 2651	 7049	 3142	154.1	10.60	8.918	6.513	5.009	4.243	3.324	2.642	2.876	2.305	2.763	1.991	1.880	2.118	1.723	2.197	1.974	1.239	1.500	1.252	1.649	1.126	1.444	0.828	0.991	0.764	0.741	0.796	0.757	0.863	0.858	0.971	0.866	0.702	0.635	0.803	0.636	0.636	0.741	0.673	0.985	1.780	1.837	1.432	1.058	1.185	1.871	3.344	9.477	18.60	27.54	21.18	7.791	1.458	0.559	0.506	0.357	0.335	0.363	0.457	0.239	0.328	0.397	0.329	0.372	0.466	0.432
265.0	20.58	17.42	19.96	59.63	268.4	312.7	144.6	690.3	 4067	 7755	 2315	59.49	9.808	7.621	6.903	5.128	4.539	3.726	3.573	2.940	2.258	2.048	2.101	1.720	1.659	1.582	1.405	1.580	1.528	1.556	1.387	1.407	1.111	1.125	1.139	1.003	0.771	0.814	0.843	0.756	0.774	0.773	0.956	0.956	0.778	0.607	0.520	0.800	0.575	0.492	0.770	1.027	1.609	2.406	1.599	0.995	0.901	1.227	2.677	5.927	15.00	27.60	30.90	18.65	4.254	0.771	0.367	0.568	0.493	0.324	0.374	0.367	0.629	0.269	0.341	0.416	0.413
270.0	38.85	40.59	42.71	40.58	103.7	294.2	359.4	250.0	 1051	 3772	 7000	 3967	168.0	12.54	7.767	6.072	4.537	4.287	3.626	3.116	2.718	2.453	2.086	2.147	1.881	1.713	1.654	1.817	1.441	1.542	1.366	1.283	1.115	1.285	0.955	1.012	0.967	0.755	0.725	0.745	0.678	0.715	0.781	0.878	0.771	0.826	0.709	0.886	0.664	0.598	0.615	0.676	0.810	1.316	1.712	2.136	1.795	1.279	1.201	1.889	4.119	8.517	14.63	23.88	28.39	26.88	15.19	4.483	0.570	0.521	0.464	0.345	0.488	0.319	0.420	0.492	0.477
275.0	66.04	97.83	105.8	73.67	52.76	108.5	382.3	515.3	351.6	946.0	 2481	 8174	 2950	207.1	10.70	8.108	5.404	5.226	4.035	3.978	3.023	2.389	2.384	2.158	2.249	1.609	1.961	1.604	1.502	1.691	1.419	1.221	0.983	1.185	1.096	0.867	1.141	1.036	0.861	0.773	0.951	0.838	0.779	0.997	0.906	1.152	0.958	1.084	0.916	0.810	0.825	0.740	0.644	0.740	0.894	1.285	2.360	2.821	2.754	1.370	1.767	2.582	4.156	6.147	9.440	19.58	40.40	44.61	21.03	3.474	0.520	0.480	0.520	0.427	0.450	0.498	0.475
280.0	112.7	154.3	161.1	105.6	54.91	65.26	184.4	609.3	468.1	355.9	705.9	 3367	 9501	 2378	116.4	9.684	6.779	6.049	5.279	3.879	3.452	2.648	2.591	2.946	2.001	1.769	1.805	1.853	1.552	1.417	1.758	1.341	1.213	1.125	1.194	1.017	1.123	1.059	0.968	0.922	1.100	0.989	0.961	0.882	1.278	1.222	1.232	0.993	1.056	1.058	0.870	0.746	0.706	0.712	0.825	0.806	1.376	2.222	3.295	3.353	1.969	1.336	1.767	2.358	3.029	5.747	15.25	34.97	51.08	39.58	12.60	1.407	0.659	0.503	0.487	0.443	0.595
285.0	142.5	199.6	205.0	134.8	70.77	60.83	104.2	361.1	799.4	402.8	349.0	974.3	 4647	9999.9	 1734	56.49	8.527	6.566	5.341	4.170	3.802	3.036	2.966	2.916	2.371	1.908	1.664	1.904	1.748	1.627	1.923	1.133	1.311	1.278	1.326	1.006	1.396	1.097	1.158	1.010	1.199	0.891	1.118	1.017	1.192	1.675	1.665	1.288	1.412	1.193	0.919	0.910	0.768	0.695	0.826	0.645	1.121	1.220	1.991	3.320	4.046	2.533	1.551	1.582	1.511	2.262	4.596	10.16	22.99	46.06	54.14	29.23	5.424	0.766	0.441	0.557	0.511
290.0	170.4	242.3	265.1	172.3	96.29	83.84	107.5	206.9	540.0	881.8	457.0	483.2	 1296	 4348	 8019	 5000	100.0	11.53	6.802	5.376	4.208	3.803	3.105	2.939	2.527	2.073	1.808	1.919	1.919	1.846	1.692	1.482	1.305	1.346	0.978	1.202	1.574	1.206	1.155	1.124	1.256	1.050	1.061	1.407	1.230	1.806	1.588	1.608	1.529	1.296	1.113	0.988	1.178	0.822	0.813	0.857	1.012	0.963	1.291	1.885	2.856	3.952	4.495	3.321	2.173	2.027	2.359	3.458	6.415	12.88	23.44	34.98	41.46	35.82	19.58	4.811	0.712
295.0	179.1	258.3	280.3	199.0	126.2	117.5	148.4	198.0	324.5	650.2	 1170	518.2	596.3	 1176	 2430	 8527	 6530	132.1	9.872	7.159	5.112	4.167	3.517	3.091	2.712	2.454	2.458	1.846	2.014	2.160	1.572	1.360	1.464	1.004	1.276	1.334	1.188	1.318	1.333	1.231	1.141	1.133	1.165	1.269	1.436	1.631	1.425	1.846	1.534	1.433	1.139	1.073	1.169	0.919	1.092	1.058	1.050	1.236	1.063	1.601	1.795	2.158	3.221	4.897	5.403	3.684	2.439	2.331	2.944	4.203	6.563	9.010	12.27	25.39	53.79	53.83	25.76
300.0	190.1	272.9	281.9	211.9	163.9	157.7	179.1	227.8	306.0	477.5	 1026	 1181	560.3	538.0	727.1	 3052	9999.9	 1412	87.33	9.405	6.413	3.882	3.942	3.248	2.760	3.303	2.548	2.217	2.228	1.863	1.124	1.425	1.271	1.334	1.349	1.211	1.270	1.273	1.349	1.563	1.260	1.219	1.281	1.184	1.698	1.866	1.422	1.779	1.410	1.489	1.221	1.179	1.179	0.980	1.369	1.472	1.186	1.399	1.337	1.636	1.610	1.831	2.350	3.189	4.931	6.375	4.684	3.024	2.161	2.342	2.792	3.416	4.070	6.910	18.98	43.30	66.30
305.0	179.5	265.5	289.3	222.7	179.7	181.1	201.4	257.6	331.7	450.2	714.4	 1339	929.8	469.6	388.6	844.7	 4232	 9646	 1159	46.93	8.012	5.438	4.336	4.122	4.000	2.949	2.720	2.225	2.059	2.403	1.629	1.634	1.395	1.556	1.372	1.498	1.197	1.314	1.302	1.088	1.238	1.080	1.160	1.284	1.403	1.897	1.403	1.660	1.371	1.476	1.368	1.272	1.219	1.050	1.286	1.210	1.250	1.318	1.595	1.845	1.704	1.992	2.441	2.260	3.263	4.458	6.660	6.232	3.523	2.422	2.328	2.172	2.172	2.468	5.155	12.07	29.59
310.0	175.3	235.8	299.4	242.9	212.9	202.3	235.2	299.0	373.9	470.3	629.2	918.8	 1256	890.9	418.4	387.6	 1100	 3929	 7173	 4219	73.28	8.720	6.120	4.873	3.662	3.027	3.174	2.216	2.165	2.134	1.801	1.797	1.872	1.484	1.393	1.496	1.182	1.373	1.458	1.248	1.226	1.202	1.288	1.279	1.478	1.588	1.470	1.669	1.577	1.552	1.218	1.498	1.114	1.239	1.279	1.284	1.519	1.442	1.843	1.961	2.114	2.151	2.396	2.478	2.826	3.314	4.564	5.348	6.021	5.406	3.880	2.704	2.154	1.730	2.451	3.714	7.737
315.0	221.1	286.7	318.4	251.4	228.9	221.6	273.0	331.6	431.2	541.2	657.6	818.5	968.1	 1283	819.6	373.2	426.7	999.5	 2119	 7459	 5866	98.85	8.826	6.183	4.417	3.402	3.504	2.848	2.366	2.263	1.952	2.050	1.794	1.457	1.385	1.533	1.213	1.456	1.338	1.250	1.156	1.277	1.586	1.777	1.782	1.763	1.763	2.000	1.470	1.535	1.259	1.417	1.113	1.459	1.529	1.474	1.672	2.018	1.776	1.928	2.202	2.376	2.716	2.908	3.239	3.068	3.811	3.833	4.248	5.129	6.301	5.384	3.482	2.077	2.120	2.575	3.046
320.0	249.3	379.4	394.6	337.8	248.8	250.6	314.7	382.6	488.4	603.8	746.2	858.5	933.3	 1120	 1248	567.7	349.5	387.7	596.2	 2696	 9173	 4133	67.18	8.984	5.587	4.300	3.763	3.278	2.841	2.355	2.471	2.082	2.052	1.424	1.470	1.404	1.473	1.585	1.349	1.531	1.317	1.079	1.619	1.895	1.749	1.998	2.044	1.947	2.239	1.672	1.413	1.452	1.459	1.630	1.623	1.842	1.602	2.049	1.837	2.097	2.323	2.390	2.689	3.132	3.599	3.595	3.797	4.296	4.157	4.237	5.230	6.578	6.620	3.638	2.738	2.300	1.916
325.0	270.6	420.9	548.9	441.9	316.9	279.7	339.1	411.6	522.0	649.5	795.5	928.6	973.5	981.4	 1202	957.3	429.8	314.8	296.1	738.4	 4114	 9067	870.3	40.23	7.028	4.892	4.008	3.313	2.796	2.380	2.167	2.049	1.951	1.659	1.549	1.454	1.614	1.655	1.366	1.317	1.549	1.242	1.364	1.820	1.940	2.154	2.032	2.468	2.416	1.995	1.687	1.957	1.481	1.474	1.608	1.595	2.099	2.029	1.948	2.445	2.612	2.644	2.837	3.252	3.886	3.873	4.411	3.989	3.870	4.605	4.601	5.212	6.576	6.630	4.402	2.733	2.446
330.0	298.9	467.6	596.9	544.6	400.1	344.5	365.7	449.3	556.1	705.1	857.5	993.4	 1042	 1005	992.9	 1055	820.8	434.6	313.4	351.9	 1090	 3782	 6080	 3408	57.88	8.524	5.345	4.093	3.547	2.641	2.444	2.458	1.958	1.672	1.631	1.578	1.549	1.390	1.615	1.367	1.381	1.456	1.674	1.877	2.224	2.329	2.500	2.841	2.848	2.515	2.242	2.349	1.686	1.798	1.828	1.724	2.196	1.985	2.416	2.520	2.627	2.728	3.221	3.447	3.648	4.373	4.478	4.477	4.360	4.736	4.433	4.764	5.102	5.243	5.800	5.752	4.106
335.0	302.5	535.8	669.8	638.7	500.5	417.0	420.0	498.2	609.5	766.7	918.1	 1063	 1122	 1093	 1006	909.8	989.6	815.4	441.7	353.3	458.7	985.6	 1958	 7114	 4882	79.00	8.772	5.857	3.940	3.223	3.313	2.537	1.980	2.187	1.830	1.479	1.736	1.397	1.395	1.408	1.489	1.434	1.651	1.785	2.098	2.286	2.629	3.191	2.855	2.693	2.323	2.321	2.000	2.124	1.765	2.069	2.283	2.270	2.707	2.845	3.024	2.706	3.510	3.897	3.458	4.211	4.632	4.939	4.400	5.305	5.007	4.767	4.551	4.155	4.898	4.889	5.513
340.0	297.8	486.5	701.9	707.1	575.6	472.9	461.9	539.4	648.5	793.3	937.1	 1076	 1130	 1134	 1026	899.8	882.9	 1037	662.9	412.1	367.1	412.2	566.9	 2832	 8401	 3547	54.67	8.077	5.178	3.731	3.665	2.540	2.205	1.676	1.675	1.680	1.417	1.681	1.430	1.469	1.431	1.453	1.839	1.878	2.226	2.369	2.894	2.883	3.056	2.841	2.697	2.636	2.687	2.302	1.844	2.327	2.290	2.456	2.493	2.880	3.198	2.981	3.808	4.106	3.770	4.609	4.751	4.878	5.041	5.604	5.184	4.993	4.842	4.389	4.741	4.204	5.034
345.0	283.8	484.4	674.6	743.1	620.4	548.2	518.5	569.7	703.5	839.6	956.8	 1089	 1150	 1149	 1073	944.6	842.7	949.2	941.9	541.5	406.1	338.1	301.6	772.5	 4136	 8428	726.5	32.54	7.081	5.002	4.424	2.732	2.141	1.706	1.976	1.733	1.694	1.620	1.575	1.476	1.535	1.361	1.717	1.875	2.455	2.279	2.581	3.026	3.085	3.039	2.753	2.661	2.359	2.787	2.368	2.246	2.445	2.865	2.879	2.998	3.209	3.524	3.744	4.016	4.147	4.263	4.755	4.511	4.949	5.352	5.149	4.821	4.807	4.648	4.891	4.461	4.291
350.0	254.9	456.5	663.5	741.4	676.1	618.3	614.8	672.2	788.9	912.5	 1008	 1108	 1162	 1163	 1113	 1003	894.3	862.9	945.3	871.5	568.3	416.9	328.0	359.3	 1104	 3877	 5565	 2903	50.72	8.052	5.000	3.238	2.732	2.608	2.206	1.761	1.678	1.669	1.504	1.553	1.489	1.493	1.651	1.824	2.071	2.362	2.571	2.980	2.928	2.775	2.652	2.793	2.717	2.720	2.777	2.702	2.805	2.697	3.292	2.969	3.400	3.608	4.264	4.237	4.440	4.254	4.766	4.796	5.473	5.153	4.911	5.075	5.245	5.103	5.198	5.075	4.831
355.0	230.3	435.7	638.1	754.1	733.5	722.4	700.5	792.1	910.2	 1024	 1103	 1161	 1198	 1190	 1136	 1067	978.0	912.3	892.4	960.6	895.8	572.0	434.6	359.8	455.6	 1010	 1993	 7013	 4221	68.13	7.523	4.980	3.348	2.987	2.468	1.706	1.783	1.816	1.675	1.352	1.571	1.276	1.566	1.757	1.932	2.252	2.290	2.973	2.629	2.665	2.576	2.953	2.964	3.233	2.891	2.939	3.169	3.239	3.464	3.504	3.791	3.779	4.299	4.239	4.743	4.332	5.577	4.878	5.582	5.029	5.349	5.217	5.558	5.442	5.286	5.363	5.339
360.0	235.6	398.6	615.3	741.3	758.3	770.4	813.7	883.0	989.2	 1093	 1191	 1195	 1234	 1222	 1168	 1100	 1033	973.0	920.4	928.1	 1027	791.5	546.1	435.4	378.7	420.3	587.4	 3081	 8370	 2857	45.18	7.227	4.683	3.397	2.433	2.144	1.852	1.820	1.910	1.903	1.613	1.608	1.668	1.653	1.705	2.364	2.231	2.764	2.840	2.798	2.829	3.113	3.090	3.110	3.211	3.283	3.887	3.451	3.822	3.795	4.087	4.459	4.786	4.946	4.707	4.834	5.298	5.302	5.450	5.069	5.334	5.358	5.462	5.750	5.963	5.851	6.075
365.0	221.7	387.2	600.2	741.0	832.1	847.2	896.9	952.4	 1069	 1151	 1237	 1251	 1242	 1217	 1210	 1128	 1082	 1032	983.5	943.2	981.7	 1009	705.1	528.6	436.5	354.9	314.7	855.4	 4644	 7665	629.0	23.65	6.677	4.566	2.681	2.318	2.170	1.644	1.836	1.812	1.451	1.815	1.771	1.657	1.723	2.173	1.938	2.496	2.662	2.721	2.907	3.167	3.348	3.429	3.576	3.821	4.006	4.002	4.082	4.591	4.264	4.769	4.794	4.887	4.944	5.151	5.210	5.253	5.477	5.199	5.261	5.311	6.052	6.092	5.678	6.203	6.015
370.0	229.4	380.9	600.6	767.9	853.9	912.5	970.7	 1027	 1126	 1239	 1299	 1303	 1267	 1250	 1224	 1162	 1122	 1098	 1055	 1025	988.4	 1034	979.1	729.0	563.3	445.2	342.0	387.7	 1244	 3920	 5420	 2476	41.06	7.186	3.876	3.141	2.288	1.769	1.901	1.822	1.636	1.522	1.723	1.765	1.706	2.254	2.090	2.734	2.925	2.588	2.811	3.108	3.348	3.762	3.681	3.603	4.075	4.374	4.053	4.488	4.522	4.894	5.240	5.336	5.460	5.424	5.276	5.460	5.580	5.666	5.954	5.764	6.156	5.943	5.712	6.364	6.430
375.0	236.8	390.1	566.9	769.4	900.6	963.9	 1019	 1096	 1179	 1317	 1365	 1361	 1312	 1270	 1234	 1191	 1162	 1147	 1138	 1113	 1074	 1048	 1064	 1022	742.8	581.6	452.2	371.2	479.1	 1014	 2170	 6791	 3383	51.94	7.231	4.161	3.133	2.352	1.794	1.721	1.622	1.422	1.699	1.749	1.943	2.269	2.095	2.756	2.688	2.443	2.778	3.318	3.547	3.680	4.281	3.752	4.071	4.628	4.173	4.416	4.878	5.057	5.442	5.317	6.041	6.083	5.609	5.617	5.503	5.916	5.614	5.778	5.627	6.205	6.010	6.487	6.255
380.0	239.9	376.4	579.6	777.7	918.1	 1035	 1069	 1150	 1212	 1346	 1405	 1389	 1342	 1267	 1233	 1199	 1168	 1164	 1167	 1156	 1122	 1085	 1057	 1118	939.9	706.0	549.9	432.3	367.3	403.5	622.3	 3218	 7176	589.8	32.76	5.843	4.189	2.549	2.394	2.014	1.844	1.550	1.817	1.848	2.058	2.083	2.217	3.069	2.689	2.825	2.775	3.578	3.902	4.062	3.952	3.920	4.417	4.552	4.813	5.271	5.066	5.112	5.510	5.998	5.799	6.161	6.022	6.263	5.875	5.637	6.078	6.501	5.860	5.560	5.819	6.577	6.611
385.0	240.2	390.2	569.7	774.4	927.0	 1039	 1090	 1142	 1262	 1342	 1408	 1370	 1328	 1270	 1244	 1188	 1178	 1175	 1188	 1178	 1166	 1129	 1086	 1080	 1100	845.9	637.4	503.5	393.0	317.3	287.2	874.1	 4282	 6101	487.6	16.02	5.010	3.690	2.985	2.508	2.354	1.853	2.209	1.833	1.868	2.090	2.487	2.832	2.616	2.795	2.893	3.441	3.892	3.877	4.065	4.107	4.594	4.629	4.772	5.530	5.482	5.730	5.661	5.511	5.667	6.132	5.884	5.980	6.131	6.042	5.654	5.866	5.883	5.637	5.803	6.317	6.367
390.0	228.3	364.6	577.2	763.8	904.0	 1015	 1121	 1160	 1261	 1338	 1392	 1364	 1317	 1273	 1225	 1190	 1163	 1186	 1198	 1200	 1192	 1164	 1123	 1078	 1080	 1018	786.9	605.7	480.2	368.0	274.7	343.3	 1140	 3483	 4534	 1721	31.90	5.690	3.962	2.800	2.608	2.387	1.936	1.888	2.055	2.098	2.202	2.469	2.526	2.715	2.724	3.631	3.562	4.036	4.212	4.247	4.381	4.491	4.610	5.083	4.993	5.242	5.283	5.384	5.742	5.783	5.889	5.930	5.932	5.770	5.407	5.923	5.774	6.144	6.246	6.192	6.055
395.0	234.8	352.4	559.1	753.5	915.3	 1000	 1089	 1157	 1239	 1326	 1362	 1348	 1298	 1242	 1216	 1147	 1149	 1152	 1184	 1192	 1201	 1189	 1152	 1105	 1064	 1036	979.5	744.7	574.7	456.0	351.6	280.7	397.1	877.4	 1948	 5503	 2518	40.93	5.911	3.754	3.103	2.225	2.472	2.087	1.952	2.097	2.604	2.812	2.713	2.570	3.105	3.495	3.464	3.798	4.503	4.044	4.619	4.834	4.720	5.401	5.325	4.803	5.445	5.439	5.500	5.942	5.668	5.643	5.670	5.406	5.715	5.559	6.029	5.921	6.394	6.087	6.460
400.0	230.6	343.1	537.1	752.1	868.1	 1004	 1104	 1187	 1225	 1287	 1336	 1335	 1291	 1227	 1190	 1135	 1121	 1141	 1162	 1178	 1198	 1187	 1153	 1118	 1065	 1022	 1023	891.0	666.4	529.8	408.2	317.8	266.3	318.5	534.1	 2767	 5572	488.1	23.42	4.797	3.363	2.881	2.477	2.146	2.405	2.345	2.384	2.564	2.658	2.413	2.718	3.381	3.372	3.914	4.152	4.414	4.373	5.024	4.298	5.358	4.857	5.053	5.457	5.189	5.895	5.448	5.843	5.842	5.405	5.890	5.566	5.618	6.274	6.126	6.131	6.086	6.617
405.0	234.7	359.6	541.6	737.5	855.5	 1017	 1098	 1150	 1205	 1278	 1307	 1298	 1255	 1195	 1145	 1104	 1106	 1110	 1144	 1155	 1175	 1168	 1153	 1124	 1070	 1023	987.2	967.6	773.7	596.9	470.3	371.2	278.6	222.5	220.8	745.7	 3509	 3933	398.1	11.26	4.553	3.296	3.010	2.290	2.551	2.177	2.506	2.430	2.383	2.654	2.758	3.515	3.640	4.122	3.980	4.132	4.281	4.725	4.471	5.095	5.146	5.155	5.199	5.525	5.583	5.637	5.541	5.332	5.129	5.360	5.037	5.428	5.774	5.721	5.993	5.972	6.046
410.0	227.0	347.4	536.3	692.5	853.3	979.7	 1068	 1120	 1194	 1253	 1271	 1260	 1220	 1158	 1108	 1067	 1049	 1058	 1094	 1112	 1129	 1135	 1124	 1106	 1072	 1028	973.8	946.5	902.9	723.9	560.7	441.5	335.7	247.3	184.0	255.9	926.6	 2605	 3656	 1389	26.57	5.102	3.590	2.861	2.541	2.290	2.579	2.636	2.790	2.719	2.694	3.362	3.649	3.596	3.738	4.269	4.377	4.526	4.562	4.983	4.672	5.305	5.087	5.332	5.334	5.482	5.372	4.983	5.231	5.351	5.214	5.106	5.309	5.604	5.685	5.777	6.032
