Sample:	'1
File name:	G2025070805’≈’‘«≈.FD3
Run date:	'12:54:12, 07/09/2025
Operator:	Administrator
Comment:	'

Instrument
Model:	F-2700 FL Spectrophotometer
Serial number:	23B8-004
ROM Version:	4J14000 07

Instrument parameters
Measurement type:	3-D scan
Data mode:	Fluorescence
EX  Start WL:	220.0 nm
EX  End WL:	600.0 nm
EX Sampling interval:	5.0 nm
EM  Start WL:	230.0 nm
EM  End WL:	650.0 nm
EM Sampling interval:	5.0 nm
Scan speed:	12000 nm/min
EX Slit:	5.0 nm
EM Slit:	5.0 nm
PMT Voltage:	700 V
Response:	Auto 
Corrected spectra:	Off
Contour interval:	50.000

Peak integration
Integration method:	Rectangular
Sensitivity:	1
Threshold:	1.000

Peaks
No.	ApexEX/EM(nm)	Height(Data)
1	225.0/575.0	64.99
2	225.0/590.0	57.88
3	225.0/620.0	49.02
4	230.0/350.0	1090
5	235.0/365.0	1084
6	235.0/385.0	1062
7	235.0/515.0	283.9
8	240.0/265.0	407.8
9	240.0/380.0	1062
10	240.0/525.0	254.6
11	245.0/270.0	389.4
12	245.0/535.0	208.1
13	250.0/275.0	506.7
14	250.0/550.0	169.7
15	255.0/285.0	570.3
16	255.0/560.0	141.4
17	260.0/290.0	568.8
18	260.0/575.0	116.5
19	265.0/295.0	750.7
20	265.0/585.0	106.1
21	270.0/300.0	1023
22	270.0/600.0	94.37
23	275.0/305.0	1043
24	275.0/370.0	885.1
25	275.0/610.0	82.30
26	280.0/345.0	877.4
27	280.0/625.0	68.18
28	285.0/320.0	955.0
29	285.0/635.0	52.88
30	290.0/325.0	868.7
31	305.0/345.0	648.5
32	460.0/340.0	3.620
33	495.0/270.0	2.363
34	505.0/275.0	3.521
35	510.0/280.0	4.012
36	520.0/285.0	4.284
37	525.0/290.0	3.916
38	535.0/270.0	40.55
39	540.0/295.0	5.196
40	545.0/300.0	5.852
41	550.0/305.0	6.311
42	560.0/310.0	5.731
43	570.0/315.0	5.777
44	580.0/320.0	5.669
45	585.0/325.0	5.961

Data points
	220.0	225.0	230.0	235.0	240.0	245.0	250.0	255.0	260.0	265.0	270.0	275.0	280.0	285.0	290.0	295.0	300.0	305.0	310.0	315.0	320.0	325.0	330.0	335.0	340.0	345.0	350.0	355.0	360.0	365.0	370.0	375.0	380.0	385.0	390.0	395.0	400.0	405.0	410.0	415.0	420.0	425.0	430.0	435.0	440.0	445.0	450.0	455.0	460.0	465.0	470.0	475.0	480.0	485.0	490.0	495.0	500.0	505.0	510.0	515.0	520.0	525.0	530.0	535.0	540.0	545.0	550.0	555.0	560.0	565.0	570.0	575.0	580.0	585.0	590.0	595.0	600.0
230.0	59.89	924.1	2098	557.7	27.28	7.755	6.879	5.846	4.900	4.243	4.153	3.476	3.191	2.906	2.369	2.090	1.848	1.714	1.556	1.392	1.268	1.153	1.028	1.042	1.056	0.974	0.789	0.809	0.777	0.730	0.714	0.741	0.633	0.640	0.534	0.569	0.509	0.546	0.529	0.460	0.485	0.554	0.547	0.476	0.407	0.433	1.322	4.962	8.149	5.708	2.201	0.599	0.336	0.348	0.340	0.351	0.333	0.377	0.363	0.312	0.340	0.340	0.375	0.363	0.331	0.327	0.363	0.356	0.341	0.360	0.392	0.339	0.358	0.374	0.345	0.374	0.333
235.0	89.45	278.6	1520	2523	489.0	39.56	8.310	7.167	6.009	4.720	3.831	3.576	3.925	3.069	2.637	2.104	1.694	1.649	1.625	1.493	1.320	1.094	1.107	0.971	0.978	0.894	0.845	0.876	0.852	0.748	0.713	0.675	0.657	0.647	0.554	0.586	0.537	0.485	0.523	0.525	0.444	0.550	0.571	0.594	0.523	0.491	0.684	1.484	3.598	6.852	9.646	9.722	3.904	1.043	0.398	0.349	0.393	0.389	0.346	0.383	0.439	0.354	0.357	0.403	0.373	0.408	0.397	0.355	0.386	0.349	0.368	0.337	0.322	0.344	0.345	0.371	0.338
240.0	134.7	137.3	506.9	2459	2716	374.0	17.32	7.594	6.517	5.122	4.729	3.884	3.524	3.217	2.601	2.193	1.923	1.793	1.494	1.484	1.285	1.159	1.128	0.916	0.955	0.824	0.881	0.925	0.781	0.676	0.697	0.651	0.640	0.597	0.673	0.547	0.507	0.530	0.582	0.523	0.535	0.546	0.550	0.542	0.642	0.631	0.694	0.650	1.136	2.301	5.960	14.16	15.05	9.544	3.286	0.705	0.394	0.370	0.379	0.362	0.407	0.346	0.386	0.376	0.355	0.358	0.348	0.330	0.375	0.356	0.395	0.382	0.310	0.330	0.352	0.371	0.361
245.0	115.5	180.0	171.9	919.1	3442	2681	262.0	10.65	7.140	6.071	5.621	4.494	4.077	3.702	2.672	2.263	1.808	1.710	1.565	1.383	1.218	1.349	1.152	0.863	0.973	0.812	0.981	0.916	0.686	0.782	0.739	0.733	0.654	0.732	0.708	0.534	0.500	0.563	0.564	0.475	0.525	0.539	0.489	0.472	0.569	0.855	0.880	0.773	0.695	0.778	1.716	5.244	12.23	19.52	17.96	8.585	2.156	0.510	0.362	0.352	0.424	0.407	0.358	0.373	0.361	0.349	0.356	0.372	0.358	0.382	0.380	0.368	0.367	0.329	0.334	0.356	0.389
250.0	65.15	156.0	229.0	289.1	1219	3305	3543	966.6	48.21	7.145	6.566	5.087	4.534	3.806	2.572	2.503	2.175	1.891	1.738	1.293	1.553	1.286	1.083	1.125	1.147	0.865	0.942	0.962	0.784	0.928	0.766	0.736	0.680	0.718	0.693	0.517	0.548	0.548	0.518	0.452	0.506	0.470	0.468	0.482	0.466	0.563	0.647	0.935	1.031	0.894	0.870	1.560	3.262	7.005	12.64	18.53	22.00	17.42	9.275	2.561	0.522	0.366	0.402	0.386	0.364	0.368	0.369	0.348	0.371	0.380	0.351	0.368	0.354	0.385	0.364	0.385	0.362
255.0	42.86	63.12	201.7	316.2	344.7	908.6	3587	5563	1279	39.49	8.182	7.317	5.644	3.869	2.976	2.615	2.295	2.021	1.804	1.382	1.411	1.336	1.124	1.140	1.166	1.042	0.869	0.930	0.759	0.820	1.009	0.794	0.616	0.750	0.569	0.611	0.584	0.623	0.594	0.532	0.460	0.504	0.546	0.500	0.472	0.477	0.516	0.577	0.713	1.126	1.398	1.534	1.239	1.938	3.154	4.807	9.516	22.55	37.30	26.98	13.64	2.377	0.523	0.420	0.451	0.448	0.431	0.380	0.318	0.367	0.323	0.343	0.365	0.376	0.410	0.390	0.378
260.0	39.46	33.64	92.03	308.9	306.1	249.3	1223	5526	5812	238.3	21.21	8.522	6.671	4.734	3.156	2.934	2.337	2.171	1.802	1.723	1.447	1.428	1.118	1.238	1.098	1.163	0.849	0.947	0.959	0.879	0.854	0.749	0.720	0.772	0.585	0.596	0.601	0.500	0.494	0.533	0.445	0.511	0.571	0.486	0.430	0.452	0.415	0.412	0.422	0.617	1.090	1.877	1.729	1.270	1.076	1.348	2.508	6.612	18.41	35.43	45.03	25.46	10.05	1.305	0.480	0.490	0.433	0.397	0.327	0.384	0.398	0.391	0.390	0.337	0.435	0.408	0.394
265.0	37.61	28.93	39.24	166.3	407.8	214.4	316.0	2133	7477	5302	184.5	11.38	7.817	6.200	3.989	3.136	2.846	2.552	2.328	1.783	1.391	1.517	1.186	1.156	1.102	1.213	0.964	1.069	0.961	0.916	0.952	0.810	0.750	0.710	0.586	0.639	0.642	0.568	0.571	0.553	0.497	0.492	0.569	0.556	0.484	0.564	0.347	0.394	0.363	0.404	0.546	1.120	1.955	2.242	1.514	0.884	1.001	1.911	4.735	11.56	28.20	47.24	51.22	21.45	5.606	0.804	0.496	0.412	0.450	0.440	0.432	0.381	0.411	0.395	0.386	0.488	0.449
270.0	45.98	43.45	37.82	65.56	222.1	389.4	256.8	537.2	2630	6825	5831	739.2	39.54	8.934	5.641	4.233	3.340	3.059	2.377	2.160	1.735	1.772	1.428	1.207	1.211	1.188	1.036	1.049	1.012	0.966	0.880	0.831	0.831	0.798	0.660	0.658	0.605	0.594	0.574	0.566	0.527	0.545	0.581	0.590	0.556	0.529	0.464	0.482	0.465	0.407	0.403	0.582	0.909	1.347	1.946	2.363	1.924	1.353	1.617	3.073	7.140	14.58	28.18	40.55	39.33	40.25	14.97	5.224	0.720	0.480	0.445	0.433	0.443	0.415	0.380	0.442	0.420
275.0	93.79	97.86	76.16	58.41	81.39	221.1	506.7	311.5	636.6	1805	6208	9999.9	1011	32.99	8.514	6.184	4.583	3.388	3.075	2.269	1.918	1.872	1.650	1.469	1.210	1.195	1.046	1.085	0.980	0.990	1.042	0.928	0.823	0.838	0.797	0.655	0.717	0.642	0.682	0.640	0.612	0.614	0.647	0.589	0.633	0.704	0.595	0.607	0.627	0.507	0.485	0.541	0.625	0.675	0.902	1.446	2.783	3.521	2.296	1.464	2.153	3.773	6.867	9.863	13.85	34.16	62.61	65.44	22.98	4.675	0.607	0.545	0.437	0.456	0.488	0.484	0.437
280.0	148.5	170.5	143.9	86.28	60.84	105.1	374.5	538.4	268.8	477.6	1951	9513	8718	142.6	16.10	7.445	5.834	4.405	3.065	2.704	2.132	1.949	1.719	1.557	1.423	1.329	1.229	1.120	0.995	1.034	1.156	0.864	0.912	0.964	0.892	0.796	0.735	0.730	0.678	0.652	0.636	0.619	0.691	0.669	0.769	0.728	0.746	0.699	0.809	0.604	0.609	0.550	0.509	0.595	0.636	0.789	1.522	2.621	4.012	3.023	1.700	1.542	2.114	2.781	3.786	8.975	23.53	52.75	73.88	32.57	17.32	2.195	0.534	0.500	0.491	0.480	0.425
285.0	197.6	228.2	215.1	121.9	67.46	73.21	180.1	570.3	325.8	223.4	556.7	3250	9999.9	6473	105.9	11.32	7.486	4.758	3.792	2.795	2.761	2.125	1.974	1.856	1.450	1.431	1.224	1.185	1.176	1.079	1.114	0.957	0.865	0.933	0.916	0.834	0.815	0.787	0.723	0.704	0.556	0.639	0.711	0.753	0.876	0.857	0.942	1.071	0.999	0.702	0.729	0.687	0.672	0.574	0.596	0.590	0.857	1.250	2.461	3.834	4.284	2.504	1.327	1.276	1.670	2.820	6.149	14.46	34.04	60.51	77.56	28.34	10.42	0.953	0.543	0.522	0.521
290.0	267.1	329.2	296.7	181.4	103.3	88.09	119.2	286.1	568.8	489.0	307.2	913.8	3344	8174	7388	426.0	24.55	6.779	5.265	3.713	2.868	2.415	2.125	2.004	1.657	1.497	1.426	1.381	1.326	1.193	1.225	1.004	0.994	0.971	0.945	0.972	0.819	0.826	0.801	0.856	0.738	0.704	0.795	0.817	1.045	1.097	1.144	1.281	1.218	1.053	0.832	0.857	0.778	0.699	0.658	0.754	0.822	1.039	1.233	1.860	3.046	3.916	3.675	2.954	1.937	1.750	2.594	4.453	8.880	16.75	32.92	45.72	58.41	48.97	18.57	8.263	1.059
295.0	319.1	405.6	372.9	238.0	146.4	121.6	138.9	204.1	348.7	750.7	677.8	492.4	962.4	2125	6110	9283	596.5	18.45	7.080	5.240	3.344	2.899	2.573	2.084	1.761	1.667	1.673	1.353	1.313	1.300	1.187	1.059	1.042	1.004	1.092	0.999	0.891	0.863	0.899	0.885	0.790	0.785	0.944	0.936	1.146	1.240	1.330	1.641	1.575	1.188	1.045	0.984	0.927	0.899	0.914	0.916	0.911	1.024	1.076	1.420	1.677	2.040	2.954	4.897	5.196	3.666	2.598	2.406	3.501	5.134	8.594	11.50	16.16	29.72	60.80	77.67	28.86
300.0	336.4	437.0	414.2	290.2	186.0	166.1	187.8	239.2	315.4	579.0	1023	630.7	510.8	675.5	1812	8155	5634	84.72	11.60	6.173	4.450	3.532	2.958	2.393	2.001	1.893	1.571	1.378	1.469	1.362	1.212	1.023	1.093	1.138	1.097	1.118	0.960	0.966	0.844	0.847	0.907	0.909	0.929	0.925	1.177	1.400	1.390	1.606	1.704	1.436	1.257	1.215	1.055	1.048	0.930	0.922	1.166	1.282	1.370	1.505	1.694	1.909	2.306	3.297	4.900	5.852	4.723	3.037	2.710	2.844	3.508	3.979	4.752	8.037	19.52	47.03	77.02
305.0	367.3	476.2	465.7	331.9	219.3	209.6	245.9	299.4	370.6	519.0	914.6	1043	554.3	422.1	575.6	2623	8777	4483	66.25	8.448	5.759	4.078	3.484	2.762	2.458	1.883	1.745	1.469	1.388	1.363	1.336	1.138	0.999	1.101	1.107	1.160	1.120	0.888	0.924	0.938	0.961	0.895	0.992	0.925	1.339	1.516	1.447	1.796	1.650	1.489	1.342	1.272	1.145	1.191	1.201	1.261	1.525	1.509	1.629	2.029	2.013	2.168	2.194	2.707	3.565	4.909	6.311	5.722	3.840	2.907	2.810	2.547	2.556	3.129	5.424	12.34	29.02
310.0	369.0	484.0	486.3	356.9	268.0	255.6	293.4	350.6	426.7	532.9	705.6	987.6	940.8	507.5	352.7	718.2	2728	6251	5792	299.3	18.50	5.497	3.997	3.150	2.633	2.105	1.971	1.784	1.545	1.506	1.349	1.132	1.170	1.077	1.126	1.078	1.061	1.007	1.020	0.925	0.897	0.935	1.032	0.968	1.261	1.407	1.517	1.858	1.679	1.598	1.436	1.468	1.315	1.325	1.382	1.505	1.594	1.696	1.947	2.147	2.165	2.424	2.387	2.951	3.186	3.799	4.412	5.131	5.731	5.428	4.182	2.982	2.486	2.393	2.550	3.917	7.482
315.0	361.1	505.6	517.5	379.7	301.2	301.5	334.7	390.1	470.3	566.7	671.7	787.2	937.5	871.8	410.1	336.3	730.9	1561	4752	7470	454.8	16.09	5.793	4.337	3.044	2.584	2.262	1.961	1.586	1.563	1.541	1.188	1.111	1.230	1.036	1.040	1.237	1.135	0.957	0.953	0.875	0.966	0.977	1.161	1.203	1.361	1.491	1.856	1.824	1.473	1.406	1.551	1.594	1.463	1.469	1.720	1.720	1.789	2.122	2.210	2.488	2.496	2.767	3.216	3.234	3.524	3.677	4.047	4.205	4.955	5.777	5.522	3.606	2.590	2.310	2.382	3.120
320.0	401.6	545.0	550.1	454.0	337.2	341.2	375.2	431.1	495.2	590.9	692.5	763.9	796.0	955.0	661.8	329.6	339.1	467.0	1350	6289	4181	65.99	9.409	5.053	3.755	3.082	2.167	2.042	1.907	1.683	1.423	1.339	1.197	1.153	1.158	1.104	1.144	1.252	0.957	0.943	0.883	0.919	1.052	1.176	1.317	1.466	1.721	1.987	1.913	1.689	1.549	1.597	1.843	1.717	1.679	1.934	1.873	2.012	2.219	2.403	2.438	2.725	3.142	3.387	3.620	3.615	3.816	3.915	3.853	4.356	4.803	5.565	5.669	4.203	2.803	2.545	2.392
325.0	424.4	626.0	665.9	518.5	396.2	381.1	403.1	452.0	521.6	624.3	717.0	778.5	763.1	808.2	868.7	469.1	301.9	263.1	411.4	1958	6574	3546	54.20	6.847	4.836	3.582	2.382	2.263	2.019	1.823	1.592	1.522	1.425	1.239	1.200	1.167	1.140	1.247	0.974	0.917	0.874	1.070	1.010	1.182	1.431	1.579	1.850	2.341	2.309	2.073	1.841	2.027	1.748	1.763	1.850	2.178	2.136	2.139	2.354	2.589	2.625	2.830	3.134	3.407	3.669	3.716	3.890	3.822	4.030	4.266	3.882	4.480	5.242	5.961	4.974	3.264	2.426
330.0	491.1	738.2	867.5	686.3	507.6	439.9	434.5	483.4	549.6	653.3	746.4	815.2	802.2	751.4	764.7	707.4	445.4	271.3	238.8	544.2	2020	4808	4665	1011	17.07	4.605	3.532	2.668	2.266	2.067	1.807	1.519	1.312	1.302	1.239	1.089	1.138	1.171	0.961	1.066	0.975	1.112	1.108	1.181	1.456	1.811	2.025	2.665	2.888	2.566	2.335	2.595	2.212	2.170	2.007	2.205	2.201	2.321	2.383	2.694	2.800	2.906	3.022	3.368	3.702	3.895	3.973	4.102	4.360	4.324	4.146	4.465	4.569	4.720	4.909	4.860	4.281
335.0	525.8	808.0	983.0	853.0	635.8	528.0	489.9	520.1	589.9	681.3	781.8	846.6	840.8	791.1	714.3	678.5	693.7	406.7	255.8	269.8	537.7	1181	3763	6385	400.7	17.77	4.805	3.514	2.724	2.366	1.965	1.718	1.415	1.452	1.239	1.177	1.183	1.057	1.039	1.015	0.995	1.078	1.213	1.326	1.283	1.906	2.339	2.831	3.166	2.932	2.837	3.190	2.726	2.614	2.447	2.376	2.437	2.559	2.489	2.838	2.683	3.059	3.347	3.604	3.853	4.068	4.323	4.255	4.300	4.696	4.607	4.419	4.797	4.445	4.208	4.156	4.839
340.0	551.6	849.5	1063	962.4	723.1	587.2	532.9	541.4	613.3	707.0	797.7	861.2	870.4	827.8	735.3	644.5	690.5	587.0	317.8	237.7	231.8	330.4	1039	5131	3510	328.0	9.002	4.518	3.226	2.441	2.296	1.813	1.419	1.583	1.206	1.175	1.191	1.097	1.076	1.051	1.044	0.944	1.206	1.295	1.366	1.950	2.324	2.948	3.620	3.286	3.217	3.477	3.234	2.812	2.722	2.495	2.598	2.756	2.694	2.968	2.820	3.108	3.447	3.717	3.663	4.131	4.258	4.425	4.362	4.863	4.532	4.655	4.802	4.445	4.272	4.311	4.336
345.0	540.1	870.5	1078	1026	780.7	637.4	576.1	566.8	629.4	709.8	801.6	860.0	877.4	829.7	753.7	646.6	605.4	648.5	443.7	260.4	187.2	165.5	293.9	1538	5326	3191	50.48	6.593	4.020	3.172	2.415	2.022	1.587	1.646	1.451	1.262	1.146	1.058	1.001	1.166	0.930	0.911	1.235	1.376	1.544	1.922	2.484	3.202	3.605	3.420	3.363	3.805	3.478	3.126	2.765	2.845	2.915	2.919	2.762	3.094	3.042	3.235	3.545	3.914	3.567	4.028	4.163	4.230	4.652	4.599	4.772	4.508	4.363	4.572	4.409	4.416	4.025
350.0	528.9	863.7	1090	1061	861.0	717.7	638.9	615.0	663.5	727.9	799.4	855.3	865.0	835.2	766.7	669.3	594.5	564.4	547.7	397.1	227.1	164.8	159.0	409.9	1599	3861	3943	996.0	16.81	4.139	2.763	2.209	1.911	1.673	1.420	1.274	1.139	1.102	1.009	0.995	1.012	0.971	1.156	1.329	1.472	1.945	2.414	2.994	3.351	3.258	3.403	3.825	3.713	3.407	3.249	3.031	3.109	3.118	3.148	3.267	3.331	3.597	3.555	3.931	3.848	4.020	4.284	4.275	4.408	4.607	4.708	4.732	4.577	4.659	4.493	4.421	4.188
355.0	520.2	795.8	1056	1056	930.1	798.6	725.1	687.5	724.7	769.3	825.9	851.9	863.6	845.2	785.2	701.8	630.0	554.5	506.0	520.4	356.1	213.9	170.6	190.4	422.8	934.4	2784	5303	386.0	19.42	3.960	2.915	2.087	1.841	1.489	1.200	1.235	1.256	1.054	1.089	1.114	0.985	1.194	1.233	1.399	1.838	2.406	3.040	3.293	3.299	3.543	3.989	3.730	3.470	3.676	3.420	3.677	3.399	3.209	3.586	3.611	3.747	3.696	3.976	3.955	4.145	4.476	4.233	4.346	4.636	4.638	4.889	4.737	4.832	4.506	4.698	4.428
360.0	525.5	784.0	1054	1068	971.8	861.8	788.9	751.5	774.9	804.1	836.8	865.9	865.9	850.2	799.6	721.9	657.0	578.2	504.6	503.4	478.9	293.8	204.0	166.0	183.1	268.3	743.9	3802	4723	339.4	10.83	3.731	2.354	2.225	1.826	1.494	1.210	1.239	1.157	1.018	1.029	1.061	1.150	1.240	1.474	1.918	2.243	2.872	3.099	3.272	3.489	3.829	3.925	3.987	3.999	3.758	3.818	3.490	3.559	3.808	3.556	3.922	4.248	4.200	4.068	4.180	4.453	4.265	4.547	4.529	4.605	4.840	4.633	4.865	4.641	4.952	4.544
365.0	524.1	788.5	1029	1084	1009	912.2	834.5	799.4	807.6	845.7	869.8	883.7	876.0	858.8	809.0	731.5	678.1	600.3	529.4	488.7	493.4	409.1	256.2	189.6	154.9	140.1	220.4	1079	4459	3106	49.94	6.152	3.282	2.426	2.048	1.589	1.297	1.206	1.167	1.035	1.022	1.146	1.127	1.331	1.462	1.852	2.409	2.861	3.106	3.213	3.317	3.981	3.976	4.224	3.989	3.914	3.870	3.857	3.780	4.017	3.601	3.849	4.376	4.480	4.313	4.153	4.323	4.367	4.664	4.556	4.330	4.895	4.728	4.719	4.792	4.785	4.753
370.0	509.9	768.8	1008	1076	1034	960.5	883.2	845.2	858.6	876.0	881.3	885.1	870.0	847.9	809.0	744.4	694.6	627.4	566.9	511.5	466.5	467.5	386.0	256.9	186.7	143.1	128.8	296.0	1263	3269	3518	986.7	17.01	3.263	2.455	1.851	1.496	1.305	1.212	1.161	1.103	1.151	1.118	1.325	1.425	1.839	2.125	2.793	2.964	3.063	3.279	4.162	4.096	4.189	3.999	4.059	4.147	4.031	4.204	4.064	4.063	4.055	4.464	4.490	4.465	4.295	4.322	4.506	4.530	4.488	4.649	4.779	4.830	4.803	4.590	4.764	4.931
375.0	496.3	741.7	996.6	1066	1050	994.6	930.0	879.6	889.9	898.6	900.7	881.6	870.6	837.4	791.8	748.7	703.6	652.4	595.2	546.2	482.1	447.0	454.7	377.8	240.7	180.1	139.0	145.1	337.0	785.1	2198	4525	346.1	19.10	3.428	2.211	1.793	1.479	1.385	1.195	1.173	1.102	1.175	1.391	1.510	1.953	2.228	2.869	3.120	2.841	3.302	4.292	4.013	4.239	4.072	4.141	4.211	4.092	4.274	4.427	4.105	4.227	4.913	4.610	4.491	4.414	4.473	4.549	4.490	4.769	4.659	4.721	4.644	4.828	4.750	4.919	4.873
380.0	471.9	724.9	960.6	1051	1062	1006	949.7	914.2	902.1	904.3	901.6	879.1	864.0	825.5	789.9	747.9	701.2	659.7	609.3	563.9	509.3	453.5	438.3	444.3	314.0	216.8	163.3	132.9	147.1	222.7	582.1	3007	3871	292.8	9.659	2.861	1.985	1.758	1.494	1.280	1.205	1.052	1.226	1.457	1.473	1.766	2.208	2.940	2.889	2.960	3.086	4.305	4.155	4.492	4.114	4.328	4.193	4.628	4.256	4.466	4.268	4.537	4.883	4.564	4.637	4.451	4.449	4.732	4.606	4.461	4.724	4.703	4.778	4.948	4.840	4.626	4.886
385.0	482.6	737.8	943.5	1062	1061	1025	965.7	920.1	902.6	909.2	893.4	882.8	857.3	818.6	779.6	734.1	697.0	662.1	617.9	577.3	521.3	468.2	430.7	441.2	398.3	264.2	192.3	150.3	121.5	114.6	175.3	831.7	3310	2585	220.3	4.906	2.528	1.824	1.649	1.221	1.204	1.201	1.259	1.434	1.607	1.584	2.153	2.562	2.854	2.941	3.095	4.067	4.262	4.231	4.174	4.239	4.446	4.509	4.219	4.291	4.443	4.656	4.423	4.526	4.620	4.390	4.624	4.457	4.472	4.747	4.616	4.482	4.861	4.813	4.617	4.372	4.952
390.0	457.7	719.3	922.7	1024	1039	1023	967.0	929.3	906.4	893.4	892.0	862.8	839.5	795.7	759.2	717.8	683.7	654.6	617.5	584.8	535.5	490.9	450.2	420.3	412.4	357.3	252.6	185.4	144.3	113.9	102.5	228.1	907.2	2316	2647	793.9	14.39	2.860	1.980	1.596	1.313	1.330	1.357	1.337	1.509	1.719	2.046	2.513	2.849	2.901	3.046	4.023	3.993	4.143	4.249	4.219	4.484	4.466	4.376	4.386	4.446	4.613	4.510	4.482	4.397	4.447	4.369	4.348	4.339	4.522	4.607	4.461	4.748	4.594	4.636	4.742	4.602
395.0	463.5	712.3	889.1	1014	1027	1023	958.5	933.8	898.7	886.1	880.3	846.1	815.3	779.7	741.4	695.9	668.2	639.5	610.4	579.7	546.0	508.5	465.9	429.7	400.2	389.5	342.1	235.6	180.3	141.8	108.9	111.9	241.5	554.4	1533	3253	285.6	17.08	2.919	1.957	1.601	1.511	1.409	1.230	1.538	1.753	2.044	2.513	2.820	2.936	3.084	3.930	3.861	4.119	4.056	4.292	4.442	4.365	4.417	4.332	4.297	4.468	4.369	4.358	4.440	4.137	4.348	4.464	4.076	4.414	4.285	4.241	4.397	4.456	4.615	4.695	4.705
400.0	466.7	707.4	868.9	973.9	1003	995.1	952.9	911.0	883.7	871.1	866.2	827.6	799.8	770.5	721.5	679.1	649.7	628.8	600.4	573.7	543.6	515.9	479.0	442.4	402.6	378.0	379.6	297.1	211.7	166.1	127.6	101.7	105.3	157.7	400.6	2066	2845	250.6	8.763	2.440	1.794	1.523	1.507	1.366	1.572	1.769	2.046	2.436	2.577	2.718	3.043	3.818	3.779	4.045	4.004	4.285	4.666	4.460	4.202	4.310	4.306	4.365	4.218	4.416	4.362	4.268	4.143	4.289	4.137	4.192	4.109	4.212	4.291	4.525	4.427	4.345	4.609
405.0	469.5	660.7	859.8	953.1	1005	991.6	951.3	911.7	867.0	866.0	851.3	817.0	787.8	750.8	700.6	659.3	631.2	607.5	584.9	565.1	538.9	513.6	482.8	451.1	415.0	374.5	369.7	353.3	254.4	188.4	148.5	111.4	85.86	75.69	119.2	567.7	2358	2139	187.0	4.399	2.156	1.695	1.519	1.362	1.667	1.874	2.061	2.430	2.608	2.652	2.834	3.659	3.922	4.073	4.061	4.186	4.267	4.243	4.347	4.377	4.403	4.422	4.261	4.156	4.332	3.975	4.299	4.103	4.000	4.209	4.215	4.076	4.231	4.805	4.338	4.444	4.354
410.0	438.7	636.6	837.9	935.9	974.9	972.7	943.5	894.3	868.1	847.4	828.5	788.8	757.9	719.6	673.9	632.8	605.5	583.6	563.9	545.3	521.6	502.8	479.2	453.3	421.8	385.2	356.9	354.3	315.9	233.3	172.9	129.8	94.10	71.00	64.61	152.9	640.3	1736	2072	645.8	12.63	2.312	1.810	1.569	1.634	1.782	2.060	2.376	2.526	2.476	2.891	3.651	3.870	3.832	3.990	4.047	4.177	4.268	4.335	4.281	4.214	4.263	4.234	4.290	4.130	4.128	4.146	4.120	3.955	4.013	4.137	4.060	4.023	4.378	4.254	4.242	4.182
415.0	409.7	638.5	796.4	886.5	926.0	938.4	916.3	881.5	843.1	821.2	791.1	764.6	727.9	690.2	641.9	600.1	566.1	550.6	534.8	519.4	500.3	483.6	468.3	447.4	418.9	390.9	356.8	335.3	320.6	289.7	203.7	148.5	108.6	80.48	61.84	66.02	164.6	410.8	1146	2466	259.3	14.31	2.471	2.059	1.747	1.874	1.883	2.349	2.445	2.525	2.777	3.701	3.866	4.037	3.944	3.977	4.223	4.178	4.021	4.255	4.179	4.306	4.282	4.321	3.834	4.350	4.017	4.009	3.966	3.911	4.149	3.978	3.808	4.062	4.087	3.977	4.243
