Sample:	'1
File name:	Default_20230303_093009.FD3
Run date:	'09:23:49, 03/03/2023
Operator:	user
Comment:	'

Instrument
Model:	F-2700 FL Spectrophotometer
Serial number:	2190-003
ROM Version:	4J14000 07

Instrument parameters
Measurement type:	3-D scan
Data mode:	Fluorescence
EX  Start WL:	220.0 nm
EX  End WL:	600.0 nm
EX Sampling interval:	5.0 nm
EM  Start WL:	230.0 nm
EM  End WL:	650.0 nm
EM Sampling interval:	5.0 nm
Scan speed:	12000 nm/min
EX Slit:	5.0 nm
EM Slit:	5.0 nm
PMT Voltage:	700 V
Response:	Auto 
Corrected spectra:	Off
Contour interval:	50.000

Peak integration
Integration method:	Rectangular
Sensitivity:	1
Threshold:	1.000

Peaks
No.	ApexEX/EM(nm)	Height(Data)
1	230.0/335.0	-72.76
2	235.0/345.0	-16.41
3	245.0/265.0	2.209
4	255.0/280.0	172.3
5	255.0/395.0	187.0
6	255.0/555.0	-109.4
7	260.0/285.0	323.5
8	260.0/565.0	-88.54
9	265.0/290.0	339.2
10	265.0/575.0	-77.82
11	270.0/295.0	541.7
12	270.0/420.0	220.2
13	270.0/430.0	213.0
14	270.0/590.0	-62.69
15	275.0/305.0	700.8
16	275.0/415.0	226.5
17	275.0/435.0	222.2
18	275.0/605.0	-46.09
19	280.0/310.0	690.5
20	280.0/395.0	252.9
21	280.0/420.0	237.3
22	280.0/440.0	220.9
23	280.0/615.0	-44.49
24	285.0/315.0	697.1
25	285.0/385.0	287.8
26	285.0/630.0	-36.76
27	290.0/320.0	644.7
28	290.0/640.0	-29.49
29	295.0/400.0	263.4
30	300.0/335.0	351.1
31	305.0/340.0	353.4
32	305.0/395.0	257.0
33	310.0/345.0	317.8
34	315.0/350.0	256.2
35	320.0/360.0	276.5
36	325.0/365.0	275.4
37	330.0/370.0	252.4
38	335.0/380.0	255.8
39	340.0/385.0	258.6
40	345.0/390.0	231.1
41	350.0/395.0	227.9
42	355.0/405.0	223.0
43	360.0/410.0	202.3
44	365.0/415.0	192.2
45	370.0/425.0	183.5
46	375.0/430.0	154.5
47	385.0/445.0	121.3
48	395.0/455.0	91.32
49	400.0/465.0	74.24
50	410.0/475.0	49.41
51	420.0/490.0	33.70
52	425.0/495.0	27.47
53	430.0/505.0	22.70
54	435.0/510.0	16.72
55	440.0/515.0	14.38
56	450.0/530.0	8.920
57	455.0/535.0	6.813
58	460.0/545.0	4.103
59	465.0/550.0	2.477
60	545.0/300.0	-5.984
61	550.0/305.0	-5.666
62	555.0/310.0	-6.294
63	570.0/315.0	-6.353
64	575.0/320.0	-6.235
65	580.0/325.0	-6.590

Data points
	220.0	225.0	230.0	235.0	240.0	245.0	250.0	255.0	260.0	265.0	270.0	275.0	280.0	285.0	290.0	295.0	300.0	305.0	310.0	315.0	320.0	325.0	330.0	335.0	340.0	345.0	350.0	355.0	360.0	365.0	370.0	375.0	380.0	385.0	390.0	395.0	400.0	405.0	410.0	415.0	420.0	425.0	430.0	435.0	440.0	445.0	450.0	455.0	460.0	465.0	470.0	475.0	480.0	485.0	490.0	495.0	500.0	505.0	510.0	515.0	520.0	525.0	530.0	535.0	540.0	545.0	550.0	555.0	560.0	565.0	570.0	575.0	580.0	585.0	590.0	595.0	600.0
230.0	-873.3	-226.1	 3093	 1660	-226.6	-276.1	-241.4	-207.9	-183.5	-161.1	-143.2	-122.5	-102.5	-82.96	-68.64	-56.06	-47.01	-40.07	-35.22	-31.39	-28.44	-25.84	-24.11	-22.14	-20.49	-19.18	-18.48	-17.82	-17.25	-16.90	-16.02	-15.01	-14.13	-13.12	-12.39	-11.26	-10.82	-10.96	-10.59	-9.933	-9.665	-9.831	-9.548	-9.319	-9.088	-8.847	-7.399	-4.758	-1.511	-1.615	-4.637	-7.236	-7.131	-7.648	-7.381	-7.716	-7.857	-7.897	-7.848	-7.921	-7.946	-8.049	-8.171	-8.109	-8.049	-8.182	-8.268	-8.248	-8.274	-8.379	-8.505	-8.345	-8.450	-8.461	-8.729	-8.914	-9.128
235.0	-828.7	-574.6	789.1	 2744	 1564	-151.6	-245.4	-207.2	-185.5	-163.2	-142.3	-122.4	-103.4	-85.35	-68.84	-54.84	-45.50	-40.89	-35.66	-31.71	-28.65	-26.09	-23.61	-22.39	-20.54	-19.23	-18.58	-18.08	-17.25	-17.04	-16.06	-15.36	-14.20	-13.32	-12.51	-11.45	-10.92	-11.01	-10.29	-10.02	-10.10	-9.905	-9.850	-9.086	-8.801	-8.866	-7.725	-7.371	-5.296	-2.907	-0.938	-3.116	-5.263	-7.284	-7.466	-7.696	-7.996	-7.882	-8.109	-7.974	-7.987	-8.134	-8.114	-8.222	-8.246	-7.980	-8.270	-8.241	-8.204	-8.312	-8.542	-8.543	-8.385	-8.446	-8.836	-8.922	-9.087
240.0	-767.9	-614.2	-238.4	 1092	 3231	 1346	-172.5	-203.5	-183.4	-161.3	-140.2	-123.9	-102.1	-84.11	-70.08	-54.12	-47.12	-40.14	-35.14	-31.84	-29.03	-25.78	-23.83	-21.66	-19.96	-18.96	-18.18	-18.02	-17.52	-16.57	-15.97	-15.34	-14.18	-13.12	-12.63	-11.45	-11.07	-10.79	-10.12	-10.12	-9.900	-9.922	-9.427	-9.311	-9.120	-8.631	-7.825	-7.784	-6.684	-5.060	-3.954	-1.762	-1.125	-3.011	-6.407	-7.812	-8.041	-8.116	-7.965	-7.881	-8.108	-8.049	-8.075	-8.050	-8.291	-8.221	-8.143	-8.308	-8.210	-8.361	-8.552	-8.566	-8.402	-8.428	-8.709	-8.947	-9.049
245.0	-875.5	-600.5	-435.6	-38.03	 1818	 3793	 1035	-177.4	-182.5	-161.1	-138.6	-122.0	-102.8	-80.26	-67.78	-55.19	-48.29	-40.77	-35.36	-31.45	-28.62	-25.65	-24.04	-21.70	-20.50	-18.62	-18.68	-17.88	-17.25	-16.85	-16.25	-15.04	-14.17	-13.31	-12.37	-11.15	-10.71	-10.64	-10.30	-9.961	-9.834	-9.972	-9.595	-9.099	-8.961	-8.570	-7.593	-7.653	-7.031	-5.784	-5.650	-5.389	-3.263	0.275	-0.493	-3.942	-7.127	-7.715	-8.051	-7.886	-7.904	-7.836	-8.162	-7.838	-8.198	-8.033	-8.092	-8.302	-7.997	-8.325	-8.446	-8.374	-8.492	-8.519	-8.623	-9.040	-9.196
250.0	-873.6	-630.4	-399.2	-246.7	212.8	 1823	 3548	 2281	111.8	-159.8	-142.7	-122.5	-102.4	-82.51	-65.28	-55.70	-47.31	-40.26	-34.89	-31.26	-28.29	-25.26	-23.66	-22.05	-20.54	-19.13	-18.62	-17.71	-16.75	-16.59	-16.03	-15.06	-14.24	-13.17	-12.32	-11.29	-10.94	-10.82	-10.31	-10.15	-9.756	-9.914	-9.738	-9.331	-9.012	-8.651	-7.760	-7.517	-6.989	-5.815	-5.906	-6.790	-6.349	-5.221	-3.028	-0.528	0.624	-0.835	-4.526	-7.201	-7.911	-7.955	-8.082	-8.047	-8.087	-8.155	-8.125	-8.116	-8.232	-8.448	-8.271	-8.408	-8.367	-8.507	-8.581	-8.895	-9.143
255.0	-867.1	-693.9	-475.3	-228.6	-111.6	209.1	 1180	 4707	 1849	204.7	-133.1	-119.3	-96.23	-82.55	-66.18	-54.56	-48.20	-40.06	-34.95	-30.02	-27.99	-25.42	-23.66	-21.77	-20.68	-19.28	-18.14	-17.40	-16.91	-16.36	-16.12	-15.28	-14.03	-13.18	-12.33	-11.45	-11.17	-11.02	-10.60	-10.06	-9.904	-9.951	-9.521	-9.334	-8.907	-8.681	-7.860	-7.672	-7.052	-5.788	-5.730	-6.955	-7.083	-7.214	-6.291	-5.898	-4.615	0.386	5.099	4.294	-3.416	-7.479	-7.902	-8.297	-8.218	-8.057	-8.047	-8.352	-8.217	-8.419	-8.665	-8.265	-8.461	-8.471	-8.695	-8.897	-9.023
260.0	-873.9	-690.3	-514.8	-314.6	-54.40	-98.06	102.3	 2068	 5984	 1600	24.64	-117.6	-96.53	-79.79	-66.45	-55.01	-47.84	-39.63	-35.99	-30.60	-27.73	-25.25	-23.61	-21.42	-20.38	-19.51	-18.39	-17.75	-17.32	-16.39	-16.12	-15.06	-13.93	-13.34	-12.35	-11.35	-11.39	-11.07	-10.53	-10.05	-9.630	-10.07	-9.410	-9.094	-8.919	-8.762	-7.856	-7.847	-7.251	-6.225	-5.882	-6.842	-6.768	-7.115	-6.800	-6.874	-7.030	-5.611	-2.015	5.864	9.653	2.811	-5.749	-8.119	-7.997	-8.126	-8.211	-8.221	-8.461	-8.387	-8.497	-8.525	-8.448	-8.379	-8.659	-8.788	-9.233
265.0	-891.4	-708.5	-562.9	-405.0	-111.8	2.209	-118.3	357.2	 3214	 7679	 1252	-60.68	-92.35	-79.50	-64.08	-54.88	-46.44	-41.07	-35.06	-31.14	-27.62	-25.25	-22.67	-21.68	-19.99	-19.35	-18.23	-17.59	-16.88	-16.21	-15.45	-15.02	-13.80	-13.45	-12.42	-11.49	-10.89	-11.17	-10.48	-10.25	-9.998	-9.686	-9.538	-9.199	-8.669	-8.712	-7.572	-7.851	-7.205	-6.079	-6.254	-7.356	-6.826	-7.092	-6.767	-7.269	-7.792	-7.436	-6.406	-3.689	1.991	10.22	9.630	-0.467	-7.189	-8.079	-8.049	-8.265	-8.338	-8.192	-8.246	-8.461	-8.407	-8.404	-8.696	-8.900	-9.023
270.0	-882.3	-708.5	-554.7	-418.5	-266.0	-53.00	35.45	-15.12	667.3	 3464	 6803	 4583	255.0	-74.49	-64.46	-52.65	-44.71	-39.32	-34.01	-30.35	-27.89	-25.50	-23.34	-21.51	-20.21	-18.88	-18.41	-17.62	-17.07	-16.41	-15.74	-15.21	-13.78	-13.26	-12.27	-11.23	-11.04	-11.02	-10.23	-10.10	-10.04	-9.693	-9.740	-9.130	-8.793	-8.637	-7.725	-7.763	-7.002	-6.150	-6.257	-7.418	-7.108	-7.406	-6.900	-6.796	-7.372	-7.697	-7.520	-6.840	-5.642	-2.333	2.032	7.346	9.426	6.372	-1.969	-7.310	-8.307	-8.339	-8.203	-8.482	-8.337	-8.464	-8.577	-8.989	-9.001
275.0	-860.4	-660.0	-540.0	-424.5	-300.9	-215.6	-0.844	152.1	72.64	681.2	 2158	 8397	 6840	337.4	-60.87	-52.22	-44.89	-38.03	-34.73	-30.46	-27.88	-25.30	-23.25	-21.86	-19.92	-18.59	-18.16	-17.97	-17.01	-16.78	-15.85	-14.87	-13.82	-13.34	-12.17	-11.20	-11.01	-10.98	-10.24	-10.08	-10.04	-10.15	-9.930	-9.102	-8.859	-8.733	-7.499	-7.647	-7.164	-6.190	-5.947	-7.412	-7.310	-7.550	-7.128	-7.370	-6.919	-6.901	-7.000	-7.279	-7.595	-6.610	-5.777	-4.439	-1.350	7.484	20.72	13.42	-1.825	-8.077	-8.134	-8.388	-8.359	-8.613	-8.596	-8.815	-8.896
280.0	-838.6	-675.2	-512.0	-412.1	-325.8	-261.3	-138.1	172.3	147.8	70.07	430.5	 3255	9999.9	 5266	145.1	-49.85	-42.54	-37.57	-33.33	-31.00	-27.40	-25.36	-23.40	-21.13	-20.07	-18.58	-17.34	-17.77	-17.50	-16.33	-15.81	-15.08	-13.94	-12.99	-12.41	-11.25	-10.85	-10.86	-10.47	-10.28	-9.708	-9.953	-9.658	-9.234	-8.977	-8.772	-7.524	-7.627	-7.080	-6.151	-5.950	-7.408	-7.201	-7.730	-7.101	-7.715	-7.621	-7.077	-6.818	-6.908	-7.234	-7.683	-7.428	-7.152	-6.330	-4.059	4.898	16.66	23.25	9.435	-5.378	-8.227	-8.393	-8.518	-8.684	-8.955	-8.928
285.0	-804.6	-665.3	-501.5	-403.3	-327.1	-270.7	-192.1	-10.55	323.5	84.84	47.40	750.4	 4673	9999.9	 3639	14.11	-41.37	-36.26	-32.84	-29.76	-27.18	-24.61	-23.39	-20.92	-19.59	-18.63	-17.60	-16.72	-17.14	-16.48	-15.88	-15.27	-13.75	-12.70	-12.22	-11.20	-10.46	-10.65	-10.54	-10.16	-9.903	-9.805	-9.739	-9.097	-8.830	-8.681	-7.423	-7.733	-7.113	-6.202	-6.047	-7.305	-7.274	-7.651	-7.151	-7.477	-7.793	-7.482	-7.344	-6.851	-6.761	-7.280	-7.739	-7.787	-7.669	-7.101	-4.909	-0.008	11.61	26.23	18.52	1.550	-7.414	-8.465	-8.622	-8.693	-8.912
290.0	-741.0	-576.5	-435.8	-361.2	-298.8	-253.7	-196.1	-116.4	98.63	339.2	180.5	202.0	 1143	 4449	 9107	 5021	173.5	-32.59	-30.52	-28.54	-25.44	-24.55	-22.78	-21.06	-19.49	-18.74	-17.84	-16.87	-16.79	-16.55	-15.46	-15.29	-13.80	-12.69	-12.01	-11.07	-10.67	-10.60	-10.21	-9.802	-9.902	-9.788	-9.727	-9.299	-8.894	-8.469	-7.468	-7.439	-6.656	-5.934	-5.960	-7.116	-7.167	-7.425	-7.228	-7.501	-7.658	-7.618	-7.733	-7.540	-7.236	-6.767	-6.837	-7.281	-7.467	-7.700	-7.236	-6.026	-3.418	2.459	9.616	16.42	17.43	10.79	-1.154	-7.886	-9.008
295.0	-689.0	-538.2	-390.0	-306.2	-279.4	-239.2	-187.6	-124.6	-29.90	158.9	541.7	280.9	374.0	 1064	 2680	 8848	 3965	243.7	-25.44	-26.29	-25.64	-23.73	-22.14	-20.76	-19.54	-18.26	-17.67	-17.37	-16.36	-16.27	-15.39	-15.11	-12.92	-12.61	-12.19	-10.95	-9.997	-10.33	-10.33	-9.743	-9.976	-9.551	-9.574	-9.191	-9.191	-8.428	-7.448	-7.214	-6.613	-5.653	-5.930	-7.217	-7.211	-7.286	-7.374	-7.494	-7.747	-7.524	-7.575	-7.738	-7.557	-7.378	-7.128	-6.511	-6.524	-7.356	-7.277	-7.353	-6.670	-5.348	-3.953	-2.309	1.960	17.56	30.45	17.72	-1.299
300.0	-632.8	-455.8	-317.9	-275.7	-250.9	-216.2	-173.3	-106.3	-44.82	71.91	426.2	647.9	301.7	352.3	657.7	 3243	9999.9	 3267	141.4	-23.20	-24.81	-22.44	-21.88	-20.65	-19.34	-18.01	-17.31	-17.36	-16.46	-16.48	-15.50	-14.95	-13.82	-12.78	-11.86	-10.76	-10.08	-10.20	-10.08	-9.557	-9.755	-9.673	-9.444	-8.929	-8.982	-8.353	-7.343	-7.421	-6.382	-5.757	-5.965	-7.138	-7.103	-7.418	-7.271	-7.637	-7.917	-7.573	-7.335	-7.718	-7.739	-7.395	-7.417	-7.091	-6.413	-5.984	-6.689	-7.347	-7.648	-7.189	-6.696	-6.900	-5.842	-1.293	11.39	29.35	33.62
305.0	-613.5	-415.2	-286.2	-281.8	-240.1	-194.7	-154.2	-101.1	-16.40	59.86	245.1	700.8	546.6	253.0	223.6	781.6	 4592	9999.9	 2499	47.99	-21.07	-20.50	-20.56	-20.57	-19.10	-17.65	-17.44	-17.28	-17.04	-16.06	-15.11	-14.31	-13.54	-12.37	-11.98	-10.54	-10.35	-10.06	-10.20	-9.472	-9.479	-9.712	-9.651	-9.052	-8.785	-8.380	-7.239	-7.367	-6.595	-5.781	-5.849	-7.031	-6.914	-7.295	-7.184	-7.401	-7.658	-7.604	-7.697	-7.509	-7.538	-7.377	-7.593	-7.502	-7.051	-6.442	-5.666	-6.417	-7.470	-7.651	-7.675	-7.719	-7.761	-6.648	-3.864	3.892	20.40
310.0	-591.1	-347.7	-255.8	-236.4	-239.4	-180.2	-128.8	-71.11	6.071	98.64	205.4	441.7	690.5	527.8	197.5	233.1	 1094	 4397	 8337	 5240	129.0	-17.58	-19.31	-19.43	-18.89	-17.58	-17.00	-16.83	-16.54	-15.87	-15.43	-13.94	-13.37	-12.27	-11.83	-10.56	-10.30	-10.23	-9.948	-9.795	-9.150	-9.587	-9.519	-8.615	-8.444	-8.310	-7.235	-7.166	-6.839	-5.861	-5.461	-7.057	-6.868	-7.172	-7.061	-7.337	-7.565	-7.779	-7.525	-7.544	-7.373	-7.328	-7.242	-7.310	-7.181	-6.954	-6.799	-6.294	-6.431	-7.016	-7.449	-7.937	-7.977	-7.841	-7.306	-5.786	-1.879
315.0	-577.6	-346.4	-233.0	-204.5	-216.0	-169.2	-110.1	-49.11	32.93	115.2	226.3	354.1	466.9	697.1	433.7	148.2	278.2	993.6	 2456	 8701	 7080	187.3	-16.95	-17.80	-18.11	-16.64	-16.48	-15.65	-16.35	-15.53	-14.99	-14.24	-13.08	-11.95	-11.79	-10.45	-9.939	-10.08	-9.670	-9.424	-9.282	-9.536	-9.275	-8.679	-8.562	-8.138	-6.933	-7.129	-6.648	-5.779	-5.623	-7.057	-6.847	-7.265	-7.128	-7.225	-7.164	-7.604	-7.519	-7.137	-7.448	-7.383	-7.326	-7.283	-7.353	-7.276	-7.149	-7.030	-7.238	-6.852	-6.353	-7.027	-7.690	-8.185	-8.208	-7.860	-7.488
320.0	-567.6	-312.0	-174.2	-192.9	-196.3	-149.4	-105.0	-29.00	41.91	118.7	238.7	333.2	384.6	521.8	644.7	244.0	116.3	237.2	560.4	 3284	9999.9	 2193	114.1	-15.16	-16.30	-16.53	-16.35	-15.83	-16.50	-14.55	-14.55	-14.19	-12.81	-12.26	-11.70	-10.28	-10.20	-10.32	-9.502	-9.696	-9.528	-9.464	-9.220	-8.823	-8.369	-7.756	-7.216	-7.058	-6.555	-5.540	-5.820	-6.881	-6.696	-6.969	-7.179	-7.117	-7.426	-7.432	-7.199	-7.057	-7.238	-7.316	-7.362	-7.116	-7.288	-7.349	-7.245	-7.087	-7.264	-7.061	-6.911	-6.235	-7.220	-7.500	-7.669	-8.418	-8.727
325.0	-510.0	-271.3	-97.20	-162.7	-172.1	-134.1	-85.10	-29.82	53.88	156.4	255.4	340.1	384.9	405.3	549.5	447.5	120.3	80.80	136.8	763.5	 4566	 9623	 1850	50.53	-15.21	-14.67	-15.21	-16.45	-15.08	-15.72	-14.65	-14.29	-13.08	-12.65	-11.40	-10.64	-10.32	-10.27	-9.687	-9.843	-9.201	-9.134	-9.279	-8.670	-8.147	-7.849	-7.155	-6.958	-6.373	-5.747	-5.686	-6.740	-6.805	-6.902	-6.766	-7.220	-7.553	-7.599	-7.655	-7.112	-7.403	-7.312	-6.752	-7.252	-7.239	-7.211	-7.259	-7.185	-7.301	-7.129	-7.246	-6.815	-6.590	-6.628	-7.585	-8.470	-8.523
330.0	-501.5	-247.0	-97.21	-135.5	-159.0	-114.8	-61.36	-14.98	73.71	185.0	262.8	353.8	383.6	377.5	366.8	420.5	325.4	110.5	53.57	181.7	 1072	 4147	 7530	 4637	100.7	-10.72	-14.34	-15.09	-15.42	-15.09	-14.29	-14.13	-13.03	-12.18	-11.46	-10.57	-10.28	-9.892	-9.753	-9.843	-9.209	-9.080	-9.316	-8.750	-8.324	-7.990	-6.937	-7.100	-6.549	-5.575	-5.690	-6.823	-6.915	-6.997	-6.828	-6.942	-7.298	-7.574	-7.412	-7.024	-7.322	-7.376	-6.997	-7.197	-7.122	-7.229	-7.128	-7.182	-7.211	-7.153	-7.359	-7.265	-7.129	-7.152	-7.333	-7.591	-8.130
335.0	-472.3	-253.5	-72.76	-108.0	-125.3	-90.77	-27.85	17.88	90.79	184.1	268.7	344.4	372.2	367.1	318.1	276.2	351.1	296.7	77.63	62.15	253.1	934.1	 2332	 8213	 6627	152.5	-11.66	-12.93	-14.41	-14.79	-14.49	-13.81	-12.91	-12.09	-11.49	-10.09	-9.963	-10.06	-9.445	-9.598	-9.064	-9.093	-9.269	-8.761	-8.145	-8.008	-7.032	-7.259	-6.494	-5.558	-5.759	-6.974	-6.746	-7.211	-7.137	-7.035	-7.442	-7.453	-7.537	-7.216	-7.375	-7.287	-7.045	-7.315	-7.155	-6.880	-7.055	-6.887	-7.044	-7.480	-7.548	-7.396	-7.441	-7.276	-7.630	-7.566	-7.451
340.0	-440.4	-239.7	-84.99	-78.51	-85.91	-59.52	-36.93	44.98	105.0	178.7	276.3	335.3	372.6	370.9	307.9	245.9	237.9	353.4	200.7	55.66	78.85	225.4	534.7	 3212	 9816	 5232	100.6	-11.45	-13.71	-13.83	-13.40	-13.31	-12.86	-12.23	-10.98	-10.07	-9.885	-10.21	-9.751	-9.691	-9.348	-9.144	-9.023	-8.712	-8.064	-7.909	-7.062	-7.014	-6.226	-5.702	-5.552	-6.802	-6.645	-7.073	-6.904	-7.200	-7.216	-7.455	-7.314	-7.198	-7.364	-7.220	-7.179	-7.247	-7.045	-6.787	-7.075	-7.091	-6.996	-7.398	-7.333	-7.522	-7.519	-7.404	-7.805	-7.945	-7.909
345.0	-497.7	-189.9	-71.55	-16.41	-28.02	-40.92	11.36	42.88	95.35	171.5	275.6	327.2	368.5	363.5	311.7	243.8	185.9	255.4	317.8	109.7	53.10	72.92	133.5	758.9	 4645	9999.9	 1500	46.83	-12.20	-12.51	-12.95	-13.48	-12.56	-11.87	-11.35	-9.885	-10.04	-10.12	-9.704	-9.616	-9.136	-9.322	-8.908	-8.956	-8.081	-7.960	-6.836	-6.922	-6.080	-5.485	-5.606	-6.825	-6.844	-6.815	-6.682	-7.309	-7.191	-7.263	-7.333	-7.214	-7.184	-7.232	-7.107	-7.091	-7.018	-7.104	-7.108	-7.200	-6.874	-7.409	-7.357	-7.391	-7.577	-7.404	-7.908	-8.330	-8.141
350.0	-479.8	-214.3	-89.31	-43.62	-31.16	-0.168	28.10	76.29	115.8	179.5	259.9	313.6	345.0	346.9	316.6	243.7	185.8	175.6	250.9	256.2	119.6	56.94	57.59	188.3	 1106	 4494	 7449	 4317	84.75	-9.541	-12.68	-12.27	-11.68	-11.48	-10.73	-10.18	-9.922	-9.696	-9.634	-9.328	-9.213	-9.234	-9.002	-8.628	-8.208	-7.918	-6.893	-6.897	-6.043	-5.436	-5.372	-6.588	-6.634	-6.925	-6.693	-7.235	-7.100	-7.035	-7.252	-7.148	-6.941	-7.215	-6.911	-7.124	-7.199	-7.150	-7.065	-7.313	-7.103	-7.175	-7.390	-7.324	-7.542	-7.659	-7.895	-8.219	-8.363
355.0	-548.3	-244.4	-143.8	-48.37	-2.994	23.91	40.86	93.47	119.5	176.9	251.9	290.9	318.0	319.4	296.2	249.7	195.3	162.2	176.8	228.4	257.5	105.4	55.87	73.12	269.2	 1018	 2480	 8097	 5973	124.1	-9.677	-11.55	-11.41	-11.33	-10.62	-10.02	-9.981	-9.831	-9.424	-9.332	-9.086	-9.430	-8.864	-8.638	-7.993	-7.888	-6.850	-6.977	-6.307	-5.400	-5.356	-6.706	-6.618	-6.915	-6.797	-6.845	-7.199	-7.060	-7.158	-7.002	-7.342	-7.217	-7.312	-7.190	-7.125	-7.227	-7.039	-7.430	-6.884	-7.301	-7.364	-7.356	-7.571	-7.654	-7.824	-8.095	-8.182
360.0	-568.4	-262.0	-113.6	-31.55	-10.90	48.66	67.74	102.9	124.9	173.1	230.9	282.8	313.5	312.5	301.5	253.4	209.4	182.0	162.5	175.5	276.5	212.5	78.35	60.81	91.49	249.2	576.2	 3408	 9525	 4341	78.62	-10.11	-9.819	-10.72	-10.31	-9.816	-9.527	-9.713	-9.158	-9.267	-9.133	-8.960	-8.894	-8.609	-7.876	-8.085	-7.020	-6.921	-6.159	-5.456	-5.416	-6.770	-6.573	-6.719	-6.754	-7.033	-7.042	-7.219	-7.098	-7.327	-7.347	-7.252	-7.003	-7.145	-7.189	-7.344	-7.271	-7.138	-7.139	-7.540	-7.669	-7.298	-7.211	-7.652	-7.593	-8.012	-8.372
365.0	-527.4	-328.6	-107.1	-36.01	13.53	71.44	95.47	117.2	144.5	169.6	234.3	277.7	294.8	309.8	290.2	264.2	221.4	195.7	170.2	162.1	212.4	275.4	147.2	75.15	66.06	87.01	150.3	815.7	 4809	 9744	 1302	31.92	-8.896	-10.15	-9.773	-8.935	-9.878	-9.373	-9.125	-9.242	-9.021	-9.005	-8.783	-8.748	-7.926	-7.847	-6.822	-6.984	-6.418	-5.566	-5.400	-6.603	-6.735	-6.517	-6.676	-7.133	-7.236	-7.268	-7.117	-7.401	-7.328	-7.022	-7.218	-7.132	-7.164	-7.450	-7.426	-6.917	-7.232	-7.512	-7.629	-7.321	-7.502	-7.883	-7.608	-7.910	-7.847
370.0	-538.7	-318.2	-129.9	-33.92	14.45	80.07	113.5	131.1	164.5	174.7	228.2	268.7	288.4	297.0	281.2	261.9	229.2	213.6	195.3	174.9	176.3	228.4	252.4	147.8	80.20	66.64	68.68	203.0	 1159	 4590	 7437	 3972	65.63	-6.899	-8.914	-8.696	-9.444	-9.434	-9.505	-9.429	-8.887	-8.940	-8.914	-8.333	-7.957	-7.869	-7.089	-6.867	-6.346	-5.514	-5.322	-6.620	-6.584	-6.553	-6.798	-7.002	-6.981	-7.068	-7.139	-7.224	-7.077	-7.286	-7.019	-6.968	-7.259	-7.413	-7.094	-7.113	-7.219	-7.395	-7.410	-7.433	-7.273	-7.513	-7.664	-7.950	-7.846
375.0	-524.6	-323.4	-190.7	-7.416	43.63	78.72	120.6	134.5	174.9	180.0	223.1	244.9	273.3	288.3	279.2	268.4	243.1	233.3	216.8	198.8	182.0	190.5	224.5	253.6	137.2	78.93	61.78	79.08	279.6	 1037	 2646	 8306	 5128	92.49	-7.439	-8.091	-8.992	-8.760	-8.950	-8.898	-8.538	-8.886	-8.890	-8.283	-7.943	-7.947	-7.076	-6.887	-6.391	-5.605	-5.347	-6.747	-6.533	-6.597	-6.438	-6.776	-6.638	-7.233	-7.031	-7.151	-7.024	-6.901	-7.052	-7.110	-7.298	-7.097	-6.956	-7.397	-7.337	-7.566	-7.436	-7.453	-7.088	-7.496	-7.770	-7.733	-7.856
380.0	-513.4	-313.1	-150.4	-16.54	24.59	87.77	117.7	167.8	189.8	189.5	211.1	249.2	255.3	273.0	273.3	269.5	251.6	243.9	225.4	219.2	200.3	185.3	184.8	255.8	215.4	108.4	71.12	59.38	90.95	247.5	615.3	 3740	 9123	 3442	51.16	-6.855	-7.569	-8.367	-8.729	-8.858	-8.650	-8.895	-8.622	-8.566	-7.761	-7.706	-7.058	-6.499	-6.376	-5.552	-5.533	-6.644	-6.472	-6.839	-6.486	-6.819	-6.901	-7.097	-7.215	-6.854	-7.251	-7.069	-7.326	-7.103	-6.841	-7.300	-7.105	-7.583	-7.227	-7.495	-7.358	-7.409	-7.174	-7.131	-7.696	-7.799	-7.825
385.0	-505.5	-265.2	-144.0	-39.09	7.710	102.7	126.1	155.5	188.6	199.9	223.9	245.0	260.2	287.8	269.9	258.9	249.3	242.1	230.7	227.2	208.8	198.2	186.0	205.4	258.6	170.7	87.99	64.37	57.56	80.05	155.0	907.7	 5118	 8502	963.1	12.76	-7.082	-8.116	-8.312	-8.575	-8.814	-8.907	-8.322	-8.902	-7.826	-7.665	-7.244	-6.707	-6.374	-5.442	-5.216	-6.480	-6.329	-6.687	-6.692	-6.934	-7.029	-7.136	-7.163	-7.021	-7.234	-6.957	-6.965	-6.799	-7.140	-7.517	-7.440	-7.243	-7.370	-7.309	-7.658	-7.377	-7.238	-7.121	-7.828	-7.708	-7.995
