Sample:	'1
File name:	S2025080908Ãñ·áÂ·ÇÅ.FD3
Run date:	'13:52:34, 08/10/2025
Operator:	Administrator
Comment:	'

Instrument
Model:	F-2700 FL Spectrophotometer
Serial number:	3064-004
ROM Version:	4J14000 07

Instrument parameters
Measurement type:	3-D scan
Data mode:	Fluorescence
EX  Start WL:	220.0 nm
EX  End WL:	600.0 nm
EX Sampling interval:	5.0 nm
EM  Start WL:	230.0 nm
EM  End WL:	650.0 nm
EM Sampling interval:	5.0 nm
Scan speed:	12000 nm/min
EX Slit:	5.0 nm
EM Slit:	5.0 nm
PMT Voltage:	700 V
Response:	Auto 
Corrected spectra:	Off
Contour interval:	50.000

Peak integration
Integration method:	Rectangular
Sensitivity:	1
Threshold:	1.000

Peaks
No.	ApexEX/EM(nm)	Height(Data)
1	225.0/545.0	95.80
2	225.0/635.0	52.13
3	230.0/340.0	 1554
4	230.0/560.0	91.05
5	235.0/355.0	 1531
6	240.0/365.0	 1623
7	245.0/380.0	 1718
8	245.0/530.0	249.6
9	250.0/385.0	 1696
10	250.0/545.0	247.4
11	255.0/280.0	778.4
12	255.0/555.0	214.2
13	260.0/285.0	 1083
14	260.0/570.0	206.0
15	265.0/290.0	 1327
16	265.0/580.0	211.5
17	270.0/295.0	 1926
18	270.0/595.0	194.5
19	275.0/305.0	 2389
20	275.0/375.0	 2000
21	275.0/605.0	198.2
22	280.0/310.0	 2221
23	280.0/345.0	 2027
24	280.0/365.0	 2038
25	280.0/615.0	155.3
26	285.0/315.0	 2021
27	285.0/630.0	122.3
28	290.0/645.0	92.50
29	320.0/360.0	 1136
30	335.0/380.0	 1120
31	430.0/505.0	89.27
32	445.0/525.0	53.34
33	460.0/340.0	6.068
34	505.0/275.0	3.258
35	520.0/285.0	5.416
36	530.0/290.0	5.621
37	540.0/295.0	8.967
38	545.0/300.0	10.01
39	550.0/305.0	10.36
40	560.0/310.0	9.348
41	560.0/340.0	8.696
42	560.0/615.0	2.691
43	570.0/315.0	9.044
44	570.0/365.0	8.669
45	575.0/320.0	9.206
46	575.0/360.0	8.954
47	580.0/325.0	8.975

Data points
	220.0	225.0	230.0	235.0	240.0	245.0	250.0	255.0	260.0	265.0	270.0	275.0	280.0	285.0	290.0	295.0	300.0	305.0	310.0	315.0	320.0	325.0	330.0	335.0	340.0	345.0	350.0	355.0	360.0	365.0	370.0	375.0	380.0	385.0	390.0	395.0	400.0	405.0	410.0	415.0	420.0	425.0	430.0	435.0	440.0	445.0	450.0	455.0	460.0	465.0	470.0	475.0	480.0	485.0	490.0	495.0	500.0	505.0	510.0	515.0	520.0	525.0	530.0	535.0	540.0	545.0	550.0	555.0	560.0	565.0	570.0	575.0	580.0	585.0	590.0	595.0	600.0
230.0	33.99	 2385	9999.9	 4946	213.7	10.66	5.904	6.084	4.435	4.326	3.633	3.665	4.401	3.686	3.378	2.893	2.687	2.642	2.126	2.151	2.196	2.067	1.993	1.669	1.613	1.674	1.700	1.217	1.324	1.293	1.229	1.173	1.192	1.039	1.050	1.087	1.062	0.846	0.906	0.835	0.732	0.852	0.812	0.779	0.655	0.680	1.380	5.280	9.991	8.261	3.578	0.885	0.552	0.480	0.399	0.358	0.432	0.405	0.339	0.390	0.254	0.321	0.272	0.292	0.291	0.237	0.199	0.162	0.143	0.203	0.179	0.146	0.100	0.129	0.138	0.139	0.180
235.0	55.73	592.1	 4436	9999.9	 3767	357.4	8.387	8.572	4.928	5.784	4.865	5.102	5.328	3.691	3.821	3.296	2.358	2.852	2.539	2.231	2.221	2.178	2.040	2.247	1.965	1.511	1.540	1.373	1.764	1.443	1.122	1.102	1.060	1.022	0.798	0.897	0.990	1.045	0.900	0.953	0.799	0.880	0.832	0.766	0.944	0.744	0.938	1.751	3.939	6.327	9.680	10.03	4.669	1.461	0.428	0.419	0.463	0.371	0.303	0.389	0.229	0.287	0.336	0.363	0.343	0.221	0.249	0.126	0.222	0.187	0.240	0.117	0.129	0.165	0.171	0.088	0.188
240.0	64.10	215.7	 1105	 5982	 7755	 3435	104.9	9.236	5.695	6.749	5.610	5.320	5.260	4.461	3.777	3.457	2.440	2.428	2.522	2.661	1.892	2.296	2.092	2.080	1.797	1.810	1.510	1.131	1.636	1.208	1.232	1.160	0.984	0.988	1.231	0.903	1.183	0.888	0.846	0.879	0.766	0.739	0.689	0.744	0.989	0.914	1.008	1.004	1.338	2.088	5.059	11.44	13.65	9.692	3.417	1.099	0.527	0.585	0.328	0.369	0.339	0.212	0.315	0.258	0.282	0.212	0.351	0.117	0.222	0.188	0.139	0.192	0.076	0.085	0.154	0.048	0.153
245.0	55.00	173.8	334.4	 1602	 5001	 8347	836.8	63.61	8.395	6.875	5.325	5.104	6.943	4.623	4.085	3.506	2.389	2.881	2.566	2.572	2.669	2.243	2.085	2.359	1.694	1.784	1.289	1.527	1.766	1.121	1.348	1.303	1.150	1.135	1.059	1.247	0.843	0.749	0.875	1.007	1.013	0.972	0.607	0.835	0.676	1.059	1.129	1.096	1.000	1.066	1.697	3.898	8.626	15.60	15.36	8.771	2.692	0.614	0.351	0.313	0.303	0.298	0.331	0.372	0.187	0.179	0.302	0.241	0.229	0.196	0.232	0.198	0.236	0.212	0.119	0.179	0.144
250.0	47.54	101.8	204.9	476.5	 1300	 5103	 6240	 3147	224.1	10.58	8.770	6.832	7.082	4.791	4.596	4.550	2.871	3.283	2.781	2.682	2.180	2.255	2.275	2.327	2.079	1.920	1.885	1.751	1.793	1.727	1.272	1.420	1.306	1.212	1.091	1.158	1.012	0.888	0.981	0.822	0.921	0.869	0.834	0.835	0.708	0.801	0.982	1.045	1.305	1.317	0.986	1.425	2.468	5.029	8.937	14.06	16.83	14.80	8.235	2.696	0.476	0.362	0.345	0.360	0.286	0.163	0.297	0.292	0.216	0.182	0.242	0.264	0.187	0.146	0.171	0.150	0.132
255.0	52.29	69.99	103.4	304.4	441.3	 1185	 2572	9999.9	 4132	344.3	13.41	9.762	9.751	6.999	6.201	4.585	3.090	3.934	3.300	3.184	2.713	2.288	2.189	1.996	2.360	1.933	1.887	1.648	1.774	1.456	1.319	1.316	1.308	1.136	0.971	0.964	1.190	1.046	0.914	0.736	0.998	0.755	0.756	0.834	0.834	0.688	0.700	0.657	0.888	1.339	1.316	1.482	1.150	1.622	2.334	3.660	6.516	14.32	25.64	25.91	13.16	3.221	0.379	0.408	0.308	0.182	0.276	0.277	0.245	0.199	0.204	0.174	0.167	0.172	0.123	0.060	0.141
260.0	55.46	75.82	57.31	181.1	370.4	356.1	640.7	 4931	 8322	 3769	184.4	14.01	8.848	7.411	6.375	5.343	3.822	3.626	2.672	3.411	3.102	2.278	2.205	2.109	2.032	2.204	2.356	1.627	1.700	1.582	1.825	1.798	1.342	1.356	1.134	0.986	0.896	0.793	0.966	0.767	0.828	0.715	0.704	0.868	0.690	0.655	0.645	0.896	0.770	0.995	0.907	1.553	1.615	1.371	1.029	1.313	1.929	4.098	10.76	22.84	34.32	28.20	10.27	1.324	0.310	0.219	0.232	0.189	0.240	0.273	0.358	0.188	0.211	0.270	0.167	0.246	0.273
265.0	80.14	84.53	52.77	78.28	272.1	366.4	201.3	 1271	 4686	9999.9	 2756	77.05	14.18	8.922	7.608	5.889	4.343	3.482	3.638	3.280	2.953	2.210	2.081	2.223	1.827	2.112	2.130	2.273	2.079	1.870	1.630	1.450	1.227	1.449	0.889	1.164	1.098	0.870	0.959	0.778	0.762	0.650	0.977	0.983	0.620	0.820	0.723	0.911	0.738	0.747	0.741	0.769	1.708	2.129	1.609	0.890	0.880	1.331	2.873	6.898	18.07	35.62	42.59	25.83	6.169	0.556	0.226	0.319	0.147	0.280	0.212	0.236	0.349	0.305	0.152	0.134	0.325
270.0	149.2	140.2	80.35	65.84	113.1	326.9	401.8	419.4	 1243	 4935	 9483	 5593	185.8	16.79	10.05	7.311	5.697	4.765	4.221	3.820	3.123	3.152	2.548	2.243	2.138	2.311	1.799	2.274	1.990	1.695	1.553	1.548	1.268	1.318	1.153	1.262	1.295	1.078	1.098	0.880	0.929	1.050	1.080	1.107	1.080	0.992	0.987	0.912	0.665	0.826	0.716	0.726	0.885	1.553	1.715	2.139	1.818	1.424	1.286	2.141	4.885	10.55	20.48	32.45	39.99	37.41	20.62	5.758	0.677	0.313	0.270	0.208	0.269	0.373	0.114	0.373	0.297
275.0	256.3	251.9	155.4	100.9	75.64	142.2	418.8	663.7	514.1	 1345	 3423	9999.9	 9315	226.5	15.72	11.73	7.061	5.850	5.259	3.934	3.642	3.517	2.832	2.673	2.239	2.340	2.339	1.891	1.970	2.120	1.614	1.614	1.502	1.401	1.233	1.423	1.291	1.228	1.298	1.136	1.330	1.273	1.171	1.620	1.574	1.350	1.377	1.105	0.999	0.983	0.840	0.761	0.746	0.866	0.941	1.143	2.354	3.258	2.593	1.657	2.212	3.587	5.805	8.307	13.16	28.76	57.97	51.50	28.97	5.052	0.335	0.337	0.406	0.430	0.181	0.250	0.147
280.0	355.1	405.2	272.5	184.0	102.2	121.9	254.7	778.4	671.6	648.9	 1143	 4389	9999.9	 2558	143.6	14.36	10.31	5.390	5.518	4.393	4.200	4.127	3.284	2.933	2.638	2.677	2.246	2.378	2.221	2.238	1.974	1.935	1.728	1.390	1.605	1.716	1.279	1.815	1.626	1.734	1.413	1.671	1.713	2.220	1.867	2.050	1.766	1.550	1.475	1.337	1.248	0.945	0.743	0.927	0.657	1.167	1.607	2.490	3.602	3.981	2.955	2.437	3.101	3.362	4.365	8.453	21.92	48.34	77.95	47.99	18.98	1.590	0.277	0.350	0.331	0.340	0.356
285.0	447.0	515.9	415.8	279.2	164.9	144.3	213.0	538.7	 1083	677.0	732.6	 1457	 5924	9999.9	 1975	77.32	13.61	8.674	6.923	5.609	5.383	3.438	3.574	3.418	3.718	2.852	2.738	2.538	2.294	2.630	2.088	2.044	1.677	1.809	2.050	1.604	1.636	1.697	1.808	1.947	1.707	2.191	1.978	2.459	2.147	2.743	2.136	2.208	1.834	1.882	1.449	1.331	1.035	1.169	0.825	1.175	1.262	1.660	2.498	4.211	5.416	3.696	2.721	2.660	3.073	3.606	6.585	14.27	34.73	68.23	85.96	39.19	8.147	0.689	0.331	0.314	0.324
290.0	526.8	673.1	608.7	467.6	272.8	202.1	241.5	427.7	869.5	 1327	 1140	 1048	 1966	 5501	9999.9	 7223	114.1	14.41	9.938	6.953	6.068	4.296	4.154	3.619	3.445	2.900	3.035	2.482	2.506	2.674	2.202	1.842	1.725	1.958	1.689	1.811	1.924	1.881	2.141	2.080	2.107	2.031	2.184	2.600	2.595	2.977	2.800	2.873	2.647	2.315	1.709	1.637	1.426	1.249	1.295	1.263	1.436	1.882	2.164	2.699	4.160	5.127	5.621	5.113	4.206	3.945	4.433	5.743	10.34	19.39	36.60	53.78	55.78	60.30	25.37	7.669	0.722
295.0	607.4	788.3	760.5	642.9	404.8	277.8	318.6	477.7	728.1	 1206	 1926	 1421	 1295	 1772	 3261	9999.9	9999.9	150.7	16.32	9.538	7.894	6.354	5.013	4.386	4.154	3.280	3.556	2.584	2.706	2.616	2.294	1.781	1.962	2.183	1.844	1.810	2.207	1.966	2.296	2.130	2.223	1.881	2.522	3.037	2.988	3.360	3.086	3.287	3.460	2.624	2.279	2.080	1.758	1.755	1.907	1.435	1.625	2.086	2.001	2.618	3.044	4.142	4.950	7.489	8.967	6.423	5.312	5.134	5.942	6.922	10.52	14.00	16.85	41.72	89.04	100.8	39.20
300.0	628.0	829.9	843.8	719.7	497.4	341.7	392.7	513.5	784.5	 1124	 1885	 2135	 1378	 1099	 1112	 3970	9999.9	 7588	105.7	13.20	10.06	7.244	5.855	4.981	4.893	3.482	3.745	3.077	2.558	2.676	2.284	2.021	1.861	2.214	1.781	2.403	2.081	2.288	2.273	2.352	2.397	2.128	2.568	2.812	3.341	3.146	3.383	3.422	3.336	2.844	2.568	2.475	1.928	1.614	1.890	1.777	1.878	2.079	2.471	2.845	3.438	4.416	4.353	6.156	8.058	10.01	8.138	6.024	5.749	4.984	5.124	5.579	5.584	11.02	30.14	76.60	116.7
305.0	624.4	808.1	873.7	746.6	558.1	410.9	442.6	584.9	818.2	 1160	 1607	 2389	 1878	 1115	735.4	 1161	 5586	9999.9	 1281	64.21	12.43	9.171	7.575	5.910	4.691	3.784	3.468	2.978	2.884	2.501	2.852	2.044	1.717	2.069	1.782	2.204	2.072	2.513	2.297	2.374	2.099	2.196	2.521	2.968	3.239	3.482	3.308	3.625	3.274	3.018	2.451	2.428	2.353	2.063	1.961	2.022	1.934	2.254	2.543	3.022	3.310	4.439	4.206	5.697	6.684	8.268	10.36	9.258	6.795	5.741	4.448	4.183	3.278	4.070	8.196	20.14	50.60
310.0	595.2	777.7	885.1	754.5	577.0	458.4	493.0	633.3	853.4	 1160	 1520	 1950	 2221	 1612	813.3	614.1	 1519	 5385	9999.9	 5101	84.13	15.34	9.192	7.019	6.035	4.488	4.343	3.779	3.205	3.057	2.745	2.406	2.255	2.232	1.946	2.178	2.063	2.333	2.421	2.230	2.092	2.370	2.377	2.524	2.670	3.317	3.341	3.588	3.289	2.807	2.608	2.667	2.402	2.229	2.335	2.237	2.430	2.391	2.915	3.375	3.638	4.370	4.754	5.557	6.055	6.921	7.960	8.867	9.348	8.293	6.000	4.526	3.228	2.999	3.559	6.146	12.72
315.0	570.4	815.5	886.5	760.0	583.5	494.6	543.2	685.4	885.5	 1164	 1502	 1764	 1890	 2021	 1264	637.9	662.4	 1416	 3133	9999.9	 7880	112.6	14.96	9.411	7.375	5.824	5.016	4.323	3.733	3.772	3.035	2.209	2.973	2.577	2.180	2.439	2.216	2.206	2.428	2.163	2.055	2.150	2.184	2.663	2.821	3.000	3.360	3.417	3.072	3.079	2.763	2.823	2.409	2.477	2.543	2.151	2.565	2.921	3.210	3.485	4.366	4.359	5.075	5.317	5.858	6.418	6.852	7.590	7.769	8.275	9.044	7.605	4.925	3.713	3.050	3.028	4.932
320.0	616.8	963.8	 1071	856.0	644.7	542.6	587.5	723.4	928.3	 1200	 1543	 1791	 1845	 1869	 1779	900.5	570.7	605.4	901.6	 4149	9999.9	 6403	82.06	14.46	9.983	7.079	5.597	5.630	4.707	4.194	3.993	2.939	2.803	2.583	2.187	2.032	2.352	2.085	2.049	1.907	2.079	2.366	2.459	2.668	2.966	3.791	3.637	3.878	3.539	3.736	2.838	2.828	2.635	2.864	2.555	2.439	2.598	2.971	3.406	3.626	3.655	4.355	5.119	5.541	6.659	6.640	6.725	7.090	7.514	7.260	8.041	9.206	8.098	5.586	3.755	2.981	3.079
325.0	683.3	 1128	 1275	 1038	723.9	568.1	613.6	768.6	952.1	 1229	 1577	 1800	 1892	 1795	 1796	 1372	687.0	510.5	457.1	 1125	 6187	9999.9	 4596	52.99	12.78	8.819	7.001	5.398	5.644	4.471	3.457	2.751	3.141	2.862	2.050	2.069	2.094	2.440	2.268	1.900	1.962	2.144	2.731	3.188	3.234	3.679	4.441	4.777	4.927	4.061	3.311	3.075	3.029	2.643	2.414	2.822	2.659	3.048	3.482	3.621	3.953	4.330	5.663	5.627	6.507	7.337	7.271	7.358	7.966	7.093	7.508	7.861	8.975	8.641	6.091	4.276	3.546
330.0	722.6	 1160	 1408	 1245	880.8	643.6	668.6	779.3	994.6	 1242	 1573	 1835	 1937	 1821	 1638	 1515	 1137	646.8	456.2	501.2	 1613	 5775	9999.9	 7888	68.02	14.59	9.653	6.906	6.153	5.121	4.230	3.514	3.366	2.918	2.540	2.138	2.393	2.272	2.231	2.148	2.370	2.380	2.524	2.957	3.549	3.836	4.301	5.069	5.361	4.625	3.682	3.518	3.423	3.045	2.740	2.932	3.082	3.055	3.461	3.677	4.150	4.788	5.318	5.660	6.621	6.924	7.055	7.662	8.244	7.466	7.817	7.552	6.974	7.535	7.044	6.964	5.922
335.0	721.1	 1186	 1503	 1393	 1053	796.8	763.9	893.3	 1018	 1285	 1580	 1851	 1980	 1893	 1667	 1390	 1339	 1057	585.6	461.4	612.7	 1472	 3437	9999.9	 6439	91.57	15.62	9.802	7.929	6.050	5.150	4.146	3.728	3.068	2.657	2.489	2.701	2.545	2.502	2.501	2.453	2.180	2.554	3.245	3.199	4.055	4.247	5.595	5.562	5.274	4.364	4.083	3.865	3.820	3.318	3.355	3.409	3.153	3.749	3.997	4.145	4.928	5.329	5.501	6.528	7.257	7.647	7.260	8.376	8.008	7.927	7.868	7.483	6.262	7.073	6.729	7.722
340.0	734.9	 1177	 1554	 1452	 1168	915.3	854.5	941.8	 1090	 1327	 1604	 1849	 2000	 1953	 1720	 1405	 1218	 1281	831.8	526.6	466.9	574.4	953.6	 4856	9999.9	 5387	69.18	13.54	10.30	7.581	5.285	4.353	4.158	3.492	2.736	3.112	2.843	2.489	2.559	2.616	2.159	2.537	2.954	3.021	3.331	4.482	4.700	5.902	6.068	5.313	4.689	4.813	4.347	4.265	3.571	3.635	3.516	3.477	3.937	4.179	4.654	5.296	5.249	5.845	5.819	7.322	6.958	7.667	8.696	8.182	8.033	7.823	7.418	6.618	6.848	6.156	7.001
345.0	757.5	 1138	 1503	 1506	 1283	 1043	955.5	996.2	 1150	 1362	 1637	 1851	 2027	 1970	 1771	 1458	 1196	 1199	 1115	668.6	494.6	436.2	438.2	 1293	 7308	9999.9	 4073	49.55	14.33	8.741	6.588	4.943	4.115	3.142	3.114	3.125	2.568	2.314	2.158	2.447	2.305	2.693	3.124	2.880	3.300	4.135	4.406	5.076	5.716	5.429	4.713	5.145	4.885	4.355	3.916	3.848	4.540	4.332	4.382	4.647	4.746	5.196	5.499	6.251	7.136	7.534	7.060	7.776	8.113	8.382	8.601	7.711	8.194	7.204	6.967	6.257	6.554
350.0	716.9	 1076	 1460	 1530	 1387	 1224	 1146	 1156	 1277	 1464	 1667	 1875	 1983	 1987	 1814	 1524	 1258	 1124	 1133	 1009	668.9	507.1	417.6	528.8	 1893	 6769	9999.9	 7732	60.62	14.44	9.956	7.061	5.405	4.236	3.575	3.089	2.921	2.458	2.602	2.652	2.448	2.640	2.940	2.704	3.462	3.793	4.328	5.355	5.788	5.223	4.963	5.709	5.060	4.988	4.605	4.617	4.864	4.687	4.397	5.466	5.309	5.766	5.873	6.597	7.273	7.669	7.596	7.822	8.374	8.460	8.619	8.038	8.082	7.928	7.374	7.095	6.588
355.0	654.2	 1022	 1382	 1531	 1478	 1398	 1342	 1366	 1456	 1614	 1749	 1943	 2019	 2013	 1854	 1611	 1348	 1190	 1092	 1099	 1005	673.1	512.6	455.1	661.5	 1677	 3950	9999.9	 5719	80.37	14.63	9.812	6.721	5.142	4.446	3.429	3.288	2.686	2.786	2.710	2.479	2.593	2.825	2.898	3.910	3.763	4.150	4.628	5.502	5.355	4.988	5.487	5.805	5.597	5.409	5.007	5.084	5.013	5.110	5.909	5.894	6.053	6.551	7.191	7.023	8.021	7.847	7.885	8.266	8.151	7.946	8.228	8.291	8.242	7.754	7.414	7.310
360.0	621.8	 1005	 1346	 1522	 1552	 1497	 1454	 1472	 1602	 1703	 1842	 1967	 2022	 2015	 1859	 1650	 1412	 1238	 1141	 1054	 1136	886.3	608.2	496.5	452.0	578.1	 1044	 5822	9999.9	 4870	60.83	13.01	8.961	6.352	4.906	3.815	3.512	3.258	2.772	2.669	2.687	2.652	2.750	3.058	3.420	3.931	4.224	4.672	5.219	4.845	4.642	5.856	6.016	6.102	6.183	5.366	5.524	5.799	6.225	6.339	5.805	5.839	6.983	7.764	7.003	7.940	7.972	7.786	8.542	7.844	8.133	8.954	8.923	8.071	7.600	7.761	7.459
365.0	620.6	941.5	 1291	 1499	 1623	 1549	 1497	 1560	 1646	 1766	 1899	 1940	 2038	 2005	 1866	 1679	 1461	 1302	 1184	 1085	 1083	 1089	757.7	569.0	452.4	388.5	411.0	 1511	 8905	9999.9	 3593	40.03	12.25	7.720	5.936	4.331	3.468	3.506	3.297	2.509	2.857	2.754	2.517	2.894	3.123	3.805	4.076	4.800	4.920	5.047	4.811	5.663	5.856	6.484	6.182	5.810	6.146	6.209	6.432	6.720	6.388	6.502	7.328	7.464	7.122	7.652	7.793	7.902	8.131	7.901	8.669	8.630	8.416	7.627	7.953	7.887	7.781
370.0	602.4	879.2	 1222	 1473	 1590	 1638	 1629	 1610	 1714	 1804	 1914	 1971	 2000	 1964	 1861	 1668	 1503	 1365	 1262	 1160	 1081	 1093	 1028	746.8	558.5	432.6	343.2	512.5	 2273	 8078	9999.9	 7507	51.10	12.31	7.893	5.699	4.574	4.024	4.025	2.962	3.171	3.076	2.594	2.910	3.024	3.686	3.942	4.462	4.885	4.799	4.993	6.043	5.850	6.222	6.007	5.967	6.390	6.369	6.074	6.682	7.055	6.649	7.257	6.955	7.226	7.722	7.837	8.276	8.176	8.064	8.466	8.388	8.663	8.033	8.161	8.054	8.157
375.0	608.1	844.3	 1141	 1413	 1615	 1664	 1669	 1672	 1761	 1842	 1913	 2000	 1984	 1944	 1834	 1654	 1537	 1414	 1330	 1246	 1161	 1090	 1090	 1034	733.3	551.5	421.0	361.9	680.2	 1921	 4713	9999.9	 4822	63.57	11.61	7.496	5.660	4.630	4.153	3.551	3.510	3.001	3.127	3.208	3.043	3.316	4.018	4.114	4.832	4.651	4.894	5.957	6.129	6.297	6.154	6.105	6.913	6.989	6.593	6.782	6.777	7.278	7.572	7.244	7.634	7.663	7.839	8.197	8.066	7.858	8.235	8.599	8.425	8.879	7.916	7.993	8.800
380.0	579.9	824.2	 1091	 1346	 1622	 1718	 1674	 1693	 1748	 1830	 1911	 1979	 1979	 1917	 1799	 1645	 1548	 1453	 1368	 1283	 1231	 1133	 1077	 1120	929.1	663.4	504.4	391.4	365.1	572.9	 1197	 6994	9999.9	 3899	45.42	10.53	7.760	5.364	4.659	3.818	3.530	2.940	3.307	3.146	3.075	3.665	3.620	4.439	4.674	4.605	4.277	5.636	6.056	6.559	6.686	6.412	6.767	6.546	6.446	6.578	6.626	7.469	7.052	7.011	7.719	8.063	8.189	8.172	8.687	7.897	8.140	7.556	8.119	8.314	8.782	7.572	9.071
385.0	560.0	741.9	 1025	 1337	 1587	 1694	 1696	 1681	 1744	 1803	 1877	 1950	 1948	 1860	 1763	 1625	 1526	 1453	 1407	 1323	 1274	 1175	 1090	 1071	 1063	801.2	573.4	447.0	341.8	313.0	393.4	 1806	 9931	9999.9	558.3	29.00	9.451	5.855	4.973	4.461	3.427	3.218	3.123	3.051	3.117	3.510	3.451	4.258	4.290	4.148	4.297	5.391	5.913	6.315	6.238	6.776	6.843	6.411	6.844	6.733	6.427	6.889	7.094	7.034	7.472	8.428	8.333	7.556	8.596	7.937	8.317	8.242	7.961	8.376	7.936	7.682	8.552
390.0	566.9	759.8	 1042	 1265	 1522	 1663	 1676	 1665	 1698	 1759	 1807	 1852	 1839	 1788	 1700	 1583	 1510	 1450	 1388	 1336	 1286	 1212	 1127	 1058	 1039	961.8	718.7	527.2	404.1	311.2	261.0	520.0	 2548	 8354	9999.9	 5931	38.93	10.62	6.727	5.607	4.444	3.853	3.647	3.141	3.481	3.785	3.707	4.264	4.247	4.192	4.311	5.593	5.515	6.146	6.437	6.489	6.404	6.258	6.521	6.346	6.466	6.682	7.240	6.669	7.075	7.384	7.769	7.612	7.791	7.671	7.711	7.926	7.861	7.850	7.925	7.472	8.665
395.0	556.8	717.9	968.7	 1212	 1427	 1597	 1644	 1626	 1655	 1702	 1724	 1765	 1772	 1703	 1630	 1531	 1463	 1410	 1387	 1339	 1297	 1234	 1161	 1090	 1009	975.2	898.5	648.6	479.3	370.4	283.6	272.9	675.7	 1950	 4793	9999.9	 3878	51.41	10.70	7.304	5.221	4.705	3.979	3.931	3.436	3.857	3.345	4.317	4.195	4.186	4.106	5.526	5.935	5.772	6.200	6.048	6.081	6.527	6.267	6.320	6.697	6.757	6.600	6.581	6.883	6.342	7.481	7.444	7.566	7.574	7.365	7.748	7.809	7.623	7.732	7.811	8.437
400.0	522.9	680.9	958.7	 1201	 1391	 1515	 1601	 1594	 1596	 1638	 1694	 1714	 1705	 1624	 1576	 1468	 1428	 1387	 1359	 1327	 1279	 1240	 1168	 1093	 1026	950.3	937.3	782.1	547.1	420.1	323.0	252.8	285.1	526.8	 1191	 6793	9999.9	 3152	36.91	9.193	6.284	5.555	4.103	4.037	3.373	3.744	3.542	4.203	4.019	4.110	4.090	5.611	5.886	5.786	5.596	6.053	6.074	6.257	6.621	6.759	6.817	6.262	6.255	6.728	6.770	6.351	6.942	7.100	7.154	7.337	7.725	7.637	7.168	7.137	7.557	7.419	7.786
405.0	499.3	674.4	915.1	 1120	 1357	 1478	 1547	 1539	 1586	 1597	 1646	 1666	 1638	 1592	 1499	 1426	 1383	 1353	 1336	 1295	 1265	 1221	 1161	 1104	 1024	936.9	897.6	866.5	653.4	474.3	361.6	278.2	226.6	228.7	344.2	 1761	 9155	9999.9	477.4	21.96	8.191	6.097	4.335	4.167	4.180	3.764	3.620	3.884	4.020	3.862	3.931	4.936	5.878	5.532	5.525	5.767	5.984	5.914	5.846	6.075	6.452	6.308	6.070	6.454	7.180	6.323	6.620	6.266	7.004	6.475	6.983	6.929	6.831	7.063	7.231	7.746	8.264
410.0	508.9	637.0	871.9	 1053	 1290	 1417	 1470	 1481	 1512	 1545	 1555	 1572	 1543	 1520	 1440	 1357	 1314	 1284	 1278	 1254	 1222	 1184	 1138	 1083	 1015	938.9	863.2	821.6	757.4	581.6	418.8	321.9	244.4	192.5	179.0	463.9	 2348	 7543	9999.9	 4558	33.53	8.957	5.873	5.214	4.312	3.843	3.686	4.054	4.300	3.941	4.186	4.693	5.143	5.422	5.408	5.676	6.293	6.044	5.885	6.181	6.086	5.948	6.395	5.953	6.689	6.122	6.310	6.320	6.751	6.846	6.414	6.828	6.241	6.382	7.165	6.912	7.256
