Sample:	'1
File name:	Ñù8 10±¶.FD3
Run date:	'12:47:03, 07/28/2025
Operator:	Administrator
Comment:	'

Instrument
Model:	F-2700 FL Spectrophotometer
Serial number:	23B8-004
ROM Version:	4J14000 07

Instrument parameters
Measurement type:	3-D scan
Data mode:	Fluorescence
EX  Start WL:	220.0 nm
EX  End WL:	600.0 nm
EX Sampling interval:	5.0 nm
EM  Start WL:	230.0 nm
EM  End WL:	650.0 nm
EM Sampling interval:	5.0 nm
Scan speed:	12000 nm/min
EX Slit:	5.0 nm
EM Slit:	5.0 nm
PMT Voltage:	700 V
Response:	Auto 
Corrected spectra:	Off
Contour interval:	50.000

Peak integration
Integration method:	Rectangular
Sensitivity:	1
Threshold:	1.000

Peaks
No.	ApexEX/EM(nm)	Height(Data)
1	225.0/335.0	5879
2	230.0/500.0	297.3
3	235.0/510.0	253.3
4	240.0/265.0	440.0
5	240.0/520.0	216.5
6	245.0/270.0	445.7
7	245.0/410.0	3047
8	245.0/540.0	182.9
9	250.0/275.0	578.0
10	250.0/550.0	151.9
11	255.0/285.0	624.7
12	255.0/565.0	133.4
13	260.0/290.0	619.5
14	260.0/575.0	115.1
15	265.0/295.0	780.7
16	265.0/585.0	105.4
17	270.0/300.0	1084
18	270.0/600.0	96.83
19	275.0/410.0	843.0
20	275.0/615.0	94.37
21	280.0/330.0	2699
22	285.0/640.0	116.9
23	315.0/355.0	412.6
24	320.0/360.0	358.5
25	325.0/370.0	302.5
26	330.0/375.0	311.6
27	335.0/380.0	330.1
28	340.0/390.0	343.3
29	340.0/410.0	375.3
30	345.0/395.0	373.9
31	350.0/400.0	406.0
32	395.0/460.0	67.93
33	400.0/465.0	56.92
34	410.0/480.0	39.75
35	415.0/485.0	34.82
36	425.0/500.0	25.72
37	430.0/505.0	21.73
38	440.0/520.0	16.48
39	455.0/335.0	14.14
40	455.0/540.0	9.616
41	465.0/555.0	6.000
42	470.0/560.0	5.150
43	480.0/575.0	3.615
44	495.0/270.0	2.231
45	500.0/415.0	11.03
46	505.0/275.0	3.262
47	510.0/280.0	3.592
48	520.0/285.0	3.536
49	525.0/290.0	3.482
50	535.0/295.0	4.482
51	545.0/300.0	5.036
52	550.0/305.0	6.076
53	565.0/335.0	10.54
54	570.0/330.0	10.68
55	575.0/320.0	10.66
56	580.0/325.0	10.92

Data points
	220.0	225.0	230.0	235.0	240.0	245.0	250.0	255.0	260.0	265.0	270.0	275.0	280.0	285.0	290.0	295.0	300.0	305.0	310.0	315.0	320.0	325.0	330.0	335.0	340.0	345.0	350.0	355.0	360.0	365.0	370.0	375.0	380.0	385.0	390.0	395.0	400.0	405.0	410.0	415.0	420.0	425.0	430.0	435.0	440.0	445.0	450.0	455.0	460.0	465.0	470.0	475.0	480.0	485.0	490.0	495.0	500.0	505.0	510.0	515.0	520.0	525.0	530.0	535.0	540.0	545.0	550.0	555.0	560.0	565.0	570.0	575.0	580.0	585.0	590.0	595.0	600.0
230.0	86.62	1641	3465	886.4	38.40	8.867	6.557	5.873	4.947	4.295	3.929	3.888	3.195	2.853	2.520	1.885	1.773	1.495	1.246	1.159	1.007	0.959	0.832	0.846	0.813	0.732	0.688	0.651	0.616	0.594	0.606	0.554	0.469	0.490	0.450	0.456	0.457	0.433	0.388	0.414	0.515	0.706	0.735	0.514	0.415	0.401	2.058	7.715	11.41	7.076	2.450	0.584	0.279	0.281	0.256	0.282	0.303	0.294	0.267	0.284	0.269	0.266	0.281	0.286	0.299	0.288	0.252	0.286	0.292	0.278	0.286	0.270	0.303	0.306	0.296	0.287	0.281
235.0	149.2	455.0	2253	3260	613.3	53.03	7.441	5.837	5.726	4.344	4.711	3.773	3.193	3.058	2.286	2.065	1.628	1.466	1.329	1.143	1.306	0.942	0.863	0.936	0.890	0.859	0.739	0.696	0.691	0.572	0.621	0.575	0.487	0.531	0.454	0.399	0.466	0.381	0.400	0.394	0.417	0.528	0.652	0.737	0.709	0.456	0.750	2.122	4.770	7.580	10.77	9.578	3.980	0.865	0.267	0.254	0.303	0.294	0.319	0.361	0.332	0.285	0.249	0.255	0.329	0.296	0.261	0.294	0.288	0.301	0.303	0.258	0.282	0.315	0.223	0.274	0.283
240.0	219.0	215.6	695.2	3001	3161	467.9	24.76	6.909	7.206	5.335	5.166	4.820	3.705	2.833	2.635	2.116	1.733	1.584	1.186	1.175	1.092	0.847	0.945	0.826	0.823	0.884	0.775	0.749	0.658	0.581	0.642	0.532	0.449	0.502	0.521	0.499	0.388	0.493	0.383	0.468	0.362	0.550	0.460	0.635	0.836	0.774	0.605	0.753	1.380	2.481	6.741	14.27	14.98	9.185	3.014	0.515	0.269	0.381	0.325	0.267	0.276	0.278	0.284	0.298	0.298	0.270	0.311	0.277	0.300	0.248	0.314	0.275	0.349	0.316	0.277	0.317	0.303
245.0	161.0	280.9	233.9	1076	3753	3078	341.9	12.44	7.580	6.694	5.529	4.768	4.298	3.206	2.654	2.166	1.820	1.613	1.280	1.153	0.944	0.958	1.124	0.758	0.824	0.876	0.810	0.820	0.682	0.638	0.500	0.647	0.511	0.559	0.449	0.453	0.506	0.389	0.488	0.477	0.373	0.422	0.454	0.431	0.633	0.859	0.903	0.923	0.729	0.787	1.814	5.254	11.60	18.29	15.66	7.382	1.605	0.356	0.349	0.269	0.294	0.284	0.314	0.305	0.295	0.327	0.331	0.261	0.290	0.271	0.285	0.271	0.346	0.352	0.290	0.257	0.341
250.0	74.50	202.2	299.9	346.9	1299	3447	3777	1140	61.06	8.671	6.371	5.467	4.853	3.243	3.128	2.300	2.114	1.647	1.292	1.275	1.325	1.123	1.020	1.001	0.959	0.816	0.838	0.704	0.690	0.618	0.560	0.574	0.457	0.485	0.496	0.455	0.407	0.448	0.434	0.457	0.368	0.410	0.427	0.398	0.411	0.492	0.702	1.052	1.157	0.948	0.934	1.508	3.050	6.650	11.35	16.28	18.62	15.08	7.224	1.749	0.391	0.334	0.310	0.350	0.302	0.318	0.311	0.298	0.268	0.307	0.289	0.272	0.294	0.312	0.329	0.269	0.318
255.0	49.43	72.94	228.3	391.4	384.9	939.0	3545	5649	1522	53.51	8.468	6.437	5.141	4.457	3.418	2.751	2.473	1.885	1.489	1.354	1.294	1.098	0.981	0.956	0.855	0.886	0.813	0.719	0.810	0.748	0.671	0.761	0.466	0.486	0.456	0.437	0.429	0.417	0.505	0.423	0.398	0.437	0.397	0.313	0.361	0.347	0.432	0.612	0.739	1.078	1.659	1.478	1.198	1.860	2.908	4.274	8.842	19.67	29.51	23.89	10.39	1.769	0.359	0.372	0.316	0.315	0.308	0.280	0.252	0.294	0.347	0.304	0.267	0.319	0.402	0.293	0.319
260.0	40.73	36.31	94.25	354.9	361.0	270.9	1177	5368	5822	299.5	24.62	9.435	6.766	5.714	4.004	3.128	2.466	2.021	1.536	1.487	1.263	1.197	1.174	0.941	0.931	0.905	0.819	0.832	0.802	0.751	0.688	0.581	0.537	0.470	0.433	0.439	0.477	0.463	0.459	0.405	0.426	0.410	0.382	0.385	0.364	0.304	0.364	0.382	0.414	0.543	1.242	1.916	1.778	1.271	1.070	1.282	2.349	5.677	15.30	29.09	32.81	21.56	7.418	0.911	0.389	0.323	0.392	0.305	0.363	0.257	0.285	0.279	0.311	0.431	0.348	0.320	0.359
265.0	36.67	32.83	41.50	165.1	440.0	265.3	309.7	2021	7161	5221	231.5	13.68	8.282	6.475	4.474	3.353	2.611	2.149	1.685	1.531	1.378	1.249	1.233	1.050	1.079	0.937	0.921	0.819	0.685	0.681	0.705	0.613	0.509	0.568	0.568	0.417	0.451	0.410	0.424	0.407	0.472	0.429	0.404	0.395	0.344	0.392	0.380	0.317	0.302	0.364	0.547	1.099	1.940	2.177	1.413	0.811	0.910	1.611	3.944	9.583	22.85	38.43	31.99	17.75	3.889	0.544	0.365	0.403	0.338	0.324	0.332	0.339	0.311	0.424	0.359	0.351	0.304
270.0	46.91	37.30	31.62	61.14	227.8	445.7	307.5	512.4	2491	6389	5553	909.9	46.85	7.971	5.347	4.022	2.949	2.519	2.211	1.695	1.573	1.309	1.290	1.128	1.012	0.921	0.888	0.917	0.738	0.786	0.783	0.678	0.576	0.546	0.552	0.534	0.515	0.427	0.458	0.417	0.466	0.452	0.477	0.375	0.436	0.421	0.375	0.372	0.307	0.322	0.376	0.544	0.834	1.453	2.028	2.231	1.806	1.126	1.299	2.477	5.804	12.10	20.87	32.50	33.74	30.18	13.13	3.716	0.572	0.423	0.337	0.377	0.328	0.339	0.392	0.347	0.334
275.0	77.25	69.60	39.76	41.45	79.32	226.8	578.0	360.3	604.5	1693	5888	9324	1215	35.89	7.650	5.671	3.510	3.051	2.341	2.026	1.517	1.512	1.311	1.175	1.023	1.018	0.893	0.940	0.921	0.913	0.748	0.633	0.659	0.657	0.564	0.665	0.645	0.575	0.479	0.509	0.504	0.457	0.516	0.540	0.478	0.477	0.473	0.386	0.378	0.358	0.355	0.410	0.533	0.662	0.817	1.374	2.645	3.262	2.253	1.251	1.662	3.067	5.023	7.983	12.00	28.79	50.79	32.72	19.48	3.290	0.470	0.343	0.323	0.400	0.367	0.302	0.300
280.0	104.2	94.77	56.71	39.92	50.24	95.85	411.4	622.3	281.4	439.9	1876	8940	8198	173.9	17.39	6.874	4.779	3.636	2.863	2.106	1.752	1.762	1.317	1.153	1.114	1.171	0.920	0.849	0.881	0.778	0.738	0.625	0.638	0.595	0.711	0.637	0.606	0.694	0.583	0.558	0.548	0.494	0.471	0.644	0.509	0.624	0.478	0.473	0.436	0.391	0.369	0.355	0.421	0.444	0.509	0.650	1.254	2.475	3.592	2.641	1.353	1.174	1.646	2.297	3.312	7.685	20.25	40.61	57.11	30.00	12.60	1.478	0.358	0.434	0.330	0.345	0.318
285.0	158.8	124.0	84.95	53.95	49.94	70.13	187.4	624.7	388.1	208.4	511.0	3164	9999.9	6012	128.5	10.52	5.658	4.346	3.272	2.395	1.943	2.070	1.571	1.223	1.353	1.147	0.925	0.898	0.971	0.798	0.804	0.715	0.685	0.723	0.733	0.623	0.712	0.696	0.618	0.623	0.669	0.595	0.499	0.629	0.661	0.670	0.659	0.546	0.491	0.394	0.412	0.432	0.494	0.440	0.443	0.521	0.667	1.106	2.221	3.503	3.536	1.907	1.048	1.055	1.372	2.416	5.108	11.68	29.42	50.52	55.49	23.90	6.372	0.690	0.448	0.351	0.360
290.0	213.8	189.7	120.5	83.41	72.08	78.40	118.8	284.6	619.5	523.0	291.3	863.1	3381	7695	6408	497.4	26.41	6.017	4.170	3.019	2.493	2.280	1.764	1.518	1.392	1.264	1.001	0.975	0.958	0.926	0.878	0.808	0.744	0.743	0.761	0.724	0.734	0.738	0.710	0.790	0.742	0.683	0.692	0.686	0.801	0.744	0.750	0.734	0.587	0.489	0.464	0.564	0.506	0.600	0.518	0.549	0.689	0.744	1.061	1.608	2.685	3.482	3.304	2.452	1.407	1.380	1.886	3.392	7.434	14.68	26.54	36.65	35.96	37.16	15.79	5.063	0.845
295.0	284.4	240.2	184.0	120.5	102.8	103.0	121.3	178.5	317.4	780.7	688.8	410.2	928.7	2021	6086	7327	676.7	21.05	5.576	4.428	2.968	2.387	2.036	1.827	1.538	1.511	1.204	1.063	1.061	1.150	0.994	0.767	0.803	0.776	0.864	0.752	0.945	0.851	0.867	0.798	0.841	0.739	0.808	0.769	0.805	0.998	0.823	0.886	0.791	0.630	0.539	0.640	0.626	0.650	0.628	0.635	0.712	0.820	0.925	0.964	1.318	1.656	2.349	4.482	4.333	2.680	1.618	1.758	2.666	4.323	6.889	9.112	11.18	26.20	49.94	35.98	23.62
300.0	328.3	306.7	249.5	158.5	137.7	145.0	165.2	197.9	269.5	562.2	1084	613.4	482.1	608.3	1881	7753	6022	98.58	11.73	5.457	3.900	2.742	2.014	1.924	1.497	1.450	1.425	1.171	0.936	1.085	1.044	0.892	0.817	0.856	0.767	0.781	0.934	0.864	0.829	0.864	0.927	0.933	0.910	0.944	0.809	1.074	1.032	1.032	0.931	0.810	0.636	0.790	0.746	0.860	0.650	0.827	0.874	1.028	1.085	1.161	1.254	1.296	1.702	2.756	4.390	5.036	3.758	2.284	1.995	2.402	2.778	3.037	3.291	6.873	17.24	34.51	57.85
305.0	421.8	414.6	336.7	219.6	185.0	205.2	251.6	296.9	371.1	558.3	1071	1242	653.5	476.9	672.1	2771	8847	4474	76.19	8.511	5.014	3.626	2.637	2.070	1.803	1.517	1.415	1.246	1.173	1.012	1.023	0.959	0.977	0.916	0.865	0.894	1.075	0.921	0.963	0.999	1.039	1.164	1.034	1.028	1.027	1.078	1.286	1.217	1.189	1.021	0.896	0.960	0.992	0.977	0.935	1.122	1.140	1.395	1.440	1.490	1.539	1.839	2.348	2.565	3.307	4.537	6.076	5.290	3.541	2.865	2.641	2.283	2.112	2.838	4.986	9.686	24.88
310.0	701.1	719.5	539.3	330.4	252.1	274.9	351.0	423.7	528.0	697.2	964.9	1375	1301	746.7	568.6	920.0	3062	6123	5162	329.4	19.31	4.825	3.595	2.570	2.312	1.674	1.591	1.347	1.258	1.161	1.195	0.997	0.881	0.905	0.880	0.897	1.038	1.073	1.166	1.239	1.282	1.335	1.333	1.497	1.802	1.806	1.919	1.976	1.772	1.238	1.188	1.185	1.259	1.228	1.259	1.396	1.549	1.735	1.932	2.136	2.150	2.471	2.856	3.229	3.491	3.837	4.711	5.646	6.030	5.571	4.477	3.256	2.646	2.822	3.057	3.796	7.096
315.0	2143	1864	1252	580.5	366.6	391.7	496.8	654.8	839.0	1109	1416	1667	1905	1473	1039	814.2	1114	1708	4758	5053	476.1	15.01	4.999	3.433	2.935	2.067	1.812	1.730	1.310	1.187	1.191	1.116	0.973	0.996	1.063	1.011	1.251	1.445	1.655	1.779	2.269	2.558	2.763	3.576	4.916	5.596	5.486	5.079	3.932	2.625	1.804	1.687	1.640	1.633	1.708	1.809	2.036	2.315	2.695	3.034	3.181	3.765	4.254	4.711	4.902	5.476	6.258	6.625	6.902	7.570	8.639	7.746	5.806	4.694	4.431	4.042	4.216
320.0	3987	4159	2349	843.4	479.9	501.3	649.3	884.7	1166	1545	1977	2300	2394	2423	1807	1103	879.0	703.0	1470	5672	4360	71.43	8.827	4.347	3.192	2.504	2.179	2.049	1.564	1.382	1.190	1.258	0.985	1.165	0.982	1.190	1.465	2.236	2.387	2.954	3.283	3.871	5.270	6.601	8.097	10.20	10.17	9.322	6.925	4.221	2.328	2.197	1.940	1.957	1.943	2.054	2.679	3.169	3.401	3.950	4.369	4.955	5.885	6.502	7.167	8.055	8.476	8.806	9.074	9.612	9.959	10.66	10.12	8.428	6.942	5.553	5.002
325.0	5028	5374	3067	1047	531.7	548.0	737.0	987.7	1321	1768	2260	2604	2614	2536	2235	1392	874.0	516.8	499.3	1943	6144	3429	56.47	6.666	4.207	3.307	2.251	2.013	1.821	1.559	1.341	1.289	1.237	1.045	1.057	1.119	1.712	2.341	2.895	3.328	3.562	4.736	6.372	7.916	10.22	12.73	13.14	11.57	8.715	5.106	2.932	2.595	2.045	2.076	2.210	2.302	2.928	3.411	3.851	4.588	5.060	5.956	6.467	7.261	7.830	9.149	9.330	9.544	10.32	10.44	10.56	10.64	10.92	10.61	9.107	7.154	5.512
330.0	5345	5800	3412	1229	640.4	604.4	756.1	1025	1371	1820	2328	2660	2699	2481	2116	1667	988.8	485.2	299.2	574.9	1966	4357	3983	259.2	17.19	4.576	3.125	2.196	2.038	1.905	1.525	1.301	1.304	1.125	1.051	1.200	1.759	2.368	2.909	3.620	3.801	5.016	6.531	8.778	11.16	13.52	14.07	13.08	9.613	5.702	3.419	2.939	2.481	2.371	2.352	2.479	3.023	3.480	4.135	4.609	5.217	5.804	6.476	7.347	8.449	9.623	9.736	10.23	10.47	10.45	10.68	10.17	9.990	9.405	9.422	8.574	7.075
335.0	5451	5879	3587	1472	839.1	699.9	776.3	1035	1350	1770	2256	2588	2629	2412	1926	1517	1199	575.6	283.1	291.5	535.3	1097	3407	3940	413.0	15.14	4.258	2.928	2.562	2.150	1.512	1.327	1.309	1.121	1.028	1.423	1.832	2.250	2.882	3.289	3.980	5.226	6.534	8.746	11.19	13.85	14.08	14.14	10.24	6.567	4.148	3.765	3.315	3.077	2.626	2.862	3.170	3.802	3.901	4.224	5.341	5.651	6.440	7.191	8.001	8.781	9.060	10.06	10.27	10.54	10.26	10.25	9.395	8.748	7.856	7.292	6.950
340.0	4959	5469	3549	1606	934.0	739.8	773.0	988.5	1249	1654	2084	2380	2422	2207	1756	1299	1067	723.6	309.1	231.0	228.3	313.6	991.4	4150	3691	59.70	7.238	3.873	2.702	2.276	1.865	1.384	1.420	1.332	1.156	1.238	1.616	2.184	2.959	3.175	3.788	4.684	6.096	8.035	10.59	13.10	13.14	13.08	9.944	6.538	4.523	4.344	3.535	3.348	3.016	2.747	3.152	3.513	3.783	4.336	4.849	5.367	6.056	7.090	7.654	7.947	8.547	9.168	8.986	9.564	9.556	9.391	8.866	7.908	7.154	6.468	5.823
345.0	4293	4848	3200	1543	939.3	738.8	730.0	885.1	1116	1426	1823	2070	2108	1916	1535	1105	810.4	714.6	408.2	219.6	160.8	147.0	289.1	1334	5066	2953	50.73	5.509	3.360	2.813	2.002	1.599	1.523	1.305	1.140	1.297	1.569	1.958	2.724	2.703	3.326	4.340	5.438	6.800	8.966	11.38	11.66	11.58	9.192	6.195	4.515	4.263	3.584	3.245	3.016	2.683	2.938	3.117	3.345	3.801	4.198	4.953	5.508	5.951	6.795	7.199	7.650	8.008	8.177	8.642	8.582	8.649	7.439	7.034	6.413	5.742	5.074
350.0	3441	3937	2696	1417	932.6	719.0	663.5	761.4	929.5	1175	1467	1650	1695	1554	1248	910.8	627.0	489.4	466.3	320.7	163.2	120.9	143.3	358.1	1541	3239	3143	230.6	15.38	3.403	2.439	1.846	1.621	1.247	1.175	1.287	1.411	1.703	2.200	2.368	2.843	3.498	4.553	5.602	7.116	9.114	9.184	9.420	7.548	5.538	3.941	4.013	3.587	3.169	2.791	2.702	2.738	2.944	3.038	3.285	3.571	3.884	4.536	4.869	5.487	5.880	6.194	6.454	6.654	6.963	6.779	6.829	6.267	5.925	5.150	4.726	4.131
355.0	2590	3104	2242	1324	916.2	689.9	617.5	663.7	773.1	952.2	1167	1304	1329	1237	1009	743.6	513.7	360.9	324.8	412.6	258.1	133.1	123.1	147.3	380.9	781.1	2282	3421	380.2	16.39	3.368	2.399	1.922	1.311	1.329	1.269	1.314	1.584	1.774	2.039	2.355	2.768	3.688	4.489	5.515	7.068	7.467	7.639	6.499	4.863	3.561	4.026	3.600	3.028	2.868	2.488	2.701	2.479	2.717	2.885	3.122	3.316	3.757	4.066	4.302	4.751	5.192	5.145	5.231	5.491	5.475	5.279	4.730	4.734	4.263	3.986	3.304
360.0	2051	2517	1914	1195	878.4	676.9	576.3	604.7	666.6	795.6	967.2	1082	1099	1025	843.8	633.4	441.6	314.0	251.3	323.8	358.5	182.9	126.7	107.6	131.1	202.6	614.7	2880	3221	308.9	7.949	2.873	2.271	1.510	1.359	1.255	1.327	1.402	1.806	1.817	2.062	2.546	3.053	3.574	4.670	5.806	6.143	6.155	5.598	4.325	3.448	3.592	3.264	3.028	2.598	2.508	2.490	2.412	2.479	2.724	2.694	2.999	3.304	3.582	3.650	3.874	4.165	4.308	4.567	4.461	4.734	4.397	3.995	4.256	3.708	3.310	3.084
365.0	1695	2032	1624	1095	846.4	652.2	552.4	557.4	596.1	688.5	820.5	910.5	930.3	856.3	718.6	548.5	394.5	288.8	227.2	238.7	335.4	280.4	148.8	106.0	84.24	81.78	163.2	851.4	3427	2808	49.67	4.760	2.778	1.994	1.531	1.273	1.388	1.455	1.583	1.693	1.706	2.123	2.502	3.055	3.669	4.590	5.078	5.065	4.783	3.785	3.242	3.242	3.302	2.950	2.656	2.412	2.282	2.359	2.270	2.355	2.432	2.513	2.851	3.053	3.228	3.492	3.533	3.669	3.774	3.706	3.936	3.882	3.810	3.562	3.076	2.902	2.541
370.0	1339	1654	1385	1061	888.2	736.2	592.7	555.9	550.3	605.5	709.8	767.8	786.7	724.6	621.5	478.4	353.3	272.5	224.8	210.4	238.0	302.5	257.4	142.8	92.88	74.07	78.93	224.7	996.3	2611	2743	713.6	14.97	2.863	1.844	1.488	1.324	1.451	1.496	1.599	1.512	1.762	2.296	2.537	3.048	3.843	4.054	4.268	3.891	3.483	3.058	3.337	3.343	3.314	2.706	2.573	2.586	2.568	2.256	2.336	2.289	2.351	2.522	2.727	2.718	2.998	3.108	3.167	3.104	3.253	3.325	3.232	3.193	3.051	2.962	2.508	2.261
375.0	1116	1354	1247	1103	1047	906.3	752.7	621.1	533.1	563.1	635.6	694.7	698.2	640.3	550.6	435.7	330.7	265.8	227.1	212.6	208.5	228.8	311.6	256.0	133.8	100.0	87.47	102.2	264.7	635.4	1786	3148	339.8	15.55	2.668	1.815	1.495	1.497	1.419	1.452	1.469	1.832	1.952	2.063	2.591	3.137	3.335	3.514	3.462	3.389	2.984	3.681	3.763	3.904	3.568	3.325	3.333	3.013	2.797	2.393	2.303	2.193	2.331	2.588	2.507	2.732	2.765	2.903	2.805	3.020	3.093	3.067	2.755	2.816	2.576	2.423	2.160
380.0	939.1	1227	1210	1184	1197	1138	922.9	720.4	567.4	570.7	610.3	661.3	664.2	618.7	527.4	421.1	322.2	265.3	228.8	215.2	210.6	211.9	268.6	330.1	212.9	134.6	113.8	99.34	120.7	187.7	490.2	2325	2719	263.8	7.259	2.490	1.959	1.530	1.603	1.388	1.437	1.770	1.783	1.899	2.197	2.695	2.951	3.325	3.502	3.506	3.247	4.204	4.347	4.372	4.654	4.033	3.886	3.674	3.170	2.767	2.465	2.482	2.514	2.498	2.449	2.453	2.654	2.791	2.705	2.955	3.173	2.745	2.642	2.645	2.497	2.393	2.237
385.0	914.1	1127	1240	1335	1443	1444	1188	866.0	631.1	587.9	631.8	668.7	675.4	623.4	526.0	427.7	324.7	263.4	237.1	226.5	225.4	226.2	246.3	317.7	310.9	194.9	149.6	125.1	110.2	105.5	154.4	672.3	2560	2287	40.81	4.088	2.339	1.648	1.597	1.503	1.658	1.644	1.747	1.932	2.131	2.522	2.767	3.338	3.378	3.335	3.545	4.862	5.116	5.491	5.506	5.028	4.839	4.675	3.912	3.348	2.795	2.580	2.541	2.533	2.669	2.648	2.792	2.825	2.805	2.687	2.848	2.785	2.781	2.566	2.535	2.347	2.185
390.0	879.1	1115	1312	1556	1849	1882	1617	1139	750.1	650.8	687.5	717.7	720.6	660.2	555.8	453.7	341.9	272.7	248.9	242.5	245.1	254.1	268.8	291.4	343.3	320.7	223.8	175.5	145.6	117.6	100.2	190.9	724.3	1907	1986	571.6	12.83	2.347	1.908	1.869	1.682	1.879	1.795	1.935	2.142	2.472	2.740	3.354	3.605	3.541	3.985	5.574	6.233	6.824	6.894	6.839	6.505	5.988	5.183	4.231	3.286	2.863	2.692	2.752	2.822	2.863	2.877	3.058	2.938	2.976	3.187	3.001	3.146	2.729	2.659	2.520	2.261
395.0	895.4	1150	1425	1783	2223	2368	2078	1455	889.6	720.9	746.7	779.1	779.8	713.2	606.5	490.3	363.0	283.7	258.7	258.1	271.8	282.4	303.1	312.4	332.3	373.9	345.5	242.1	193.3	150.8	111.2	98.13	193.2	456.4	1231	2438	280.6	12.80	2.604	2.040	1.758	1.979	1.810	1.953	2.242	2.576	2.600	3.386	3.740	4.009	4.459	6.608	7.567	8.000	8.623	8.317	8.681	7.187	6.743	5.285	3.958	3.244	3.241	3.018	2.979	3.197	3.142	3.381	3.265	3.118	3.219	3.249	3.064	2.950	2.838	2.581	2.380
400.0	929.6	1172	1464	1949	2467	2691	2373	1682	988.7	769.6	784.5	814.3	816.7	755.5	630.7	516.1	372.6	289.9	262.3	266.9	286.0	300.0	322.2	341.4	347.5	367.1	406.0	316.0	227.0	175.1	129.1	87.60	79.71	122.9	324.7	1660	2080	222.8	6.033	2.297	2.120	1.892	1.972	1.860	2.311	2.667	2.656	3.425	3.967	4.239	5.119	6.978	8.090	9.265	9.540	9.494	9.552	8.787	7.911	5.732	4.319	3.542	3.300	3.293	3.068	3.264	3.127	3.427	3.374	3.241	3.312	3.619	2.958	3.019	2.778	2.602	2.572
405.0	965.9	1196	1486	2030	2635	2921	2584	1821	1060	805.4	824.7	837.0	838.6	771.7	645.8	533.0	381.7	289.6	267.9	270.7	294.3	313.1	338.5	356.9	364.0	364.2	391.0	387.1	272.0	197.5	144.1	91.52	59.45	51.56	86.52	466.0	1848	1665	36.13	3.154	2.339	2.180	2.067	2.207	2.359	2.642	2.741	3.440	4.099	4.428	4.880	7.389	8.581	9.720	9.912	10.35	10.14	9.214	8.385	6.380	4.717	3.794	3.523	3.215	3.221	3.427	3.165	3.507	3.152	3.454	3.517	3.338	3.321	3.337	2.777	2.653	2.563
410.0	903.3	1159	1503	2105	2695	3047	2735	1907	1107	826.1	833.2	843.0	838.9	778.3	649.9	536.8	381.1	283.0	263.0	270.7	289.6	316.6	344.3	366.1	375.3	372.3	368.0	378.9	339.5	234.9	158.2	101.5	60.72	39.36	35.55	115.9	509.1	1344	1471	155.5	11.39	2.623	2.319	2.307	2.468	2.588	2.947	3.250	3.957	4.459	5.049	7.577	8.759	10.23	10.85	10.82	10.91	9.903	8.347	6.678	4.987	3.840	3.599	3.349	3.413	3.303	3.206	3.519	3.307	3.754	3.635	3.490	3.385	3.143	2.833	2.797	2.588
415.0	860.1	1118	1476	2050	2668	3000	2752	1937	1119	816.1	817.1	825.7	822.0	766.1	628.6	516.8	371.3	276.8	253.7	260.4	283.4	308.6	336.1	362.1	373.5	371.2	356.6	337.6	339.8	290.2	177.7	109.1	65.47	40.65	26.62	38.60	122.0	317.1	880.9	1674	247.6	11.52	2.700	2.535	2.530	2.597	2.876	3.105	3.939	4.249	5.023	7.579	8.694	10.20	10.50	11.02	11.03	9.605	8.227	6.810	4.881	3.959	3.470	3.353	3.186	3.407	3.447	3.243	3.296	3.496	3.464	3.410	3.214	3.041	2.622	2.672	2.726
