Sample:	'1
File name:	ש13.FD3
Run date:	'13:33:26, 07/28/2025
Operator:	Administrator
Comment:	'

Instrument
Model:	F-2700 FL Spectrophotometer
Serial number:	23B8-004
ROM Version:	4J14000 07

Instrument parameters
Measurement type:	3-D scan
Data mode:	Fluorescence
EX  Start WL:	220.0 nm
EX  End WL:	600.0 nm
EX Sampling interval:	5.0 nm
EM  Start WL:	230.0 nm
EM  End WL:	650.0 nm
EM Sampling interval:	5.0 nm
Scan speed:	12000 nm/min
EX Slit:	5.0 nm
EM Slit:	5.0 nm
PMT Voltage:	700 V
Response:	Auto 
Corrected spectra:	Off
Contour interval:	50.000

Peak integration
Integration method:	Rectangular
Sensitivity:	1
Threshold:	1.000

Peaks
No.	ApexEX/EM(nm)	Height(Data)
1	230.0/335.0	4137
2	230.0/500.0	364.5
3	235.0/510.0	307.0
4	240.0/525.0	262.9
5	245.0/535.0	230.4
6	250.0/550.0	185.6
7	255.0/280.0	651.6
8	255.0/560.0	158.8
9	260.0/290.0	655.2
10	260.0/575.0	138.7
11	265.0/585.0	122.6
12	275.0/615.0	289.6
13	280.0/320.0	5131
14	280.0/625.0	271.7
15	320.0/365.0	574.7
16	325.0/370.0	542.9
17	330.0/375.0	526.2
18	335.0/380.0	514.1
19	345.0/395.0	468.8
20	350.0/400.0	465.8
21	425.0/500.0	51.01
22	440.0/520.0	29.11
23	455.0/540.0	16.11
24	460.0/335.0	11.34
25	470.0/560.0	7.608
26	510.0/280.0	3.753
27	515.0/285.0	3.738
28	525.0/290.0	3.784
29	560.0/320.0	20.31

Data points
	220.0	225.0	230.0	235.0	240.0	245.0	250.0	255.0	260.0	265.0	270.0	275.0	280.0	285.0	290.0	295.0	300.0	305.0	310.0	315.0	320.0	325.0	330.0	335.0	340.0	345.0	350.0	355.0	360.0	365.0	370.0	375.0	380.0	385.0	390.0	395.0	400.0	405.0	410.0	415.0	420.0	425.0	430.0	435.0	440.0	445.0	450.0	455.0	460.0	465.0	470.0	475.0	480.0	485.0	490.0	495.0	500.0	505.0	510.0	515.0	520.0	525.0	530.0	535.0	540.0	545.0	550.0	555.0	560.0	565.0	570.0	575.0	580.0	585.0	590.0	595.0	600.0
230.0	99.78	2779	7267	1725	65.52	12.01	9.422	7.547	6.973	6.540	5.909	5.879	5.406	4.493	4.390	3.327	2.936	2.367	2.108	1.849	1.779	1.598	1.579	1.455	1.366	1.310	1.197	1.133	1.009	1.022	1.032	0.809	0.810	0.785	0.772	0.677	0.609	0.667	0.609	0.544	0.577	0.751	0.717	0.608	0.517	0.600	5.289	23.22	32.81	18.92	5.757	1.000	0.439	0.382	0.349	0.376	0.378	0.341	0.363	0.350	0.345	0.323	0.356	0.346	0.335	0.291	0.314	0.299	0.353	0.332	0.352	0.308	0.346	0.337	0.315	0.305	0.340
235.0	158.2	754.6	4566	5822	677.4	100.4	11.87	9.499	8.132	7.600	6.500	7.180	5.857	4.706	4.672	3.345	3.165	2.810	2.205	1.939	1.932	1.865	1.696	1.591	1.482	1.526	1.283	1.144	0.990	1.183	0.957	0.975	0.850	0.638	0.798	0.652	0.556	0.663	0.604	0.593	0.562	0.613	0.682	0.902	0.753	0.596	1.540	5.948	13.97	23.65	30.75	22.50	9.960	1.709	0.465	0.362	0.399	0.375	0.343	0.428	0.324	0.407	0.352	0.367	0.359	0.298	0.323	0.283	0.366	0.358	0.343	0.349	0.340	0.365	0.336	0.295	0.308
240.0	222.1	285.3	1356	5247	5156	554.4	41.61	11.55	10.30	8.211	8.218	7.104	6.356	5.580	5.032	3.722	3.667	2.390	2.267	2.113	2.432	1.945	1.697	1.461	1.289	1.361	1.557	1.291	0.971	1.174	1.115	1.052	0.767	0.749	0.706	0.592	0.585	0.553	0.654	0.582	0.558	0.578	0.606	0.667	0.885	0.934	0.860	1.679	3.525	7.651	19.89	41.47	43.56	20.98	7.275	0.917	0.396	0.429	0.416	0.403	0.331	0.405	0.368	0.353	0.433	0.352	0.320	0.326	0.326	0.368	0.365	0.389	0.273	0.351	0.305	0.302	0.362
245.0	172.4	264.5	386.6	1851	6801	4391	408.7	21.44	12.78	10.21	9.610	7.496	6.795	5.873	5.056	3.550	3.873	2.897	2.386	2.150	2.200	2.106	1.683	1.823	1.483	1.518	1.579	1.124	1.111	1.101	1.175	0.913	0.826	0.893	0.709	0.715	0.722	0.589	0.681	0.683	0.574	0.562	0.616	0.506	0.653	0.978	1.046	1.199	1.243	2.156	5.003	15.50	36.84	55.55	29.59	17.77	4.051	0.695	0.462	0.410	0.336	0.368	0.410	0.387	0.394	0.418	0.336	0.324	0.350	0.392	0.372	0.373	0.401	0.364	0.360	0.398	0.348
250.0	85.85	187.1	316.4	518.2	2302	6258	6507	1531	97.74	14.44	10.98	8.621	7.657	6.704	5.614	4.145	4.074	3.200	2.528	2.411	2.078	1.819	1.935	1.661	1.530	1.462	1.499	1.275	1.242	1.147	1.039	0.945	0.910	0.821	0.817	0.693	0.752	0.639	0.656	0.672	0.546	0.576	0.615	0.590	0.592	0.583	0.828	1.143	1.273	1.295	1.733	3.886	9.263	20.28	30.56	49.92	49.22	45.83	14.08	5.006	0.666	0.486	0.491	0.423	0.388	0.426	0.375	0.389	0.364	0.441	0.377	0.428	0.396	0.357	0.349	0.404	0.389
255.0	57.06	74.53	223.3	394.5	606.9	1644	6503	9999.9	2224	100.9	16.65	12.66	9.754	8.119	6.988	5.477	4.241	3.462	2.929	2.307	2.144	1.877	1.861	1.619	1.620	1.358	1.474	1.402	1.373	1.165	1.057	0.900	0.952	0.813	0.765	0.704	0.822	0.693	0.668	0.650	0.618	0.587	0.608	0.554	0.528	0.515	0.527	0.645	0.820	1.242	1.568	1.961	2.620	4.956	7.197	12.49	23.83	60.32	92.25	78.04	21.98	4.885	0.699	0.492	0.475	0.439	0.421	0.418	0.436	0.479	0.366	0.451	0.371	0.410	0.395	0.398	0.391
260.0	51.20	44.21	105.4	329.7	398.7	433.6	2089	9999.9	9999.9	1590	49.10	17.37	12.34	9.064	7.407	5.469	4.489	4.001	3.314	2.637	2.442	2.043	1.861	1.756	1.851	1.730	1.635	1.496	1.450	1.214	1.210	1.187	0.995	0.902	0.955	0.777	0.752	0.708	0.704	0.601	0.580	0.575	0.605	0.558	0.502	0.502	0.446	0.541	0.557	0.671	1.072	2.155	2.114	1.970	2.106	3.196	5.878	16.99	47.28	91.93	110.4	31.46	16.97	2.476	0.554	0.450	0.449	0.545	0.437	0.512	0.424	0.508	0.357	0.497	0.377	0.468	0.384
265.0	63.44	45.87	55.28	175.7	425.6	298.1	523.8	3675	9999.9	9999.9	265.1	28.74	15.75	10.52	8.954	6.280	5.425	4.544	3.528	3.109	2.786	2.048	2.069	1.998	1.799	1.875	1.640	1.527	1.541	1.219	1.250	1.163	1.286	0.983	0.946	0.825	0.736	0.603	0.673	0.655	0.592	0.640	0.645	0.573	0.499	0.497	0.409	0.587	0.499	0.513	0.598	1.201	2.051	2.314	1.716	1.262	1.791	4.270	11.47	29.15	71.85	114.3	120.3	28.77	11.16	1.102	0.590	0.548	0.507	0.530	0.496	0.440	0.402	0.418	0.375	0.441	0.449
270.0	73.21	50.40	44.24	70.12	218.1	446.5	347.2	898.3	4067	9999.9	9999.9	3365	72.92	17.12	12.37	8.558	7.109	5.229	4.003	3.384	3.024	2.698	2.442	2.019	2.024	1.979	1.868	1.690	1.583	1.396	1.212	1.170	1.220	1.005	0.988	0.901	0.779	0.711	0.758	0.725	0.684	0.652	0.709	0.657	0.627	0.569	0.548	0.554	0.533	0.459	0.477	0.657	1.004	1.493	2.071	2.348	2.108	1.867	3.150	7.087	17.29	35.56	68.69	96.54	121.1	93.32	18.92	9.271	1.413	0.599	0.621	0.538	0.451	0.468	0.466	0.552	0.491
275.0	94.86	76.39	59.70	54.22	83.34	227.1	560.3	448.5	975.4	2683	9999.9	9999.9	1490	74.73	20.34	11.34	9.661	6.862	5.146	4.489	3.286	2.903	2.499	2.168	2.185	2.330	2.233	1.709	1.520	1.542	1.506	1.296	1.285	1.036	1.032	0.869	0.791	0.818	0.936	0.744	0.726	0.753	0.765	0.683	0.708	0.725	0.657	0.628	0.602	0.487	0.493	0.574	0.642	0.777	0.987	1.548	2.681	3.319	2.630	2.478	4.456	8.530	15.88	22.92	39.81	88.88	161.8	165.0	29.83	11.72	1.076	0.720	0.545	0.511	0.553	0.509	0.517
280.0	144.5	109.1	87.32	70.20	75.85	120.9	397.7	651.6	390.0	698.5	3281	9999.9	9999.9	1089	45.21	15.18	10.93	8.268	6.324	4.835	3.516	3.161	2.942	2.848	2.466	2.476	2.198	1.800	1.722	1.613	1.447	1.424	1.304	1.134	1.072	1.124	0.958	0.824	0.949	0.776	0.697	0.795	0.845	0.669	0.847	0.834	0.790	0.795	0.692	0.553	0.564	0.653	0.693	0.705	0.725	0.874	1.491	2.534	3.753	3.235	2.080	2.603	4.205	6.033	9.770	22.98	63.48	143.1	190.8	153.0	25.15	5.637	0.876	0.642	0.657	0.551	0.651
285.0	194.5	174.7	147.9	100.2	92.43	107.7	200.4	625.6	419.2	311.2	898.4	4525	9999.9	9999.9	152.3	24.73	14.78	10.66	7.251	5.600	4.345	3.822	3.229	2.938	2.646	2.789	2.359	1.979	1.964	1.818	1.647	1.432	1.446	1.285	1.322	1.018	0.988	0.893	1.056	0.911	0.751	0.844	0.970	0.870	0.900	0.840	0.897	0.814	0.841	0.664	0.707	0.781	0.711	0.702	0.802	0.860	0.937	1.311	2.384	3.738	3.732	2.458	1.845	2.125	3.082	6.213	15.35	39.04	92.84	182.8	199.9	34.63	18.16	2.186	0.835	0.750	0.652
290.0	279.2	290.3	233.3	160.3	132.9	134.4	159.4	322.0	655.2	603.3	484.9	1272	4633	9999.9	9999.9	2646	49.77	16.09	9.428	7.016	5.461	4.360	3.697	3.564	2.978	2.906	2.688	2.016	2.093	1.939	1.715	1.509	1.531	1.387	1.388	1.116	1.087	1.040	1.122	0.952	0.910	1.085	1.075	1.093	1.120	1.115	1.118	1.087	1.099	0.946	0.904	0.863	0.931	0.901	0.904	0.963	0.985	1.103	1.390	1.928	2.722	3.784	3.784	2.963	2.282	2.819	4.796	10.01	22.55	49.19	88.13	116.6	158.3	119.9	82.21	12.64	2.504
295.0	407.5	436.0	375.2	267.1	207.5	200.4	218.8	277.3	434.4	912.2	923.2	725.1	1385	2866	9999.9	9999.9	846.9	54.54	15.19	10.04	7.406	5.454	4.718	4.143	3.269	3.362	3.015	2.486	2.141	2.224	1.855	1.581	1.540	1.379	1.468	1.240	1.232	1.135	1.194	1.093	1.116	1.126	1.243	1.345	1.480	1.440	1.546	1.516	1.452	1.220	1.083	1.252	1.117	1.249	1.243	1.393	1.460	1.394	1.385	1.796	1.860	2.400	3.107	4.757	5.126	3.840	3.331	4.305	7.125	12.68	21.27	27.81	44.19	85.96	183.5	206.7	35.25
300.0	619.9	733.0	636.4	468.8	355.2	362.5	424.3	425.0	687.6	1082	1735	1352	1197	1303	3792	9999.9	9999.9	661.1	37.35	15.05	9.357	7.106	5.649	4.415	4.204	3.730	3.169	2.726	2.245	2.131	1.962	1.707	1.744	1.497	1.512	1.252	1.281	1.191	1.196	1.258	1.266	1.378	1.669	1.661	1.690	2.055	2.181	2.204	2.146	1.884	1.532	1.778	1.640	1.709	1.878	1.833	1.953	2.309	2.267	2.600	2.785	3.138	3.722	4.864	6.636	7.793	6.563	5.704	5.630	6.845	8.194	9.587	12.67	23.05	61.22	140.7	206.1
305.0	1069	1217	1166	841.4	655.6	622.9	946.8	1218	1655	2227	3066	3435	2652	1603	1959	5338	9999.9	6212	458.5	25.33	13.42	9.500	6.585	5.329	4.529	4.526	3.882	2.881	2.679	2.581	2.154	1.923	1.683	1.672	1.441	1.398	1.384	1.218	1.401	1.406	1.835	1.965	2.145	2.206	2.460	3.065	3.188	3.634	3.409	2.963	2.530	2.554	2.778	2.869	2.991	3.141	3.648	4.260	5.049	5.292	6.075	6.738	8.006	8.920	10.49	12.26	13.63	13.50	12.20	10.50	10.57	9.708	10.19	12.55	20.57	40.30	88.30
310.0	1555	1893	1837	1330	1076	1102	1460	1881	2388	3157	3909	4637	4406	3181	2751	2900	5918	9999.9	9999.9	1968	35.15	13.64	9.317	7.042	5.751	5.226	4.611	3.705	3.159	2.730	2.605	2.251	1.933	1.864	1.728	1.562	1.408	1.488	1.538	1.962	2.250	2.513	2.798	3.127	3.482	4.223	4.597	5.385	5.264	4.522	3.970	4.147	4.069	4.221	4.198	4.732	5.447	6.639	7.574	8.308	8.799	9.977	11.56	12.73	14.09	14.74	16.46	17.64	19.14	17.64	15.33	13.63	12.80	13.54	13.71	16.90	27.13
315.0	2019	2616	2494	1840	1442	1446	1791	2198	2676	3488	4296	4924	5001	4288	3349	2578	3123	3432	9999.9	9999.9	582.0	36.16	12.98	9.677	6.916	6.430	5.798	4.238	3.615	3.187	2.851	2.609	2.285	2.257	1.855	1.760	1.506	1.494	1.739	2.157	2.571	2.903	3.380	3.925	4.558	5.755	6.621	7.515	7.261	5.975	5.427	5.701	5.430	5.446	5.572	6.006	6.978	7.818	8.910	9.135	9.869	11.29	12.42	14.44	15.15	16.00	17.62	18.18	19.35	19.64	19.20	17.44	15.57	15.49	13.63	12.91	13.90
320.0	2376	3148	3001	2125	1625	1602	1950	2388	2801	3623	4471	5122	5131	4733	3867	2654	2572	1745	3120	9999.9	9999.9	480.6	23.84	12.03	9.328	7.405	6.466	4.454	3.878	3.606	3.325	2.876	2.364	2.283	2.082	1.726	1.693	1.775	1.972	2.088	2.694	3.228	3.763	4.517	5.123	6.790	7.629	8.990	8.358	7.069	6.305	6.923	6.202	6.044	6.057	6.526	7.709	8.316	9.610	9.972	10.48	11.40	13.20	14.75	16.12	17.11	18.67	18.84	20.31	19.77	19.32	19.31	18.64	18.29	15.13	12.58	11.85
325.0	2621	3564	3493	2406	1723	1603	1970	2353	2691	3410	4237	4894	4923	4462	4008	2707	2344	1325	954.6	3784	9999.9	9999.9	69.97	18.36	11.19	9.118	7.388	5.071	4.285	3.730	3.178	2.792	2.589	2.194	2.108	1.564	1.676	1.894	1.901	2.251	2.614	3.387	4.170	4.752	5.847	7.330	8.181	10.10	9.671	7.851	6.876	7.407	6.499	5.873	5.964	6.528	7.745	8.427	9.415	10.07	10.14	10.78	12.24	13.83	15.15	16.30	17.84	18.53	19.60	19.03	18.10	18.02	18.02	19.00	16.39	12.74	11.45
330.0	2733	3816	3886	2874	2021	1667	1815	2138	2369	2985	3705	4309	4402	3943	3495	2695	2164	1151	511.7	1003	3795	9999.9	9999.9	1653	29.61	12.90	9.750	6.012	5.149	4.384	3.776	3.140	2.747	2.299	2.194	1.728	1.701	1.677	1.881	2.140	2.586	3.252	4.146	4.833	5.951	7.461	8.601	10.39	10.73	9.286	8.370	8.572	7.652	6.885	6.418	6.365	6.993	7.885	8.414	9.174	9.210	9.781	10.69	12.26	13.28	14.33	15.68	16.38	17.16	17.33	16.63	15.86	15.73	16.03	14.37	12.95	11.43
335.0	2769	3886	4137	3282	2424	1802	1682	1906	2112	2600	3232	3759	3871	3526	3025	2358	2153	1162	471.5	438.1	999.4	2538	9708	9999.9	2416	35.87	13.78	8.483	6.277	5.360	4.283	3.484	3.027	2.788	2.591	1.805	1.791	1.726	1.800	2.229	2.759	3.305	4.011	4.668	5.893	7.790	9.117	10.95	11.34	10.46	9.341	10.25	8.951	8.522	6.877	6.336	6.705	7.183	8.011	8.319	7.836	8.634	9.594	10.61	11.45	12.77	14.03	14.37	15.25	15.28	14.94	14.35	14.16	14.02	12.13	11.09	10.88
340.0	2638	3837	4109	3363	2466	1774	1564	1717	1878	2265	2848	3274	3398	3118	2673	2021	1879	1244	511.9	336.9	395.0	699.7	2757	9999.9	9999.9	431.2	26.82	10.47	7.652	6.390	4.915	3.917	3.160	2.796	2.780	2.159	1.844	1.865	1.776	2.077	2.737	2.987	3.777	4.588	5.978	7.572	9.149	10.88	11.22	10.49	9.563	9.933	9.000	8.656	7.043	6.069	6.103	6.371	7.154	7.499	7.361	7.569	8.491	9.279	9.591	11.03	11.59	12.58	13.26	13.68	13.61	12.53	12.54	12.21	10.87	9.365	9.090
345.0	2397	3482	3891	3229	2405	1659	1394	1541	1646	1969	2440	2799	2924	2711	2330	1766	1528	1189	630.7	339.9	278.9	304.7	734.8	3365	9999.9	9999.9	343.9	15.30	9.130	7.371	5.394	4.354	3.425	3.071	2.645	2.203	1.885	1.709	1.737	2.113	2.522	2.811	3.747	4.485	5.526	6.815	8.207	10.11	10.28	9.740	9.144	9.784	8.677	8.707	6.813	5.649	5.590	5.920	6.292	6.845	6.407	6.840	7.555	8.052	8.589	9.547	10.27	10.83	11.36	11.67	11.50	10.86	10.98	10.44	9.324	7.883	7.992
350.0	2122	2990	3458	3019	2349	1599	1272	1337	1417	1662	2019	2312	2401	2263	1953	1520	1269	962.1	728.7	488.5	311.3	257.8	311.6	852.7	3351	9999.9	9999.9	1525	26.56	9.765	6.472	5.126	3.615	3.098	2.718	2.272	2.060	1.815	2.016	2.020	2.246	2.701	3.316	3.958	4.846	6.027	6.968	8.814	9.167	8.666	8.520	9.432	8.751	8.227	6.651	5.520	5.107	5.457	5.633	5.763	5.439	5.726	6.207	6.732	7.332	7.937	8.315	8.888	9.309	9.466	9.474	9.469	9.327	8.728	8.380	7.209	6.977
355.0	1807	2475	2945	2701	2212	1529	1156	1201	1231	1411	1672	1909	1984	1879	1646	1308	1095	825.8	637.1	623.1	441.9	288.7	254.1	314.4	824.8	2409	9238	9999.9	2397	33.46	9.198	5.879	4.546	3.656	3.056	2.397	2.357	2.094	1.906	1.925	2.084	2.822	2.953	3.692	4.145	5.029	5.951	7.516	7.793	7.747	7.468	8.538	7.910	7.511	6.408	5.054	5.011	4.696	5.025	5.154	4.963	5.340	5.308	5.761	6.319	6.723	7.189	7.299	7.558	7.722	7.836	8.231	7.728	7.802	6.989	6.564	5.777
360.0	1580	2136	2580	2381	2023	1430	1078	1096	1125	1265	1467	1653	1706	1629	1447	1168	994.4	764.6	590.3	569.0	570.1	361.9	264.9	214.3	281.1	608.0	2473	9325	9999.9	410.5	22.12	8.066	5.753	4.453	3.547	2.561	2.239	2.231	1.924	2.050	1.955	2.496	2.828	3.423	3.825	4.631	5.314	6.675	7.050	6.854	6.635	7.692	7.457	7.206	5.916	4.871	4.777	4.511	4.592	4.754	4.844	4.575	4.935	5.138	5.797	6.014	6.304	6.342	6.430	7.060	6.974	6.962	6.637	7.009	6.220	5.935	5.305
365.0	1423	1920	2274	2140	1886	1367	1041	1036	1040	1166	1320	1468	1507	1454	1297	1071	923.8	740.2	583.3	522.3	574.7	490.6	306.1	219.4	183.9	225.1	621.5	2719	9999.9	9999.9	337.4	14.51	7.285	5.411	4.398	3.003	2.469	2.158	1.859	2.024	1.960	2.247	2.678	3.102	3.537	4.208	4.856	5.963	6.208	6.197	6.229	7.334	6.816	6.754	5.842	4.506	4.351	3.915	4.177	4.408	4.428	4.042	4.352	4.838	5.071	5.220	5.677	5.790	5.947	6.115	6.127	6.034	5.862	5.992	5.359	5.203	4.778
370.0	1272	1663	1925	1909	1746	1301	1011	964.7	991.7	1073	1206	1302	1339	1289	1161	981.4	861.4	721.8	603.3	536.2	517.1	542.9	447.9	283.6	204.9	175.0	234.2	679.6	2942	9780	9999.9	1432	24.83	7.873	5.528	3.637	2.882	2.317	2.139	2.044	2.035	2.238	2.484	2.946	3.233	3.738	4.219	5.003	5.618	5.188	5.600	6.469	6.122	5.961	5.322	4.370	4.570	4.017	4.142	4.028	4.151	3.967	4.020	4.679	4.697	4.739	5.002	5.161	5.292	5.457	5.282	5.272	5.329	5.239	5.207	4.830	4.881
375.0	1120	1458	1656	1680	1568	1259	995.4	942.1	941.0	1008	1106	1178	1205	1148	1036	907.8	805.4	705.4	625.1	558.3	515.1	491.4	526.2	423.2	266.6	210.0	192.1	259.2	739.4	2315	6089	9999.9	2234	29.32	8.642	5.155	3.715	2.876	2.442	2.076	2.231	2.297	2.431	2.661	3.106	3.448	3.885	4.245	4.759	4.623	4.872	5.656	5.511	5.833	5.321	4.362	4.206	3.887	3.772	3.954	3.725	3.903	4.138	4.443	4.265	4.433	4.513	4.569	4.724	4.860	5.059	4.833	5.057	4.731	4.640	4.527	4.587
380.0	1012	1325	1470	1547	1460	1216	982.7	938.0	928.0	968.2	1055	1105	1136	1080	970.6	860.5	776.6	702.5	635.1	579.9	531.4	490.5	495.2	514.1	357.2	257.6	216.5	200.8	280.1	610.4	1613	7721	9999.9	342.8	21.49	6.508	4.486	3.476	2.790	2.174	2.381	2.361	2.471	2.542	2.931	3.069	3.658	3.903	4.218	4.106	4.529	5.317	5.400	5.520	4.973	4.232	4.123	4.104	3.910	3.997	4.003	3.877	4.056	4.165	4.135	4.161	4.249	4.382	4.495	4.427	4.734	4.704	4.709	4.303	4.310	4.323	4.429
385.0	947.4	1209	1392	1447	1383	1190	992.6	929.1	903.0	959.1	1008	1060	1086	1030	921.9	823.5	756.0	697.5	636.0	591.1	548.0	510.8	486.3	507.8	465.4	324.0	262.6	221.2	207.4	256.3	459.5	2189	8991	8358	294.2	10.79	5.717	4.060	3.322	2.468	2.437	2.410	2.261	2.528	2.908	3.084	3.449	3.810	4.160	3.822	4.249	5.106	5.001	5.449	4.466	4.202	4.203	3.916	3.897	3.845	3.864	3.991	3.844	3.912	3.929	4.197	4.158	4.314	4.318	4.392	4.543	4.235	4.350	4.251	4.171	4.195	4.147
390.0	882.9	1121	1265	1301	1284	1144	984.9	920.3	892.3	916.9	956.0	993.5	1009	960.1	865.6	780.3	729.7	685.0	635.0	599.7	560.8	528.6	493.8	473.1	479.8	435.7	321.7	256.5	223.0	200.8	212.7	564.5	2472	6656	8289	1144	19.96	5.721	4.337	3.152	2.919	2.535	2.429	2.480	2.777	3.001	3.104	3.549	3.682	3.613	3.920	4.602	4.808	4.976	4.506	4.085	4.196	3.773	3.974	3.761	3.751	3.873	3.617	3.912	3.877	3.823	4.049	3.873	3.982	4.086	4.050	4.197	4.183	4.169	3.880	3.925	4.153
395.0	843.2	1035	1153	1236	1209	1095	970.8	916.5	892.6	895.5	925.2	941.0	949.5	896.1	819.2	745.2	700.0	664.5	628.0	597.6	570.2	539.8	512.2	474.2	451.3	468.8	423.4	307.8	253.9	215.2	179.3	213.7	604.6	1558	4823	8549	1825	23.86	6.135	3.945	3.308	2.646	2.677	2.868	2.825	2.868	3.078	3.360	3.483	3.339	3.776	4.317	4.426	4.874	4.318	3.873	4.167	4.019	3.872	3.787	3.717	3.873	3.597	3.776	3.786	3.784	3.834	3.761	3.914	3.739	3.997	3.965	4.159	3.820	3.780	4.004	3.743
400.0	769.1	991.7	1076	1136	1173	1074	968.9	916.4	874.8	887.2	899.6	914.8	902.3	866.2	780.9	712.7	676.5	644.9	616.7	587.3	564.9	537.2	514.6	484.9	446.5	444.9	465.8	372.9	280.4	234.5	188.1	150.3	197.8	386.7	1233	5667	7807	294.2	15.99	4.816	3.762	3.389	2.709	2.890	2.823	2.795	3.150	3.163	3.363	2.985	3.519	4.316	4.390	4.759	4.002	3.959	4.360	3.925	3.761	3.594	3.795	3.684	3.727	3.523	3.486	3.657	3.878	3.581	3.731	3.618	3.667	3.834	3.735	3.792	3.583	4.089	3.598
405.0	768.3	943.3	1056	1080	1111	1040	964.8	913.9	866.0	870.4	888.1	895.3	868.0	830.2	754.0	688.4	654.7	627.4	604.5	580.8	556.9	540.6	513.8	489.1	451.2	429.3	448.2	436.2	320.5	252.5	201.2	146.1	115.8	131.5	306.7	1560	6548	6135	245.1	8.606	4.450	3.694	3.121	2.886	2.964	2.968	3.071	3.465	2.959	3.306	3.517	3.967	4.033	4.302	4.338	3.992	4.226	4.066	3.772	3.731	3.644	3.701	3.497	3.404	3.366	3.515	3.458	3.544	3.555	3.529	3.472	3.463	3.567	3.786	3.376	3.845	3.438
410.0	728.3	879.4	987.1	1027	1048	1016	956.7	903.5	861.6	861.4	857.0	855.1	828.0	781.4	718.1	658.5	624.4	600.6	579.8	562.2	545.9	527.6	504.1	482.2	453.5	427.7	410.9	420.8	386.1	286.9	218.4	156.7	109.3	85.85	107.5	376.4	1776	4822	5895	1033	17.21	4.682	3.670	3.173	3.020	2.942	2.863	3.287	3.163	3.086	3.264	3.945	4.103	4.037	4.013	3.968	4.078	4.014	3.860	3.824	3.680	3.702	3.685	3.436	3.461	3.525	3.314	3.418	3.377	3.411	3.456	3.391	3.439	3.362	3.167	3.413	3.370
415.0	692.8	862.7	921.3	978.6	1015	986.5	934.4	885.9	863.9	842.6	831.5	817.8	774.3	734.1	669.1	614.8	583.3	566.0	545.8	533.5	518.7	504.4	490.1	467.4	446.0	425.1	399.3	375.2	385.1	347.4	240.4	169.4	120.6	86.27	72.49	118.1	420.6	1124	3380	6247	1551	20.81	4.774	3.682	3.197	3.181	2.705	3.125	3.267	2.988	3.113	3.871	3.617	3.755	3.680	3.824	3.933	3.951	3.819	3.748	3.809	3.853	3.407	3.401	3.233	3.383	3.267	3.349	3.508	3.223	3.246	3.249	3.486	3.296	3.170	3.194	3.439
420.0	680.5	805.5	878.5	914.8	969.6	937.6	918.6	857.5	854.9	833.6	820.0	782.9	748.8	696.3	644.0	587.6	561.2	538.5	521.1	508.2	495.9	483.0	477.8	461.4	438.6	418.2	394.0	364.0	354.1	362.0	278.1	184.2	130.7	95.27	71.15	66.10	121.5	271.7	869.0	4140	5755	269.5	13.07	4.571	3.643	3.459	2.925	3.218	3.235	2.834	3.112	3.529	3.752	3.930	3.729	3.599	4.025	3.715	3.817	3.796	3.742	3.693	3.376	3.268	3.443	3.337	3.269	3.254	3.036	3.241	3.122	3.220	2.990	3.124	3.209	2.910	3.087
