Sample:	'1
File name:	t2025042304Ð¡¸Õ¸«¶«ÄÏÇÅ.FD3
Run date:	'10:40:16, 04/24/2025
Operator:	Administrator
Comment:	'

Instrument
Model:	F-2700 FL Spectrophotometer
Serial number:	23B8-004
ROM Version:	4J14000 07

Instrument parameters
Measurement type:	3-D scan
Data mode:	Fluorescence
EX  Start WL:	220.0 nm
EX  End WL:	600.0 nm
EX Sampling interval:	5.0 nm
EM  Start WL:	230.0 nm
EM  End WL:	650.0 nm
EM Sampling interval:	5.0 nm
Scan speed:	12000 nm/min
EX Slit:	5.0 nm
EM Slit:	5.0 nm
PMT Voltage:	700 V
Response:	Auto 
Corrected spectra:	Off
Contour interval:	50.000

Peak integration
Integration method:	Rectangular
Sensitivity:	1
Threshold:	1.000

Peaks
No.	ApexEX/EM(nm)	Height(Data)
1	225.0/570.0	51.99
2	225.0/615.0	38.36
3	225.0/630.0	28.07
4	230.0/345.0	1038
5	230.0/560.0	64.72
6	230.0/585.0	52.82
7	230.0/620.0	38.23
8	235.0/510.0	255.2
9	240.0/265.0	350.4
10	240.0/390.0	832.1
11	240.0/520.0	237.6
12	245.0/270.0	346.6
13	245.0/535.0	201.4
14	250.0/275.0	460.7
15	250.0/545.0	160.0
16	255.0/280.0	551.0
17	255.0/560.0	139.1
18	260.0/290.0	529.3
19	260.0/575.0	109.7
20	265.0/585.0	107.3
21	270.0/300.0	960.6
22	270.0/595.0	91.36
23	275.0/305.0	1083
24	275.0/335.0	835.9
25	275.0/610.0	80.45
26	280.0/310.0	975.4
27	280.0/340.0	844.3
28	280.0/625.0	71.23
29	285.0/315.0	919.4
30	285.0/635.0	51.30
31	290.0/325.0	855.3
32	305.0/345.0	549.6
33	315.0/355.0	437.8
34	320.0/360.0	424.5
35	330.0/375.0	381.7
36	335.0/380.0	376.8
37	445.0/525.0	17.89
38	460.0/545.0	9.618
39	485.0/265.0	1.971
40	495.0/270.0	2.055
41	505.0/275.0	2.899
42	510.0/280.0	3.589
43	520.0/285.0	3.707
44	530.0/290.0	3.608
45	535.0/270.0	35.81
46	540.0/295.0	5.046
47	545.0/300.0	5.903
48	550.0/305.0	5.923
49	565.0/310.0	5.359
50	575.0/315.0	5.397
51	580.0/320.0	5.554
52	585.0/325.0	5.520

Data points
	220.0	225.0	230.0	235.0	240.0	245.0	250.0	255.0	260.0	265.0	270.0	275.0	280.0	285.0	290.0	295.0	300.0	305.0	310.0	315.0	320.0	325.0	330.0	335.0	340.0	345.0	350.0	355.0	360.0	365.0	370.0	375.0	380.0	385.0	390.0	395.0	400.0	405.0	410.0	415.0	420.0	425.0	430.0	435.0	440.0	445.0	450.0	455.0	460.0	465.0	470.0	475.0	480.0	485.0	490.0	495.0	500.0	505.0	510.0	515.0	520.0	525.0	530.0	535.0	540.0	545.0	550.0	555.0	560.0	565.0	570.0	575.0	580.0	585.0	590.0	595.0	600.0
230.0	27.87	489.0	1452	506.0	25.19	5.336	3.777	3.632	3.031	2.791	2.694	2.373	2.119	1.837	1.594	1.266	1.208	1.060	0.999	0.913	0.724	0.663	0.638	0.574	0.566	0.513	0.513	0.513	0.438	0.441	0.414	0.391	0.395	0.351	0.377	0.343	0.341	0.309	0.295	0.341	0.305	0.330	0.338	0.281	0.257	0.246	0.790	3.091	5.659	4.037	1.517	0.360	0.198	0.186	0.182	0.171	0.188	0.188	0.196	0.200	0.181	0.198	0.180	0.188	0.168	0.171	0.182	0.186	0.194	0.217	0.218	0.194	0.174	0.165	0.188	0.215	0.207
235.0	59.56	146.4	972.2	1927	496.7	41.90	4.468	4.602	3.158	2.989	3.075	2.239	2.389	1.964	1.885	1.301	1.034	1.132	0.840	0.960	0.847	0.729	0.632	0.650	0.535	0.565	0.575	0.501	0.444	0.459	0.429	0.404	0.370	0.330	0.381	0.334	0.364	0.283	0.350	0.316	0.358	0.260	0.356	0.386	0.431	0.346	0.331	0.927	2.469	4.529	6.820	6.940	3.182	0.616	0.205	0.157	0.208	0.169	0.209	0.156	0.201	0.199	0.194	0.208	0.206	0.159	0.196	0.223	0.171	0.195	0.210	0.178	0.222	0.166	0.182	0.230	0.213
240.0	94.63	92.52	303.0	1695	2428	396.6	20.34	5.291	3.551	3.980	3.572	2.589	2.530	1.932	1.910	1.884	1.300	1.203	1.043	0.893	0.990	0.607	0.705	0.669	0.619	0.504	0.620	0.471	0.562	0.417	0.423	0.434	0.360	0.331	0.314	0.373	0.360	0.268	0.304	0.312	0.262	0.303	0.303	0.373	0.493	0.494	0.382	0.417	0.730	1.478	4.031	10.40	12.32	8.275	2.419	0.380	0.214	0.167	0.194	0.184	0.211	0.191	0.198	0.199	0.232	0.150	0.152	0.187	0.176	0.216	0.167	0.184	0.205	0.195	0.185	0.220	0.196
245.0	77.40	143.4	120.8	585.4	2627	2490	286.3	9.670	5.323	4.508	4.005	3.063	2.740	2.212	2.144	1.519	1.364	1.164	1.157	1.218	0.979	0.761	0.772	0.714	0.600	0.580	0.598	0.548	0.508	0.469	0.350	0.378	0.327	0.352	0.342	0.341	0.382	0.304	0.280	0.321	0.284	0.307	0.291	0.314	0.339	0.523	0.657	0.539	0.373	0.514	1.090	3.829	9.489	15.88	14.27	6.898	1.411	0.254	0.208	0.221	0.222	0.170	0.223	0.190	0.207	0.200	0.172	0.207	0.189	0.221	0.184	0.202	0.178	0.186	0.259	0.177	0.177
250.0	37.58	109.5	196.7	213.5	843.7	2486	3167	1053	60.14	5.945	4.802	3.886	3.265	2.659	2.324	1.712	1.438	1.219	1.067	1.074	0.997	0.743	0.787	0.667	0.706	0.622	0.585	0.546	0.538	0.536	0.468	0.431	0.363	0.355	0.339	0.338	0.361	0.327	0.289	0.328	0.295	0.298	0.340	0.296	0.283	0.339	0.466	0.694	0.869	0.737	0.609	1.110	2.466	5.438	9.754	14.99	18.21	15.26	7.197	1.742	0.305	0.270	0.238	0.221	0.233	0.222	0.184	0.231	0.229	0.207	0.220	0.213	0.205	0.203	0.213	0.201	0.202
255.0	24.57	42.84	143.5	296.4	273.1	629.8	2491	5019	1463	59.62	7.142	5.768	3.998	3.001	2.842	1.993	1.435	1.391	1.254	1.194	1.120	0.860	0.918	0.696	0.703	0.653	0.612	0.546	0.565	0.487	0.457	0.477	0.448	0.395	0.319	0.332	0.300	0.300	0.298	0.284	0.310	0.326	0.338	0.251	0.288	0.285	0.307	0.381	0.465	0.830	1.206	1.183	0.937	1.407	2.389	3.838	7.885	18.39	29.66	24.79	10.54	1.850	0.296	0.307	0.260	0.198	0.188	0.244	0.233	0.211	0.188	0.203	0.201	0.193	0.227	0.177	0.202
260.0	23.29	23.57	63.63	250.0	297.6	196.5	753.2	4124	5647	248.4	27.11	7.313	5.259	3.998	3.245	2.052	2.064	1.700	1.402	1.218	1.017	0.927	0.961	0.851	0.644	0.776	0.748	0.659	0.570	0.558	0.552	0.482	0.416	0.457	0.374	0.381	0.310	0.294	0.328	0.272	0.333	0.324	0.330	0.280	0.317	0.312	0.305	0.293	0.280	0.436	0.850	1.590	1.491	0.947	0.834	1.110	2.096	5.280	14.54	30.23	31.59	22.18	7.845	0.898	0.281	0.242	0.273	0.234	0.211	0.202	0.216	0.215	0.215	0.225	0.203	0.213	0.209
265.0	27.43	21.00	27.27	113.5	350.4	234.9	204.6	1354	5888	5451	201.0	13.63	6.948	4.433	3.773	2.344	2.115	1.756	1.395	1.203	1.200	1.061	0.860	0.822	0.824	0.783	0.677	0.577	0.541	0.659	0.598	0.460	0.402	0.440	0.419	0.444	0.310	0.358	0.363	0.310	0.311	0.303	0.344	0.362	0.328	0.342	0.281	0.283	0.232	0.306	0.368	0.854	1.644	1.971	1.310	0.673	0.722	1.485	3.565	9.477	22.77	41.32	31.20	18.98	3.937	0.409	0.263	0.296	0.230	0.202	0.275	0.231	0.206	0.210	0.298	0.261	0.201
270.0	39.21	33.71	33.72	46.78	165.2	346.6	263.0	354.6	1814	5382	6748	784.3	47.32	7.043	5.229	3.387	2.771	2.100	1.751	1.348	1.326	1.040	0.977	0.919	0.791	0.752	0.765	0.631	0.637	0.616	0.562	0.536	0.544	0.512	0.479	0.434	0.376	0.410	0.405	0.367	0.354	0.349	0.331	0.338	0.354	0.367	0.285	0.342	0.300	0.293	0.263	0.392	0.736	1.125	1.770	2.055	1.592	1.032	1.162	2.428	5.682	12.77	21.37	35.81	35.49	34.79	13.42	4.091	0.553	0.265	0.318	0.259	0.224	0.286	0.251	0.252	0.278
275.0	77.72	96.82	82.80	52.53	62.82	156.2	460.7	319.8	453.7	1327	4616	9728	1107	44.27	7.855	4.849	3.482	2.828	2.183	1.768	1.572	1.501	1.047	1.141	0.978	0.824	0.808	0.768	0.683	0.724	0.573	0.619	0.531	0.536	0.494	0.526	0.411	0.384	0.442	0.448	0.371	0.459	0.410	0.401	0.455	0.479	0.390	0.450	0.514	0.422	0.321	0.388	0.465	0.515	0.721	1.176	2.407	2.899	2.114	1.170	1.580	3.276	5.150	8.559	12.33	30.56	56.80	32.16	20.91	3.864	0.493	0.311	0.361	0.327	0.287	0.254	0.290
280.0	118.5	156.4	144.5	96.80	55.72	70.12	283.6	551.0	260.3	363.3	1294	7178	9048	781.1	21.39	6.761	4.365	3.135	2.888	2.124	1.861	1.658	1.245	1.282	0.960	0.879	0.868	0.863	0.709	0.769	0.602	0.622	0.631	0.569	0.615	0.500	0.504	0.503	0.447	0.491	0.440	0.532	0.479	0.430	0.573	0.611	0.638	0.748	0.594	0.593	0.480	0.418	0.461	0.462	0.445	0.639	1.091	2.137	3.589	2.948	1.456	1.303	1.620	2.368	3.320	8.050	21.19	41.63	65.73	31.14	16.59	1.849	0.384	0.343	0.332	0.278	0.262
285.0	173.9	231.8	216.2	135.4	69.34	56.80	128.7	464.6	513.3	208.7	395.5	2146	9031	7155	115.7	11.19	6.315	4.395	3.128	2.460	2.409	1.573	1.445	1.271	1.016	0.914	0.834	0.830	0.820	0.730	0.668	0.635	0.597	0.655	0.679	0.596	0.541	0.562	0.476	0.467	0.461	0.427	0.570	0.531	0.552	0.740	0.791	0.941	0.802	0.704	0.635	0.534	0.533	0.480	0.515	0.438	0.589	0.927	1.975	3.610	3.707	2.112	1.218	1.149	1.280	2.438	5.491	11.61	29.25	53.42	68.71	27.41	10.18	0.920	0.394	0.319	0.370
290.0	230.6	330.8	300.3	202.5	106.7	77.10	98.86	222.3	529.3	499.0	322.4	650.1	2626	6704	7777	1618	28.80	6.022	4.186	2.986	2.445	2.111	1.609	1.463	1.188	0.966	0.952	0.927	0.843	0.830	0.768	0.703	0.700	0.806	0.820	0.717	0.681	0.647	0.540	0.564	0.506	0.468	0.601	0.650	0.704	0.907	0.905	1.162	1.070	0.957	0.664	0.709	0.635	0.544	0.538	0.552	0.575	0.745	0.980	1.579	2.557	3.405	3.608	2.800	1.709	1.572	2.125	3.570	7.528	14.43	27.77	38.72	50.67	43.79	18.66	8.767	1.330
295.0	268.5	380.2	394.8	272.4	146.0	114.4	126.0	172.9	298.6	631.4	763.0	441.2	807.3	1688	4780	8909	654.1	27.64	5.756	3.820	2.896	2.363	1.862	1.568	1.351	1.267	1.025	1.131	0.847	0.801	0.757	0.697	0.696	0.748	0.829	0.854	0.823	0.718	0.734	0.685	0.539	0.683	0.618	0.669	0.803	1.013	1.042	1.386	1.241	1.109	0.949	1.023	0.843	0.742	0.723	0.696	0.791	0.792	0.993	1.103	1.409	1.746	2.663	4.327	5.046	3.425	2.019	2.193	3.172	4.480	7.223	9.551	13.55	23.20	48.56	66.84	30.23
300.0	282.5	422.8	435.0	309.0	186.5	152.3	168.5	198.8	266.2	453.1	960.6	695.2	480.8	575.3	1319	6158	5689	491.4	12.55	5.037	3.636	2.771	2.187	1.816	1.665	1.438	1.091	1.164	1.021	0.908	0.820	0.841	0.755	0.840	0.875	0.828	0.813	0.730	0.768	0.684	0.626	0.652	0.600	0.718	0.797	0.976	1.130	1.403	1.414	1.252	0.974	1.160	1.047	0.872	0.809	0.819	0.914	0.932	1.118	1.113	1.407	1.562	1.875	2.810	4.517	5.903	4.416	2.910	2.343	2.659	2.923	3.286	4.077	6.277	14.50	34.94	60.15
305.0	300.7	428.6	478.7	341.0	221.8	195.4	216.1	251.8	312.2	425.1	760.9	1083	587.3	396.2	465.2	1789	6772	4785	72.15	8.397	4.673	3.324	2.618	2.088	1.987	1.430	1.250	1.140	1.111	0.909	0.882	0.860	0.896	0.801	0.873	0.736	0.910	0.789	0.858	0.620	0.630	0.652	0.787	0.742	0.912	1.180	1.180	1.358	1.495	1.472	1.187	1.317	1.202	0.937	0.970	1.081	1.096	1.253	1.482	1.405	1.609	1.718	1.975	2.433	3.100	4.188	5.923	5.479	3.698	2.745	2.548	2.162	2.343	2.633	4.260	9.041	20.31
310.0	301.2	440.0	480.3	366.6	258.4	232.5	257.4	308.0	369.2	461.1	623.7	916.7	975.4	550.5	333.3	526.5	1943	4926	5194	1276	20.93	4.713	3.416	2.528	1.971	1.652	1.387	1.307	1.236	1.051	0.888	0.857	0.903	0.922	0.948	0.878	0.789	0.840	0.702	0.707	0.707	0.699	0.696	0.722	0.831	1.141	1.200	1.504	1.550	1.533	1.193	1.328	1.202	1.112	1.100	1.199	1.287	1.401	1.610	1.670	1.869	1.938	2.162	2.465	2.794	3.132	4.043	4.877	5.299	5.359	4.053	2.695	2.215	1.959	2.114	2.933	5.408
315.0	313.0	440.3	479.7	381.8	288.8	266.4	296.4	349.0	415.1	506.0	622.9	738.7	863.2	919.4	442.8	292.4	548.4	1201	3238	6691	487.3	20.83	4.929	3.543	2.296	1.972	1.671	1.540	1.280	1.187	0.872	0.877	0.971	0.921	0.922	0.902	0.837	0.736	0.700	0.733	0.718	0.722	0.720	0.763	0.861	1.104	1.273	1.583	1.596	1.521	1.248	1.269	1.441	1.283	1.229	1.313	1.576	1.610	1.816	1.751	2.048	2.204	2.466	2.579	2.849	3.182	3.301	3.721	3.815	4.557	5.328	5.397	3.451	2.446	1.932	1.777	2.299
320.0	339.2	482.2	555.9	433.1	332.2	301.2	333.7	376.8	455.9	553.2	655.6	737.3	759.8	908.8	720.7	314.5	280.9	375.1	870.6	4462	4150	389.8	10.87	4.513	2.840	2.389	1.846	1.727	1.634	1.133	1.068	1.082	0.846	0.929	0.907	0.761	0.798	0.684	0.667	0.768	0.686	0.710	0.806	0.854	0.970	1.257	1.344	1.715	1.834	1.688	1.472	1.483	1.526	1.281	1.529	1.352	1.681	1.667	1.827	1.907	2.106	2.388	2.626	2.613	3.060	3.302	3.498	3.419	3.614	3.638	4.151	5.175	5.554	4.410	2.891	1.927	1.871
325.0	367.1	591.6	678.5	543.6	380.4	339.1	359.8	401.4	487.8	583.3	692.3	766.1	759.3	763.5	855.3	490.8	265.8	220.5	281.7	1262	4785	3712	57.20	7.095	3.675	3.053	2.096	1.737	1.462	1.318	1.185	1.150	0.974	0.894	0.874	0.872	0.800	0.739	0.681	0.734	0.659	0.706	0.691	0.877	1.084	1.341	1.470	2.030	2.109	2.118	1.842	1.649	1.609	1.404	1.614	1.509	1.673	1.666	1.859	2.124	2.148	2.536	2.605	3.018	3.318	3.402	3.705	3.676	3.905	3.809	3.813	3.925	4.971	5.520	4.413	3.055	2.127
330.0	391.5	659.7	856.7	728.9	477.5	394.6	399.3	436.2	519.5	621.0	728.8	801.8	799.1	739.2	714.9	676.8	428.0	233.8	181.7	365.7	1367	3600	4023	1130	18.05	4.159	2.935	2.132	1.659	1.488	1.344	1.222	1.017	0.965	0.915	0.812	0.818	0.812	0.789	0.647	0.721	0.702	0.814	0.912	1.046	1.579	1.726	2.473	2.750	2.462	2.358	2.202	1.924	1.723	1.746	1.611	1.890	1.972	2.142	2.295	2.466	2.526	2.897	3.161	3.376	3.541	3.798	3.909	3.793	3.855	3.876	3.813	4.042	4.220	4.398	4.330	4.133
335.0	412.0	743.6	965.5	851.1	579.8	454.0	437.8	473.7	552.0	639.4	759.3	835.9	832.8	762.0	677.9	600.7	630.1	380.0	206.3	198.9	378.3	869.6	2476	5364	411.0	20.75	4.411	2.699	2.290	1.716	1.458	1.275	1.099	1.013	1.052	0.869	0.857	0.816	0.848	0.706	0.623	0.753	0.886	0.907	1.093	1.647	1.792	2.645	3.045	2.654	2.634	2.646	2.354	2.015	1.970	1.911	2.197	2.070	2.367	2.220	2.618	2.480	3.011	3.298	3.453	3.576	3.773	4.088	4.004	4.192	3.974	4.164	3.862	3.972	4.051	3.748	4.011
340.0	442.5	749.1	1025	912.5	661.7	495.9	469.5	482.6	565.2	657.2	765.1	834.5	844.3	783.4	687.8	561.0	574.0	547.3	276.5	185.4	177.3	253.9	655.9	3488	4705	355.6	10.74	3.615	2.533	1.843	1.556	1.312	1.212	1.091	1.025	0.918	0.839	0.861	0.852	0.853	0.707	0.822	0.856	0.899	1.176	1.482	1.901	2.727	3.042	3.011	2.680	2.830	2.552	2.311	2.284	2.089	2.217	2.108	2.284	2.285	2.623	2.711	2.996	3.398	3.589	3.489	3.838	3.976	4.313	4.232	3.975	4.204	3.891	3.978	3.754	3.449	3.315
345.0	435.2	727.1	1038	949.0	697.8	541.8	502.3	502.6	563.0	657.7	751.3	827.8	831.6	783.2	689.0	558.4	497.1	549.6	410.6	216.4	150.3	133.2	199.2	973.4	4059	3182	51.52	5.892	3.221	2.050	1.818	1.466	1.494	1.301	0.977	1.035	0.849	0.861	0.749	0.814	0.738	0.917	0.826	0.906	1.259	1.618	1.979	2.595	3.029	3.142	2.762	2.953	2.728	2.489	2.167	2.222	2.322	2.320	2.326	2.634	2.415	2.731	3.208	3.326	3.378	3.566	3.822	3.941	4.188	3.988	4.123	4.057	4.168	3.955	3.721	3.553	3.250
350.0	412.3	720.7	985.9	952.7	750.0	594.6	536.1	525.6	582.3	656.6	732.9	799.4	814.5	768.0	686.6	575.5	490.3	461.6	470.2	352.9	192.8	138.1	122.0	273.1	1127	2836	3302	992.9	17.29	3.386	2.281	1.769	1.494	1.282	1.120	0.986	0.893	0.884	0.781	0.855	0.753	0.884	0.902	1.044	1.148	1.606	2.010	2.445	3.082	2.931	2.892	3.076	2.929	2.508	2.442	2.372	2.539	2.350	2.481	2.568	2.577	2.862	3.087	3.254	3.294	3.483	3.722	3.778	3.879	3.978	3.944	3.978	3.713	4.055	3.740	3.554	3.417
355.0	392.8	670.7	919.3	917.1	787.9	651.0	584.2	576.3	602.1	662.6	726.6	774.1	790.8	750.8	688.0	587.6	510.6	449.1	407.3	437.8	322.4	180.7	136.6	140.6	306.1	681.9	1928	4172	381.4	21.24	3.229	2.529	1.856	1.427	1.000	0.961	1.019	0.904	0.831	0.723	0.756	0.821	0.911	0.885	1.199	1.356	1.780	2.226	2.895	2.848	2.756	3.075	3.041	2.905	2.647	2.420	2.723	2.621	2.798	2.846	2.786	2.876	3.289	3.195	3.313	3.497	3.576	3.769	3.842	3.971	3.861	3.881	3.789	4.032	3.851	3.767	3.596
360.0	381.3	642.0	886.2	896.6	805.7	692.8	629.9	606.0	631.2	678.2	738.6	769.2	777.5	747.4	688.4	605.0	529.0	461.0	401.6	405.2	424.5	258.0	164.8	133.6	140.1	199.5	505.9	2648	3135	343.5	10.77	2.950	1.940	1.565	1.252	1.078	0.957	0.926	0.871	0.734	0.861	0.837	0.889	0.921	1.068	1.456	1.587	2.178	2.664	2.800	2.652	3.049	2.938	2.898	2.778	2.593	2.928	2.704	3.038	2.884	2.757	3.169	3.335	3.277	3.455	3.476	3.545	3.589	3.587	3.928	3.855	4.020	3.973	4.088	3.916	4.059	3.744
365.0	377.1	627.0	864.4	890.0	810.5	729.2	655.7	628.8	650.3	698.5	741.7	765.8	764.8	737.5	680.2	613.8	544.7	480.6	423.9	387.5	417.5	365.2	211.4	153.6	122.6	106.9	155.3	736.0	3105	2940	48.96	5.748	2.483	2.018	1.522	1.145	1.143	0.874	0.926	0.840	0.839	0.844	0.880	0.928	1.082	1.333	1.618	2.101	2.616	2.803	2.491	3.046	3.166	2.949	2.924	2.753	2.936	3.036	3.034	2.973	3.129	3.217	3.224	3.392	3.383	3.540	3.602	3.386	3.596	3.777	3.915	3.889	3.848	4.142	3.920	3.859	3.931
370.0	358.5	596.9	805.7	870.7	829.5	749.5	687.7	660.2	680.6	703.7	741.3	750.6	748.7	725.4	668.9	616.0	560.0	508.3	452.9	408.4	379.6	393.0	330.7	209.2	148.8	111.0	96.87	206.8	867.0	2438	2920	928.7	16.43	2.678	1.837	1.525	1.134	1.004	0.932	0.852	0.824	0.832	0.851	0.960	1.114	1.362	1.583	1.969	2.564	2.508	2.532	3.023	3.338	3.070	3.129	2.870	3.036	3.024	2.988	3.232	3.100	3.292	3.173	3.311	3.503	3.682	3.599	3.510	3.632	3.642	3.623	3.812	3.802	3.914	3.759	3.726	4.006
375.0	349.2	573.3	766.6	853.2	825.5	770.2	722.7	683.2	690.3	707.2	738.0	743.0	732.0	715.4	656.1	610.4	574.3	531.2	479.8	435.7	389.2	362.6	381.7	317.5	193.4	140.3	109.5	108.4	236.0	585.2	1641	3605	335.3	19.74	2.678	1.900	1.359	1.044	0.918	0.793	0.873	0.767	0.850	0.929	1.085	1.370	1.477	1.990	2.347	2.396	2.572	3.058	3.208	3.198	3.139	3.038	3.120	3.120	3.165	3.232	3.141	3.309	3.315	3.146	3.436	3.303	3.277	3.329	3.550	3.402	3.534	3.672	3.743	3.999	3.725	3.722	3.841
380.0	355.9	546.9	745.6	829.6	827.1	782.2	737.9	714.1	707.0	714.6	738.1	727.0	724.1	700.0	653.4	602.0	573.1	532.3	492.9	452.6	404.9	363.2	358.2	376.8	259.9	169.0	127.8	102.3	107.6	169.7	431.0	2242	2714	291.9	9.569	2.463	1.733	1.345	1.082	0.911	0.885	0.870	0.898	0.954	0.961	1.305	1.423	1.825	2.386	2.379	2.475	3.097	3.082	3.065	3.032	3.145	3.216	3.209	3.429	3.283	3.128	3.276	3.478	3.354	3.361	3.560	3.461	3.369	3.353	3.696	3.545	3.684	3.580	3.839	3.845	3.700	3.798
385.0	350.6	538.3	721.1	801.0	831.3	789.4	750.1	719.6	706.6	713.8	726.3	723.4	717.6	688.0	648.2	600.4	563.4	535.4	500.2	463.0	422.0	380.5	348.7	362.9	336.0	213.6	151.0	116.7	94.39	89.64	131.9	616.6	2458	2440	217.9	4.538	2.218	1.530	1.266	1.029	0.908	0.813	0.968	0.881	1.012	1.357	1.537	1.901	2.355	2.260	2.308	2.953	3.070	3.130	3.105	3.288	3.171	3.113	3.225	3.196	3.295	3.292	3.367	3.424	3.326	3.281	3.414	3.442	3.285	3.826	3.472	3.486	3.508	3.641	3.626	3.533	3.734
390.0	338.1	528.5	718.3	806.4	832.1	796.2	751.0	721.2	709.3	704.6	710.3	708.7	695.5	661.3	629.3	588.4	554.8	532.9	500.0	472.4	437.0	398.4	364.0	343.3	347.0	299.4	203.8	145.5	114.3	90.68	79.41	172.2	678.1	1861	2219	715.8	13.96	2.128	1.616	1.173	1.089	0.912	0.953	1.014	1.070	1.266	1.469	1.884	2.185	2.150	2.357	2.729	3.130	3.066	3.159	3.138	3.105	3.258	3.302	3.167	3.291	3.345	3.428	3.353	3.378	3.357	3.283	3.562	3.373	3.618	3.508	3.416	3.547	3.615	3.693	3.627	3.845
395.0	313.5	509.6	686.1	791.4	804.7	787.3	748.0	719.9	705.1	705.7	696.3	689.5	678.3	649.3	614.1	574.7	543.4	520.2	494.1	472.1	443.1	410.2	382.2	352.7	323.5	325.1	287.7	193.0	144.2	114.2	86.97	87.65	183.3	444.0	1205	2640	278.3	16.25	2.265	1.528	1.175	1.051	0.919	1.025	1.026	1.339	1.467	1.859	2.171	2.237	2.174	2.765	2.995	2.962	3.074	3.062	3.410	3.264	3.184	3.302	3.168	3.221	3.240	3.285	3.367	3.335	3.199	3.182	3.259	3.439	3.362	3.510	3.553	3.567	3.255	3.232	3.858
400.0	307.9	500.4	686.9	778.1	800.5	794.5	765.0	729.1	700.7	692.5	690.2	679.3	667.8	636.8	606.4	567.5	534.6	513.2	492.8	474.6	447.0	416.9	390.4	361.6	327.4	311.3	325.9	246.8	171.2	136.5	102.2	79.34	81.29	126.9	316.2	1626	2213	244.9	8.602	1.863	1.479	1.216	0.957	1.084	1.099	1.347	1.460	1.874	2.027	2.106	2.277	2.952	3.079	2.907	3.204	2.858	3.352	3.332	3.199	3.375	3.342	3.426	3.127	3.062	3.384	3.264	3.215	3.134	3.221	3.507	3.152	3.257	3.422	3.567	3.559	3.432	3.398
405.0	311.9	494.5	650.5	758.5	798.6	785.0	762.6	723.3	708.5	694.6	681.5	669.0	662.2	626.7	589.7	547.8	523.1	503.6	486.3	464.3	440.8	420.9	392.4	371.8	338.0	310.3	315.1	301.8	210.4	158.1	120.3	90.24	68.94	63.80	94.73	444.6	1819	1988	186.8	3.718	1.689	1.421	1.070	1.256	1.227	1.268	1.482	1.779	2.099	2.052	2.223	2.810	2.933	2.881	3.128	3.061	3.332	3.233	3.205	3.173	3.331	3.358	3.075	3.528	3.324	3.164	3.136	3.167	3.411	3.358	3.242	3.447	3.192	3.483	3.371	3.450	3.520
410.0	302.8	478.5	638.5	734.4	774.3	767.1	743.6	726.8	697.9	680.0	671.8	657.5	640.4	606.5	575.0	532.0	503.3	487.5	467.7	451.6	432.4	415.4	396.5	376.1	348.3	318.6	299.7	301.3	273.9	198.8	146.0	109.3	79.72	60.14	53.28	121.9	494.3	1406	1740	588.5	12.80	1.872	1.312	1.199	1.323	1.394	1.449	1.825	1.945	2.035	2.233	2.761	2.920	2.827	3.009	3.082	3.270	3.305	3.258	3.256	3.187	3.277	3.111	3.281	3.246	3.102	3.303	3.104	3.202	3.110	3.265	3.378	3.438	3.247	3.418	3.241	3.505
