Sample:	'1
File name:	S2025080902ÌìÄþËÂ¶«Â·ÇÅ.FD3
Run date:	'15:26:10, 08/10/2025
Operator:	Administrator
Comment:	'

Instrument
Model:	F-2700 FL Spectrophotometer
Serial number:	3064-004
ROM Version:	4J14000 07

Instrument parameters
Measurement type:	3-D scan
Data mode:	Fluorescence
EX  Start WL:	220.0 nm
EX  End WL:	600.0 nm
EX Sampling interval:	5.0 nm
EM  Start WL:	230.0 nm
EM  End WL:	650.0 nm
EM Sampling interval:	5.0 nm
Scan speed:	12000 nm/min
EX Slit:	5.0 nm
EM Slit:	5.0 nm
PMT Voltage:	700 V
Response:	Auto 
Corrected spectra:	Off
Contour interval:	50.000

Peak integration
Integration method:	Rectangular
Sensitivity:	1
Threshold:	1.000

Peaks
No.	ApexEX/EM(nm)	Height(Data)
1	225.0/625.0	23.61
2	230.0/610.0	27.31
3	235.0/510.0	233.1
4	240.0/520.0	213.2
5	245.0/530.0	210.8
6	250.0/270.0	418.1
7	250.0/545.0	196.8
8	255.0/280.0	588.0
9	255.0/555.0	171.8
10	260.0/285.0	736.2
11	260.0/420.0	693.9
12	260.0/570.0	141.8
13	265.0/290.0	663.9
14	265.0/580.0	133.3
15	270.0/295.0	942.0
16	270.0/420.0	699.3
17	270.0/440.0	688.6
18	270.0/595.0	118.8
19	275.0/305.0	 1086
20	275.0/410.0	684.7
21	275.0/605.0	108.8
22	280.0/310.0	987.3
23	280.0/615.0	84.70
24	285.0/315.0	963.2
25	285.0/395.0	647.8
26	285.0/630.0	67.23
27	290.0/320.0	907.9
28	290.0/645.0	55.80
29	295.0/330.0	667.6
30	300.0/335.0	614.5
31	305.0/340.0	659.4
32	310.0/345.0	572.2
33	310.0/405.0	627.2
34	315.0/400.0	623.6
35	320.0/360.0	603.0
36	325.0/365.0	592.1
37	335.0/380.0	610.3
38	340.0/385.0	620.7
39	350.0/400.0	577.1
40	355.0/405.0	567.8
41	365.0/420.0	496.5
42	370.0/425.0	466.3
43	415.0/485.0	131.4
44	435.0/510.0	68.17
45	445.0/525.0	49.24
46	460.0/545.0	28.76
47	505.0/275.0	2.712
48	520.0/285.0	4.011
49	530.0/290.0	3.650
50	540.0/295.0	4.772
51	545.0/300.0	5.122
52	550.0/305.0	5.470
53	560.0/310.0	5.087
54	570.0/315.0	5.021
55	575.0/320.0	4.972
56	585.0/325.0	4.999
57	595.0/330.0	4.446

Data points
	220.0	225.0	230.0	235.0	240.0	245.0	250.0	255.0	260.0	265.0	270.0	275.0	280.0	285.0	290.0	295.0	300.0	305.0	310.0	315.0	320.0	325.0	330.0	335.0	340.0	345.0	350.0	355.0	360.0	365.0	370.0	375.0	380.0	385.0	390.0	395.0	400.0	405.0	410.0	415.0	420.0	425.0	430.0	435.0	440.0	445.0	450.0	455.0	460.0	465.0	470.0	475.0	480.0	485.0	490.0	495.0	500.0	505.0	510.0	515.0	520.0	525.0	530.0	535.0	540.0	545.0	550.0	555.0	560.0	565.0	570.0	575.0	580.0	585.0	590.0	595.0	600.0
230.0	28.75	578.8	 3473	 2006	124.2	13.53	13.10	9.009	7.082	5.606	6.059	5.210	4.667	4.006	3.997	3.621	2.956	2.642	2.149	2.033	1.862	1.742	1.915	1.388	1.582	1.310	1.156	1.387	1.228	1.235	1.075	1.051	1.002	1.057	0.992	1.035	0.902	0.956	0.831	0.864	0.796	0.914	1.562	0.759	0.730	0.724	1.633	5.302	9.281	7.592	3.318	0.978	0.602	0.564	0.539	0.653	0.537	0.573	0.463	0.485	0.473	0.585	0.552	0.401	0.455	0.401	0.437	0.478	0.432	0.438	0.488	0.361	0.460	0.395	0.510	0.463	0.499
235.0	60.12	159.5	 1385	 4317	 2855	184.1	15.70	8.566	8.357	8.028	7.004	5.743	5.434	5.164	3.822	3.296	2.581	2.377	2.245	2.006	1.836	1.886	1.751	1.296	1.393	1.401	1.455	1.556	1.150	1.024	1.207	1.377	0.958	0.932	1.084	1.229	0.890	0.991	0.859	0.742	0.976	0.980	1.959	0.766	0.835	0.891	0.802	1.804	3.514	6.288	8.382	8.766	4.552	1.066	0.588	0.730	0.636	0.654	0.422	0.545	0.403	0.620	0.509	0.403	0.350	0.554	0.573	0.438	0.484	0.525	0.480	0.400	0.523	0.400	0.366	0.420	0.512
240.0	62.22	96.55	354.5	 2516	 7093	978.3	82.32	12.71	11.17	7.941	6.871	6.861	5.379	4.438	3.324	4.395	2.768	2.712	1.942	2.111	1.511	2.032	1.694	1.435	1.641	1.709	1.356	1.687	1.271	1.326	0.954	1.262	0.872	1.242	0.817	0.671	0.844	1.055	0.856	0.872	0.937	1.174	1.380	0.775	0.947	1.138	0.996	0.851	1.336	2.012	4.478	10.77	12.76	9.090	3.121	0.967	0.644	0.510	0.431	0.533	0.465	0.565	0.573	0.511	0.521	0.568	0.437	0.536	0.457	0.476	0.495	0.473	0.498	0.414	0.451	0.553	0.608
245.0	40.30	102.7	159.4	672.7	 4919	 5911	792.0	44.89	10.43	8.127	8.376	6.896	5.923	4.885	3.609	3.918	3.046	2.550	2.729	2.082	1.866	2.075	1.820	1.595	1.487	1.282	1.485	1.335	1.307	1.479	0.840	1.252	1.022	1.235	1.079	0.697	0.810	0.932	0.917	0.772	0.722	0.933	1.050	0.888	1.053	1.040	1.134	1.046	1.015	0.908	1.464	3.752	8.594	13.31	13.66	6.849	2.215	0.767	0.568	0.560	0.416	0.532	0.584	0.408	0.538	0.435	0.415	0.610	0.452	0.422	0.527	0.468	0.484	0.455	0.441	0.714	0.494
250.0	23.88	65.68	165.6	264.5	 1272	 3535	 9349	 2494	207.2	12.20	9.060	7.127	5.146	5.031	4.586	4.191	2.925	2.689	2.784	2.013	1.914	1.761	1.566	1.490	1.696	1.261	1.147	1.302	1.232	1.492	1.224	1.093	1.080	0.879	0.883	0.798	0.871	0.773	0.855	0.782	0.859	0.849	0.885	0.836	0.864	0.767	0.932	1.119	1.140	1.097	1.098	1.246	2.476	4.545	7.830	10.73	13.33	11.36	6.427	2.308	0.686	0.594	0.552	0.469	0.494	0.496	0.419	0.601	0.443	0.361	0.558	0.370	0.471	0.417	0.444	0.595	0.504
255.0	28.15	33.72	83.97	274.9	439.1	834.2	 4841	 5624	 3622	274.4	10.63	8.925	5.837	5.168	4.353	5.289	3.126	2.489	2.494	1.900	2.063	1.906	1.588	1.523	1.683	1.522	1.538	1.237	1.474	1.015	1.517	1.225	0.956	0.827	0.939	0.823	0.618	0.777	0.768	0.758	0.825	1.005	0.986	0.827	0.822	0.812	0.798	1.048	0.936	1.151	1.520	1.591	1.318	1.578	2.292	2.990	5.082	10.50	18.52	18.01	9.526	2.631	0.581	0.563	0.615	0.608	0.513	0.681	0.416	0.345	0.548	0.467	0.422	0.451	0.412	0.631	0.468
260.0	28.11	24.71	39.33	165.4	393.8	290.0	 1206	 2703	 6598	 2938	150.1	10.28	8.946	6.472	5.208	6.016	3.553	3.001	3.167	2.476	1.784	2.414	1.797	1.774	2.065	1.480	1.334	1.469	1.410	1.285	1.454	1.255	1.207	0.766	1.172	0.785	0.742	0.799	0.790	0.822	0.677	0.853	0.968	0.787	0.816	0.821	0.735	0.685	0.721	0.747	0.837	1.725	2.089	1.527	1.115	1.118	1.663	3.235	8.259	17.15	23.83	18.79	6.920	1.369	0.520	0.510	0.588	0.472	0.509	0.395	0.502	0.517	0.492	0.361	0.367	0.548	0.427
265.0	33.52	20.97	27.20	71.50	292.0	351.5	334.6	699.3	 3732	 7071	 2192	55.70	11.39	8.569	6.419	7.068	3.947	3.721	2.854	2.594	2.108	2.425	2.206	1.773	1.816	2.081	1.508	1.664	1.630	1.377	1.155	1.180	1.022	1.182	0.888	0.830	0.836	0.925	0.767	0.794	0.725	0.764	0.972	0.883	0.697	0.680	0.774	0.647	0.730	0.651	0.591	0.959	1.638	1.951	1.766	0.842	0.893	1.235	2.485	5.324	13.10	24.07	27.52	15.84	4.000	0.612	0.523	0.585	0.507	0.608	0.542	0.556	0.527	0.431	0.445	0.584	0.431
270.0	39.63	25.03	21.37	32.85	115.1	310.0	418.1	247.6	962.8	 3432	 6393	 3574	163.9	11.94	8.206	8.048	4.074	3.813	3.037	2.656	2.529	2.412	2.262	2.088	1.692	1.771	1.702	1.453	1.531	1.504	1.269	1.282	1.250	1.044	1.071	0.974	0.890	0.796	0.939	0.806	0.779	0.931	0.973	0.901	0.839	0.860	0.896	0.887	0.640	0.713	0.597	0.772	0.850	1.273	1.847	2.201	1.797	1.239	1.225	1.758	3.651	7.452	13.47	20.18	25.15	21.80	13.18	3.574	0.695	0.601	0.542	0.498	0.587	0.490	0.490	0.501	0.504
275.0	47.01	42.21	28.58	34.92	52.17	100.6	390.2	502.8	289.8	813.8	 2228	 7221	 2943	202.1	12.55	10.45	5.816	4.071	3.411	2.709	2.930	2.493	2.410	2.324	2.278	1.717	1.840	1.485	1.419	1.769	1.388	1.377	1.500	1.040	1.002	1.166	0.992	0.930	0.974	0.867	0.848	0.763	0.821	0.689	0.955	1.009	0.769	0.754	0.805	0.785	0.713	0.694	0.655	0.829	0.895	1.240	2.039	2.712	2.395	1.374	1.420	2.210	3.656	5.015	8.132	16.33	34.19	36.30	17.75	3.302	0.664	0.636	0.503	0.482	0.564	0.569	0.526
280.0	60.75	49.95	35.87	41.07	43.55	39.46	179.2	588.0	416.3	232.6	575.9	 2949	 8416	 2345	112.6	15.33	6.699	5.317	3.922	3.255	2.961	2.428	2.691	2.021	2.307	1.777	1.768	1.542	1.702	1.735	1.381	1.622	1.284	1.059	1.045	1.243	1.176	0.774	0.802	0.897	0.830	0.827	0.756	0.662	0.815	0.859	0.868	0.789	0.837	0.841	0.782	0.718	0.654	0.884	0.683	0.854	1.178	2.022	3.360	3.382	1.758	1.185	1.497	1.634	2.541	4.418	12.97	28.06	43.05	33.90	10.76	1.282	0.575	0.699	0.563	0.493	0.421
285.0	72.95	53.70	49.64	49.17	44.21	32.42	77.32	308.2	736.2	265.7	202.2	770.4	 4112	 8903	 1664	60.84	9.315	4.805	4.832	3.742	3.221	3.031	2.949	2.001	1.574	1.732	1.760	1.414	1.852	1.679	1.716	1.281	1.171	1.161	1.140	1.060	1.069	0.855	1.097	0.837	0.999	1.075	0.893	0.883	0.804	0.933	0.834	1.012	0.847	0.725	0.813	0.626	0.860	0.784	0.676	0.733	0.780	1.201	1.890	3.477	4.011	2.236	1.230	1.135	1.225	1.641	3.566	7.792	19.67	38.80	44.35	25.18	4.742	0.692	0.610	0.563	0.387
290.0	77.36	72.82	76.89	72.36	59.60	40.64	60.72	117.3	420.0	663.9	335.2	291.4	 1081	 3808	 6806	 6829	97.98	8.482	5.763	4.598	3.559	3.616	2.777	2.553	2.087	1.995	1.826	1.594	1.486	1.632	1.513	1.380	1.427	1.358	1.288	1.248	1.181	0.990	0.991	0.843	0.783	1.009	0.873	0.991	0.974	0.836	0.934	1.032	0.892	0.874	0.837	0.703	0.752	0.839	0.770	0.772	0.754	0.861	1.031	1.672	2.465	3.338	3.650	2.931	1.660	1.199	1.663	2.647	5.334	10.86	19.61	29.75	40.80	30.86	16.62	4.370	0.690
295.0	106.8	84.94	108.1	86.64	77.71	57.35	72.67	85.61	168.8	420.3	942.0	399.7	403.3	974.7	 2057	9999.9	 5375	128.9	8.449	5.376	3.918	4.059	3.345	2.696	2.503	2.392	1.728	2.010	2.027	1.831	1.452	1.645	1.314	1.288	1.278	1.207	1.260	1.034	1.160	0.924	0.800	1.014	0.779	0.953	1.039	0.927	1.043	0.979	1.151	0.887	0.946	0.817	0.792	0.853	0.736	0.778	0.823	1.030	1.123	1.290	1.302	1.595	2.058	4.000	4.772	2.767	1.628	1.542	2.179	3.480	5.398	7.521	13.07	21.15	43.52	46.57	20.95
300.0	98.06	105.3	113.9	106.2	89.86	67.36	91.68	88.26	129.1	244.5	775.2	938.6	343.0	379.4	569.9	 3778	 8153	 1414	80.36	7.083	4.661	4.886	3.058	3.323	2.613	2.188	2.397	1.748	1.896	1.794	1.524	1.756	1.771	1.603	1.310	1.120	1.346	0.974	1.075	0.880	1.056	0.891	0.903	1.023	1.238	0.933	1.163	1.004	0.977	0.956	1.060	0.869	0.704	0.840	0.824	0.776	0.881	0.975	1.138	1.197	1.054	1.235	1.563	2.384	3.661	5.122	3.991	2.262	1.938	2.064	2.259	2.716	3.924	5.668	15.33	34.50	52.90
305.0	101.2	110.9	124.4	112.7	99.03	74.69	101.4	104.6	131.0	203.8	437.1	 1086	703.1	286.9	255.1	959.4	 3453	 7750	 1130	40.12	6.608	5.477	3.390	3.039	2.552	2.251	2.467	1.969	1.725	1.731	1.642	1.930	1.589	1.528	1.598	1.205	1.138	1.338	0.982	0.913	1.238	1.015	1.001	1.192	1.222	0.939	1.048	1.159	0.873	1.231	0.945	1.054	0.913	1.087	0.885	0.754	0.893	0.898	1.053	1.097	1.279	1.002	1.415	1.733	2.292	3.248	5.470	4.606	2.853	1.963	1.625	1.523	1.751	2.118	4.127	9.716	23.89
310.0	120.3	127.1	149.8	140.5	111.7	93.68	116.9	127.9	152.6	207.0	314.8	598.0	987.3	617.3	243.7	326.8	871.2	 3170	 5752	 3452	71.38	8.199	4.354	3.872	2.977	2.510	2.286	1.860	1.981	1.854	1.667	1.516	1.622	1.379	1.375	1.265	1.331	1.280	1.093	1.190	1.022	0.984	1.098	1.021	1.039	1.174	1.010	1.036	0.968	1.043	0.844	1.085	0.899	1.036	0.979	1.008	0.960	1.151	1.174	1.200	1.287	1.279	1.303	1.571	1.631	2.026	3.023	3.982	5.087	4.326	2.846	1.652	1.706	1.482	1.770	2.824	6.290
315.0	117.9	138.3	173.3	157.8	119.0	107.6	129.3	139.5	178.1	225.8	306.2	405.4	575.1	963.2	566.8	219.1	285.6	772.3	 1688	 5850	 4639	98.04	7.034	5.176	3.943	3.143	2.765	2.594	2.500	1.757	1.499	1.667	1.599	1.330	1.345	0.894	1.287	1.217	1.135	1.107	0.929	1.249	1.069	1.014	1.316	1.130	0.989	1.213	1.005	1.025	0.889	0.969	0.904	1.126	1.013	0.970	1.021	1.180	1.181	1.095	1.417	1.513	1.368	1.641	1.419	1.846	2.121	2.495	3.162	3.906	5.021	4.183	2.349	1.606	1.451	1.287	2.378
320.0	118.5	166.9	190.0	175.9	130.5	116.3	144.9	158.6	198.7	243.4	314.6	375.4	432.4	675.6	907.9	269.5	178.5	252.3	436.1	 2111	 7108	 3631	63.78	6.239	4.553	3.909	3.462	3.016	2.568	2.171	2.197	1.656	1.878	1.486	1.641	1.230	1.319	1.136	1.137	1.117	1.080	1.299	1.004	1.111	1.282	1.290	1.065	1.464	1.381	1.167	0.945	0.993	0.993	1.148	1.003	1.061	0.977	1.161	1.011	1.276	1.363	1.306	1.673	1.548	1.784	1.712	1.920	2.085	2.554	2.367	3.482	4.972	4.697	2.701	1.644	1.202	1.345
325.0	148.3	179.6	206.8	186.9	148.8	148.3	142.3	173.1	216.8	265.0	323.9	383.2	413.1	473.7	798.6	648.4	200.4	153.5	165.8	538.7	 3166	 7944	855.5	34.36	5.380	4.730	3.939	3.055	2.682	2.092	2.128	1.534	1.743	1.586	1.450	1.306	1.174	1.296	1.366	1.138	1.263	1.235	1.272	1.165	1.433	1.375	1.228	1.460	1.311	1.040	0.939	0.941	1.015	1.006	1.257	0.962	1.216	1.333	1.260	1.478	1.373	1.453	1.615	1.645	1.527	1.953	1.794	2.108	2.501	1.899	2.605	3.578	4.406	4.999	3.387	1.816	1.315
330.0	338.3	191.0	250.2	245.4	193.7	163.6	167.6	188.4	227.1	273.0	343.3	406.4	441.3	434.1	503.6	667.6	532.9	180.4	130.2	189.1	783.1	 3262	 5040	 2907	55.66	6.952	4.701	3.356	2.755	2.472	2.135	1.875	1.673	1.608	1.414	1.349	1.175	1.332	1.262	1.156	1.251	1.115	1.241	1.241	1.274	1.293	1.324	1.394	1.496	1.154	1.192	1.092	0.955	1.145	1.237	1.208	1.156	1.281	1.426	1.532	1.427	1.589	1.568	1.617	1.723	1.823	1.880	2.221	2.482	2.228	2.470	2.607	2.869	3.518	4.190	4.446	2.905
335.0	207.0	209.3	267.3	297.6	227.7	210.8	185.2	209.6	243.3	285.5	359.0	404.1	443.2	450.2	423.1	433.5	614.5	503.5	170.1	137.3	247.3	783.5	 1571	 5485	 4040	77.70	6.213	4.263	3.652	2.457	2.383	2.574	2.002	1.706	1.343	1.212	1.405	1.327	1.189	1.236	1.074	1.416	1.366	1.062	1.153	1.391	1.290	1.898	1.651	1.414	1.471	1.324	1.145	1.216	1.248	1.220	1.384	1.212	1.322	1.524	1.520	1.707	1.646	1.670	1.699	1.967	2.022	2.399	2.494	2.395	2.533	2.478	2.447	2.409	2.710	3.224	3.969
340.0	174.0	211.2	274.7	301.7	244.8	225.7	206.2	222.8	265.5	318.4	370.5	419.9	452.2	452.0	420.1	374.8	442.5	659.4	346.9	157.5	148.8	248.8	410.5	 2159	 6535	 2783	50.71	5.092	4.264	2.824	2.390	2.623	1.839	2.017	1.407	1.737	1.402	1.211	1.388	1.306	1.135	1.201	1.354	0.982	1.202	1.370	1.340	1.476	1.483	1.426	1.519	1.507	1.208	1.325	1.301	1.456	1.619	1.617	1.476	1.358	1.614	2.065	1.735	1.624	1.926	2.169	2.333	2.399	2.539	2.675	2.413	2.432	2.371	2.054	2.440	2.787	3.225
345.0	163.1	214.1	299.9	308.2	272.5	234.8	244.2	235.2	281.5	329.1	388.8	432.7	456.4	468.2	431.0	375.8	359.3	524.5	572.2	243.6	153.5	150.9	163.5	559.8	 3205	 6489	703.0	26.77	5.323	4.064	2.773	2.573	2.153	2.027	1.789	1.620	1.343	1.220	1.202	1.077	1.025	1.156	1.203	1.265	1.314	1.515	1.207	1.665	1.686	1.347	1.471	1.494	1.387	1.355	1.403	1.574	1.660	1.563	1.613	1.244	1.694	1.755	1.774	1.681	2.114	1.927	2.388	2.197	2.327	2.253	2.458	2.473	2.501	2.269	2.425	2.469	2.760
350.0	166.2	200.0	293.9	345.0	315.5	276.6	284.4	276.7	300.7	339.4	402.9	443.3	478.4	478.1	460.4	406.6	368.4	390.9	523.8	500.0	262.4	173.4	150.9	211.3	813.7	 2977	 4660	 2524	47.87	5.527	4.128	3.220	2.478	2.072	1.734	1.537	1.445	1.353	1.384	1.279	1.094	1.374	1.310	1.530	1.195	1.496	1.535	1.437	1.741	1.494	1.489	1.583	1.479	1.548	1.453	1.685	1.636	1.647	1.642	1.605	1.919	1.924	1.987	1.884	2.157	2.127	2.435	2.343	2.304	2.197	2.458	2.594	2.728	2.406	2.500	2.347	2.598
355.0	147.9	201.8	302.1	362.3	352.5	320.7	327.5	334.8	350.3	369.3	431.5	465.2	490.6	485.8	482.5	436.1	408.4	387.0	399.1	519.8	523.8	269.7	196.6	175.6	276.5	732.5	 1603	 5332	 3279	63.91	5.582	3.820	2.586	2.262	1.916	1.770	1.412	1.441	1.409	1.105	1.237	1.481	1.356	1.193	1.317	1.456	1.504	1.550	1.522	1.515	1.451	1.668	1.724	1.796	1.652	1.591	1.856	1.580	1.712	1.653	2.099	1.760	2.092	2.155	2.684	2.352	2.354	2.504	2.269	2.179	2.566	2.622	2.588	2.964	2.554	2.469	2.697
360.0	160.1	211.0	302.3	363.6	377.7	362.5	361.7	350.8	388.6	415.7	463.5	482.2	509.3	505.4	498.8	469.6	437.3	414.5	400.5	434.9	603.0	435.5	249.5	196.5	187.2	254.7	432.1	 2326	 6013	726.7	40.09	4.753	3.550	2.584	2.031	2.053	1.739	1.641	1.389	1.434	1.357	1.302	1.505	1.199	1.151	1.334	1.598	1.438	1.641	1.202	1.551	1.785	1.693	1.739	1.721	1.598	2.018	1.916	1.976	2.071	1.896	2.043	2.322	2.237	2.608	2.297	2.504	2.633	2.513	2.640	2.764	2.540	2.689	2.874	2.721	2.388	2.828
365.0	155.6	226.0	288.3	374.2	380.7	397.0	392.2	385.9	422.1	445.6	479.6	516.0	528.7	538.7	515.1	494.0	476.7	449.6	428.7	428.4	513.4	592.1	357.4	239.6	199.1	174.9	182.4	612.6	 3287	 5526	612.3	19.08	4.510	3.708	2.268	2.176	1.968	1.676	1.473	1.668	1.499	1.416	1.331	1.455	1.432	1.366	1.664	1.400	1.618	1.308	1.770	1.696	2.092	1.892	1.918	1.688	2.166	1.997	2.144	2.072	2.061	2.294	2.464	2.238	2.642	2.518	2.440	2.701	2.812	2.974	2.843	2.439	2.848	2.487	3.108	2.424	2.994
370.0	158.7	202.8	302.0	379.4	410.3	432.6	443.8	439.9	455.0	479.8	513.4	534.1	544.7	551.2	545.2	529.3	507.3	494.7	477.4	464.7	472.3	553.4	562.1	361.1	255.2	204.0	166.6	228.5	848.1	 2890	 4569	 1978	38.15	5.470	3.213	2.468	1.746	1.836	1.798	1.631	1.456	1.477	1.444	1.372	1.437	1.372	1.545	1.408	1.723	1.623	1.502	1.916	1.997	1.968	1.903	1.963	1.956	2.116	2.102	2.231	2.219	2.312	2.635	2.583	2.470	2.616	2.521	2.514	2.714	2.693	2.907	2.836	3.047	2.958	2.975	2.789	2.934
375.0	151.1	208.1	323.1	395.0	458.4	464.5	473.0	472.3	484.1	513.5	537.6	555.2	576.5	573.8	572.9	559.4	545.8	526.4	525.2	512.2	505.9	505.5	562.4	572.2	354.1	258.9	210.2	178.5	281.7	711.1	 1742	 5158	 2714	49.25	4.793	3.094	2.379	1.959	1.795	1.668	1.526	1.399	1.518	1.524	1.317	1.441	1.320	1.520	1.661	1.573	1.639	2.188	1.865	2.213	2.093	1.947	2.287	2.109	2.329	2.471	2.276	2.894	2.666	2.727	2.513	2.831	2.694	2.869	2.895	2.906	2.606	2.976	3.303	3.006	3.136	3.610	3.285
380.0	151.5	216.8	324.8	411.3	490.7	488.4	497.5	513.7	530.8	554.5	566.9	576.7	589.8	589.6	575.2	575.7	559.7	556.0	549.0	541.5	524.2	514.5	514.7	610.3	504.5	320.8	249.0	199.3	178.9	240.9	459.9	 2461	 5524	583.3	28.47	4.235	3.513	2.351	2.003	1.795	1.631	1.420	1.474	1.405	1.690	1.642	1.460	1.677	1.614	1.687	1.684	2.125	1.869	1.946	1.991	1.727	2.468	2.546	2.450	2.732	2.404	2.510	2.502	2.775	2.557	2.980	2.814	2.942	2.894	2.711	3.155	3.112	3.024	3.335	3.281	3.397	3.607
385.0	148.6	229.5	328.5	440.1	490.9	527.1	523.4	544.4	557.9	578.6	614.5	600.9	609.5	602.2	600.6	595.5	573.4	587.4	572.9	569.0	555.5	534.5	510.8	553.4	620.7	420.5	291.3	232.8	185.7	160.2	175.6	648.8	 3285	 4581	463.9	11.92	3.992	3.338	2.380	2.057	1.550	1.579	1.480	1.427	1.625	1.658	1.350	1.685	1.761	1.560	1.683	2.185	2.253	2.129	2.223	2.382	2.333	2.437	2.272	2.377	2.711	2.949	2.820	2.635	2.345	2.833	2.770	3.001	3.222	2.622	3.077	2.908	3.589	3.307	3.127	3.146	4.027
390.0	162.2	237.9	347.2	437.7	494.3	533.3	544.7	574.7	586.3	606.5	626.5	621.1	621.2	619.6	613.3	605.6	586.7	594.6	594.6	592.6	585.6	564.9	536.2	526.0	570.1	566.2	403.9	287.6	226.4	180.0	145.3	218.9	852.9	 2656	 3683	 1501	29.18	4.698	2.912	2.203	1.839	1.676	1.606	1.624	1.589	1.702	1.553	1.893	1.841	1.727	1.791	2.168	2.172	2.239	2.520	2.410	2.294	2.835	2.518	2.573	2.900	2.778	2.859	2.724	2.769	2.915	2.998	3.160	3.072	3.118	3.165	2.952	3.264	3.266	3.388	3.401	3.976
395.0	163.5	233.6	354.3	438.3	505.6	560.4	591.1	606.1	599.0	629.5	648.4	654.0	639.7	647.8	623.9	609.5	600.0	610.7	611.7	616.1	610.2	588.2	566.9	542.4	525.8	552.0	553.8	378.3	283.3	226.3	171.8	150.4	259.8	642.5	 1508	 4268	 2032	37.40	4.300	2.989	2.397	2.162	1.992	1.731	1.671	1.595	1.770	1.771	1.813	1.712	2.012	2.247	2.296	2.408	2.473	2.491	2.457	2.715	2.603	2.893	2.561	2.513	2.720	2.715	2.991	2.683	2.805	3.162	3.221	3.600	3.332	3.209	3.229	3.388	3.544	3.608	3.949
400.0	142.3	238.4	371.8	460.8	510.6	582.1	592.1	635.4	644.6	644.7	658.7	660.9	645.1	638.8	638.4	614.9	607.2	613.4	617.3	623.6	616.8	601.2	585.2	554.0	533.5	515.9	577.1	500.0	334.3	258.5	202.4	156.8	146.1	203.4	394.7	 2130	 4304	482.2	21.70	3.973	2.644	2.314	1.739	1.865	1.801	1.792	1.771	1.842	1.882	1.802	1.910	2.113	2.314	2.545	2.207	2.545	2.584	2.529	2.733	2.821	2.968	2.956	2.840	3.005	3.216	3.255	3.050	3.348	3.088	3.187	2.704	3.318	3.420	3.715	3.682	3.746	4.398
405.0	154.8	239.6	358.8	470.8	520.3	571.4	611.5	646.9	658.1	655.4	671.5	670.8	656.3	642.5	630.7	621.4	600.9	612.1	627.2	620.3	622.5	607.2	592.5	572.2	545.9	515.6	525.9	567.8	418.2	292.8	238.9	181.9	139.1	118.8	140.0	562.1	 2720	 3691	380.7	8.709	3.532	2.640	2.387	1.851	1.460	1.786	1.710	1.841	1.763	1.870	2.020	2.367	2.114	2.349	2.280	2.464	2.748	2.936	2.602	2.825	3.020	2.993	3.007	2.626	2.996	3.154	3.044	3.341	3.168	3.125	3.123	3.033	3.126	3.268	3.686	3.755	3.937
410.0	176.1	240.6	363.4	470.2	527.9	569.0	623.1	645.5	665.9	669.6	682.4	684.7	650.2	641.2	625.3	603.1	593.4	602.3	608.7	616.4	618.9	603.6	592.6	575.1	559.7	529.8	502.2	522.3	518.9	387.0	280.5	217.3	164.7	122.3	99.73	173.6	708.3	 2174	 3001	 1159	25.06	3.776	2.569	2.241	1.974	1.901	1.675	1.836	1.972	1.780	1.811	2.277	2.270	2.589	2.395	2.549	3.017	2.942	2.947	2.888	2.931	2.812	2.764	2.927	2.980	3.381	3.098	3.177	3.038	3.221	3.377	3.304	3.418	3.263	3.422	3.708	3.608
