Sample:	'1
File name:	S2025080911Ðã·áÂ·ÇÅ.FD3
Run date:	'15:34:52, 08/10/2025
Operator:	Administrator
Comment:	'

Instrument
Model:	F-2700 FL Spectrophotometer
Serial number:	3064-004
ROM Version:	4J14000 07

Instrument parameters
Measurement type:	3-D scan
Data mode:	Fluorescence
EX  Start WL:	220.0 nm
EX  End WL:	600.0 nm
EX Sampling interval:	5.0 nm
EM  Start WL:	230.0 nm
EM  End WL:	650.0 nm
EM Sampling interval:	5.0 nm
Scan speed:	12000 nm/min
EX Slit:	5.0 nm
EM Slit:	5.0 nm
PMT Voltage:	700 V
Response:	Auto 
Corrected spectra:	Off
Contour interval:	50.000

Peak integration
Integration method:	Rectangular
Sensitivity:	1
Threshold:	1.000

Peaks
No.	ApexEX/EM(nm)	Height(Data)
1	225.0/585.0	84.37
2	225.0/610.0	72.09
3	230.0/340.0	 1688
4	230.0/565.0	84.57
5	230.0/600.0	80.93
6	230.0/635.0	70.18
7	235.0/345.0	 1719
8	235.0/355.0	 1702
9	235.0/580.0	88.91
10	245.0/530.0	302.8
11	250.0/545.0	262.3
12	255.0/555.0	258.5
13	260.0/285.0	 1015
14	260.0/570.0	216.9
15	265.0/290.0	 1299
16	265.0/580.0	225.0
17	270.0/595.0	212.8
18	275.0/305.0	 2501
19	275.0/375.0	 2390
20	275.0/605.0	203.1
21	280.0/310.0	 2489
22	280.0/345.0	 2404
23	280.0/360.0	 2407
24	280.0/615.0	175.7
25	285.0/315.0	 2282
26	285.0/630.0	136.8
27	455.0/335.0	6.994
28	460.0/340.0	7.035
29	460.0/545.0	43.61
30	465.0/330.0	6.295
31	505.0/275.0	3.341
32	505.0/385.0	8.578
33	520.0/285.0	4.679
34	540.0/295.0	8.468
35	545.0/300.0	10.21
36	550.0/305.0	10.93
37	555.0/380.0	10.36
38	560.0/310.0	11.04
39	560.0/355.0	11.16
40	565.0/370.0	10.75
41	570.0/315.0	10.60
42	570.0/365.0	10.78
43	575.0/320.0	10.57
44	585.0/380.0	11.02

Data points
	220.0	225.0	230.0	235.0	240.0	245.0	250.0	255.0	260.0	265.0	270.0	275.0	280.0	285.0	290.0	295.0	300.0	305.0	310.0	315.0	320.0	325.0	330.0	335.0	340.0	345.0	350.0	355.0	360.0	365.0	370.0	375.0	380.0	385.0	390.0	395.0	400.0	405.0	410.0	415.0	420.0	425.0	430.0	435.0	440.0	445.0	450.0	455.0	460.0	465.0	470.0	475.0	480.0	485.0	490.0	495.0	500.0	505.0	510.0	515.0	520.0	525.0	530.0	535.0	540.0	545.0	550.0	555.0	560.0	565.0	570.0	575.0	580.0	585.0	590.0	595.0	600.0
230.0	28.84	553.8	 3646	 2100	143.3	15.38	12.04	10.83	10.36	9.850	8.338	8.866	8.382	6.886	6.069	4.865	4.390	4.403	3.953	3.596	3.324	2.961	3.020	2.653	2.695	2.254	2.024	2.059	1.887	1.891	1.872	1.583	1.587	1.529	1.521	1.433	1.273	1.137	1.032	1.027	1.068	1.220	1.082	0.975	0.956	0.938	1.911	6.883	12.20	9.952	4.659	1.228	0.738	0.715	0.666	0.691	0.734	0.619	0.617	0.595	0.506	0.590	0.527	0.547	0.543	0.523	0.540	0.522	0.518	0.565	0.474	0.502	0.515	0.464	0.495	0.539	0.456
235.0	52.15	148.3	 1522	 3944	 2717	241.4	14.15	10.83	10.72	10.25	7.887	9.048	9.352	6.241	6.522	5.182	5.284	4.273	3.492	4.250	3.563	2.692	2.942	2.517	2.591	2.681	2.201	2.085	2.025	2.015	2.005	1.521	1.471	1.785	1.390	1.246	1.148	1.060	1.298	0.996	1.210	1.059	1.010	1.201	0.999	0.997	1.142	2.495	4.618	8.697	12.81	12.63	5.999	1.477	0.776	0.517	0.596	0.664	0.619	0.679	0.481	0.602	0.505	0.559	0.550	0.507	0.462	0.558	0.546	0.706	0.470	0.503	0.465	0.555	0.400	0.557	0.379
240.0	59.12	79.48	389.2	 2196	 5774	 2524	104.4	12.28	12.99	11.86	10.05	9.208	7.533	7.363	5.671	5.944	4.985	4.343	3.763	4.332	3.919	3.175	3.509	2.548	2.309	2.569	2.143	2.000	2.142	2.284	1.993	1.672	1.283	1.514	1.410	0.956	1.180	1.139	1.193	1.116	1.003	0.922	0.849	1.013	1.004	1.081	1.031	1.338	1.601	3.021	6.424	14.76	18.28	13.35	4.759	0.936	0.850	0.691	0.645	0.512	0.597	0.538	0.553	0.471	0.528	0.422	0.486	0.465	0.682	0.583	0.512	0.892	0.535	0.478	0.454	0.583	0.409
245.0	39.15	82.97	158.8	592.7	 3784	 6761	816.3	59.06	16.28	11.04	13.71	10.97	9.972	6.996	6.762	6.083	4.588	4.352	3.846	4.450	4.192	3.632	3.654	2.660	2.824	2.260	2.273	1.932	2.053	2.061	1.699	1.787	1.410	1.397	1.237	1.191	1.232	1.211	1.168	1.305	1.091	1.080	1.195	0.909	0.879	1.175	1.112	1.144	1.094	1.134	2.014	5.016	11.45	20.81	20.87	11.99	3.650	0.796	0.647	0.693	0.577	0.517	0.597	0.493	0.530	0.516	0.400	0.608	0.626	0.452	0.333	0.615	0.386	0.458	0.554	0.511	0.423
250.0	32.89	63.14	146.7	231.1	991.1	 3865	 5829	 2965	257.7	17.71	15.09	11.54	10.06	9.635	7.495	7.561	5.566	4.321	4.435	4.329	3.995	3.853	3.259	3.303	2.730	2.644	2.253	2.270	2.333	2.153	1.864	1.706	1.595	1.286	1.503	1.175	1.542	1.041	1.169	1.225	0.990	1.156	1.135	0.943	0.992	1.097	1.045	1.220	1.254	1.161	1.259	1.751	3.279	6.769	11.87	19.05	23.39	21.20	12.74	3.918	0.851	0.610	0.623	0.635	0.646	0.475	0.429	0.476	0.437	0.507	0.444	0.534	0.557	0.439	0.452	0.625	0.498
255.0	33.53	31.93	69.83	218.8	344.5	902.6	 2510	 8909	 4744	357.0	22.45	15.03	12.22	11.81	8.991	6.351	5.174	5.201	4.401	4.050	3.956	4.050	3.205	3.291	3.018	2.607	2.249	2.242	1.965	2.388	1.865	1.838	1.592	1.611	1.370	1.386	1.237	1.136	1.093	1.191	1.086	1.108	1.007	1.046	0.919	1.174	0.829	0.965	0.890	1.226	1.540	1.556	1.519	2.174	3.217	5.025	9.033	21.32	37.94	39.40	20.37	4.947	0.696	0.604	0.684	0.603	0.671	0.638	0.638	0.595	0.473	0.566	0.376	0.624	0.639	0.548	0.413
260.0	32.98	21.50	36.46	139.0	312.7	288.9	625.0	 4478	9999.9	 4097	234.4	19.83	16.32	12.14	10.28	6.117	6.354	5.867	4.554	4.591	4.340	4.775	3.326	2.976	3.021	2.874	2.451	2.769	1.975	2.609	2.040	1.882	1.569	1.658	1.428	1.402	1.244	1.199	1.182	1.121	1.241	0.995	1.168	0.943	0.942	0.965	0.803	0.893	0.787	0.896	1.177	1.636	1.941	1.475	1.500	1.920	2.570	6.183	15.50	37.23	51.96	41.47	16.26	2.490	0.814	0.735	0.663	0.600	0.484	0.667	0.508	0.451	0.499	0.612	0.579	0.452	0.514
265.0	36.79	25.12	35.58	61.40	237.5	289.0	193.7	 1177	 6960	9999.9	 3384	112.1	22.07	12.56	12.14	9.490	7.132	6.830	5.846	4.532	4.542	4.250	3.713	3.524	2.624	3.235	2.741	2.773	2.278	2.297	2.189	2.046	1.858	1.656	1.656	1.407	1.197	1.073	1.229	1.127	1.099	1.098	1.327	0.981	1.082	1.015	0.925	0.904	0.967	0.670	0.773	1.068	1.633	2.286	1.544	1.495	1.308	2.178	4.290	11.55	26.99	53.02	54.25	37.34	10.20	1.052	0.625	0.582	0.626	0.786	0.624	0.545	0.604	0.582	0.580	0.615	0.552
270.0	100.2	72.13	53.94	40.76	100.2	284.2	362.1	394.9	 1843	 6551	9999.9	 9310	200.9	23.32	13.97	11.68	8.554	7.317	6.014	5.284	4.739	4.260	3.613	3.282	3.429	3.394	2.747	2.918	2.509	2.221	2.283	2.229	1.872	1.631	1.607	1.430	1.540	1.286	1.258	1.343	1.332	1.335	1.355	1.300	1.321	1.161	1.081	1.145	1.058	0.964	0.802	0.885	1.099	1.369	1.558	2.395	2.172	1.954	1.844	3.516	7.171	15.48	28.71	50.37	55.00	58.94	25.02	9.556	1.319	0.822	0.606	0.675	0.574	0.537	0.630	0.514	0.616
275.0	222.6	166.0	111.9	78.04	68.38	135.3	391.2	578.9	636.5	 1698	 4497	9999.9	9999.9	256.5	22.84	15.31	10.78	9.829	7.746	5.840	5.994	4.259	3.821	3.850	4.134	3.064	3.005	3.024	2.915	2.605	2.289	2.550	1.886	1.579	1.704	1.563	2.126	1.499	1.861	1.899	1.621	1.584	1.908	1.869	1.787	1.635	1.505	1.466	1.387	1.155	1.061	1.023	1.107	1.022	1.168	1.539	2.536	3.341	2.796	2.268	3.005	5.069	7.738	12.75	18.59	44.52	92.02	102.0	37.15	9.291	0.998	0.704	0.730	0.697	0.809	0.674	0.480
280.0	313.0	274.1	196.1	139.4	102.1	106.9	240.4	712.8	670.4	725.9	 1418	 5529	9999.9	9999.9	162.5	21.14	14.50	10.43	8.271	7.309	6.400	5.266	4.539	4.323	4.082	3.345	3.197	3.435	2.636	2.618	2.571	2.581	2.066	1.731	1.967	2.160	2.092	1.935	1.872	2.095	1.880	2.064	2.141	2.418	2.322	2.258	1.795	1.764	1.793	1.343	1.129	1.076	1.155	0.976	1.038	1.144	1.806	2.756	3.491	3.847	2.646	2.886	3.476	4.517	6.045	12.74	33.89	79.61	120.7	54.83	26.33	2.858	0.801	0.824	0.901	0.683	0.907
285.0	422.9	374.5	330.7	250.0	144.2	125.1	208.9	515.7	 1015	683.9	842.5	 1778	 7930	9999.9	 2093	94.60	18.71	11.74	9.940	8.034	5.824	6.051	5.107	4.381	4.142	3.640	3.442	3.265	3.283	3.160	2.700	2.346	2.220	1.845	1.842	2.162	2.405	2.437	2.288	2.395	2.128	2.420	2.545	2.788	2.377	2.693	2.278	2.597	2.318	1.810	1.500	1.285	1.224	1.115	1.239	1.325	1.435	2.134	2.612	4.418	4.679	4.194	3.167	3.474	3.629	5.230	9.860	22.43	54.75	104.3	131.5	46.07	13.03	1.314	0.898	0.687	0.727
290.0	510.0	574.7	555.7	412.5	252.1	207.8	254.8	419.4	849.9	 1299	 1169	 1181	 2511	 7231	9999.9	 7902	124.9	20.94	14.09	9.761	7.725	7.043	5.629	5.183	4.491	3.803	3.414	3.717	3.293	2.887	2.437	2.639	2.307	1.948	1.945	2.215	2.456	2.945	2.870	3.055	2.588	3.029	3.164	3.219	3.204	3.237	2.995	2.828	2.780	2.187	1.997	1.781	1.654	1.619	1.302	1.466	1.808	1.867	2.364	3.023	3.940	5.339	5.791	5.719	4.714	4.417	5.326	8.535	15.27	29.41	57.71	85.50	106.3	91.05	28.53	11.38	1.185
295.0	534.4	698.7	754.7	579.0	390.0	287.3	320.3	474.0	769.8	 1224	 1949	 1531	 1503	 2221	 3704	9999.9	9999.9	158.1	21.41	14.22	10.33	7.736	6.890	5.714	4.603	4.428	4.243	4.060	3.303	3.189	3.353	3.084	2.414	1.951	2.183	2.426	2.891	3.038	3.258	3.121	2.993	3.023	3.194	3.606	3.609	3.616	3.579	3.747	3.293	2.824	2.649	2.353	2.326	1.786	1.546	1.776	2.005	1.847	2.607	2.985	3.611	4.576	5.023	7.638	8.468	6.653	5.542	6.493	7.444	10.13	15.27	21.57	30.55	65.61	131.9	152.5	42.93
300.0	614.0	759.9	829.7	676.3	464.0	393.0	392.2	552.2	820.2	 1191	 1953	 2198	 1562	 1305	 1288	 4762	9999.9	 8682	112.8	19.21	11.68	9.910	8.194	6.529	5.683	4.718	4.579	4.512	3.391	3.736	2.782	3.037	2.652	2.056	2.165	2.533	3.063	3.138	3.028	3.206	3.230	3.187	3.365	3.813	3.531	4.260	3.901	3.928	3.580	3.097	2.799	2.587	2.399	2.136	1.879	2.292	2.251	2.435	2.919	3.533	3.660	4.547	4.954	6.999	8.376	10.21	9.059	7.172	6.690	6.979	6.924	7.612	9.169	17.64	45.19	113.1	168.1
305.0	615.3	808.0	865.6	743.7	505.1	416.1	468.0	638.1	894.9	 1260	 1779	 2501	 2083	 1299	878.3	 1415	 7045	9999.9	 1294	75.24	16.18	12.17	8.678	7.599	6.381	5.276	4.187	4.424	4.040	4.504	3.035	2.985	2.367	2.400	2.096	2.733	3.020	3.230	3.052	3.331	2.915	2.953	3.295	3.582	4.154	4.099	4.103	4.222	3.623	3.401	2.703	2.943	2.751	2.225	2.400	2.043	2.539	2.611	2.980	3.562	3.960	4.699	5.714	6.391	7.281	9.273	10.93	10.50	7.990	7.005	5.906	5.481	4.832	6.041	12.34	30.19	72.26
310.0	567.6	827.4	904.2	750.8	552.9	473.5	539.7	710.3	974.4	 1300	 1743	 2202	 2489	 1823	999.6	761.0	 1906	 6627	9999.9	9999.9	87.58	19.67	12.42	9.154	7.834	6.450	5.104	4.784	4.412	3.903	3.655	3.082	2.630	2.578	2.132	2.625	3.039	3.343	3.306	3.344	3.016	3.215	3.055	3.609	3.914	3.796	4.365	4.434	4.244	3.489	2.792	3.154	2.739	2.360	2.414	2.459	2.671	3.090	3.373	3.716	4.273	4.978	6.064	6.852	6.901	8.541	9.368	10.73	11.04	10.18	7.772	6.235	4.921	4.263	5.121	8.893	18.34
315.0	576.1	831.8	983.8	822.3	592.9	536.0	585.5	772.7	 1037	 1364	 1746	 2091	 2238	 2282	 1472	777.2	794.1	 1719	 3407	9999.9	 8233	116.8	20.25	13.16	9.068	7.517	6.445	5.197	4.662	4.463	4.021	3.075	2.737	2.756	2.351	2.629	2.791	3.013	3.231	3.217	3.025	3.308	2.992	3.497	3.655	3.942	4.123	4.200	4.116	3.845	2.888	3.175	2.904	2.699	2.852	2.790	3.228	3.194	3.502	4.174	4.657	5.184	5.747	6.555	7.282	8.034	8.820	9.092	10.13	9.823	10.60	8.910	6.193	4.893	4.424	4.904	6.234
320.0	625.0	954.3	 1087	902.3	655.5	572.8	617.3	814.2	 1076	 1416	 1817	 2135	 2209	 2196	 1989	 1038	644.3	704.8	968.6	 4700	9999.9	 6871	85.55	16.38	11.35	8.601	6.901	5.868	5.038	4.783	4.054	3.279	2.687	2.948	2.507	2.849	2.827	3.014	3.179	2.860	3.003	2.924	3.421	3.428	3.974	4.587	4.615	4.873	4.482	4.571	3.037	3.208	2.812	2.754	2.603	2.367	3.346	3.294	3.481	4.118	5.179	5.640	6.038	7.297	7.796	8.291	9.200	9.069	9.663	9.861	9.902	10.57	9.783	7.314	4.666	3.882	4.366
325.0	656.0	 1071	 1287	 1081	734.0	622.9	672.2	866.4	 1123	 1443	 1868	 2182	 2299	 2143	 2058	 1489	755.2	554.9	475.4	 1264	 7387	9999.9	 4897	56.59	15.83	11.80	8.289	6.908	5.532	4.981	4.618	3.754	3.422	2.587	2.363	2.692	2.841	3.077	3.155	3.110	2.866	2.930	3.193	3.895	4.342	4.771	5.184	5.903	5.626	5.505	3.848	3.507	3.048	3.198	3.130	2.718	3.497	3.230	3.897	4.441	4.937	5.652	6.019	7.629	7.589	8.123	8.877	9.845	10.09	9.359	9.828	9.437	9.976	9.160	6.693	4.878	4.459
330.0	679.5	 1096	 1483	 1342	918.4	718.7	726.9	912.0	 1153	 1473	 1900	 2203	 2345	 2183	 1923	 1644	 1188	682.9	477.4	544.0	 1911	 6769	9999.9	 9043	343.0	16.94	10.94	8.544	7.117	5.946	5.106	4.362	3.384	2.923	2.687	2.712	2.617	3.353	2.810	3.147	3.289	3.187	3.642	3.480	4.415	4.990	5.390	6.184	5.647	6.295	4.362	4.498	3.861	3.567	3.321	3.163	4.073	3.600	4.200	4.503	5.184	5.617	6.254	7.794	8.165	8.313	9.572	9.665	9.882	9.490	9.445	8.962	8.918	8.851	8.278	8.122	6.676
335.0	703.1	 1191	 1612	 1482	 1107	851.8	843.5	984.1	 1211	 1527	 1907	 2248	 2378	 2260	 1973	 1564	 1385	 1069	613.7	478.7	700.6	 1715	 3652	9999.9	 6589	92.44	17.16	12.36	8.862	7.143	5.588	5.094	3.261	3.678	3.034	3.148	2.687	3.091	2.918	3.370	2.942	3.138	3.863	3.862	4.354	4.847	5.592	6.994	6.438	6.267	4.956	5.186	4.381	3.860	3.622	4.165	3.874	3.844	4.568	4.752	5.383	5.408	6.328	7.586	7.816	8.231	9.362	9.412	10.52	10.28	10.47	9.340	8.663	8.174	7.846	7.836	8.291
340.0	713.8	 1248	 1688	 1646	 1291	 1002	953.7	 1060	 1299	 1592	 1947	 2244	 2388	 2324	 2054	 1600	 1323	 1306	856.7	559.0	510.8	656.9	 1025	 5296	9999.9	 5473	71.45	16.44	10.05	8.445	6.737	4.953	4.354	3.836	2.891	2.931	2.741	3.461	2.800	2.845	3.044	3.052	3.816	3.805	4.522	4.970	6.018	6.726	7.035	6.228	5.629	5.384	5.354	4.803	4.162	4.611	4.219	4.496	4.691	5.159	5.812	5.872	6.731	7.355	8.004	8.420	8.762	9.786	9.489	10.53	10.11	9.887	9.171	8.438	8.031	7.687	7.448
345.0	680.9	 1203	 1670	 1719	 1409	 1161	 1115	 1167	 1384	 1650	 1964	 2213	 2404	 2344	 2112	 1663	 1322	 1245	 1150	711.3	554.8	495.4	499.3	 1432	 8236	9999.9	 4122	50.68	14.80	9.939	7.717	5.576	4.339	4.440	2.994	3.194	2.996	3.038	3.051	3.128	3.181	3.381	3.674	3.927	4.060	5.224	5.800	6.362	6.859	5.975	5.334	5.750	5.598	5.094	4.622	4.970	4.431	4.867	5.036	5.772	5.748	6.325	7.140	7.636	8.191	8.637	9.070	9.926	9.997	9.760	10.49	10.40	10.24	9.185	8.193	8.031	7.713
350.0	652.8	 1109	 1579	 1688	 1568	 1359	 1312	 1332	 1515	 1746	 2000	 2234	 2400	 2353	 2150	 1764	 1402	 1217	 1203	 1069	751.1	582.9	496.0	613.5	 2149	 7270	9999.9	 7978	61.10	15.01	10.20	7.078	5.578	4.825	3.694	3.354	3.263	3.133	3.113	3.157	3.460	3.130	3.496	3.893	4.179	4.856	5.589	6.331	6.294	5.830	5.796	6.319	5.835	5.476	5.453	5.707	5.482	5.580	6.112	6.434	6.628	6.521	7.403	7.938	7.941	9.147	9.225	9.577	10.58	10.47	10.22	10.43	10.16	9.190	8.880	8.492	8.339
355.0	607.8	 1072	 1494	 1702	 1690	 1598	 1541	 1554	 1723	 1922	 2126	 2282	 2402	 2379	 2216	 1858	 1545	 1319	 1204	 1210	 1115	774.1	619.6	543.4	767.4	 1823	 4063	9999.9	 5668	79.99	16.02	10.28	6.756	5.908	4.009	3.320	3.549	3.354	3.481	3.384	3.813	3.026	3.410	3.509	4.496	5.203	5.378	5.747	5.929	5.745	5.610	6.156	6.317	6.939	5.946	6.391	6.451	5.953	6.783	6.797	7.098	7.675	8.290	8.279	8.135	9.187	9.328	9.369	11.16	9.878	9.930	10.30	10.80	9.560	9.792	8.501	8.183
360.0	607.3	990.5	 1445	 1697	 1764	 1723	 1651	 1730	 1850	 2029	 2183	 2296	 2407	 2383	 2231	 1923	 1603	 1413	 1265	 1206	 1277	 1011	739.5	592.2	537.9	656.8	 1098	 5985	9999.9	 4756	60.44	13.66	8.540	7.531	4.499	4.458	3.985	3.980	3.514	3.858	3.515	3.631	3.057	3.503	4.086	4.814	4.895	5.844	5.483	5.661	5.650	6.762	6.807	6.877	6.261	6.589	6.689	6.884	7.023	7.278	7.596	8.502	9.050	8.910	9.321	9.155	9.564	9.325	10.99	10.11	10.44	10.40	10.56	9.906	9.775	9.200	8.972
365.0	629.5	938.9	 1358	 1668	 1748	 1798	 1762	 1816	 1937	 2122	 2247	 2333	 2400	 2389	 2244	 1951	 1683	 1508	 1337	 1246	 1247	 1243	902.4	683.0	554.5	459.1	461.3	 1567	 8973	9999.9	702.2	39.37	11.12	8.909	6.093	4.690	4.058	4.074	3.733	3.718	3.279	3.527	3.512	3.811	3.778	4.805	4.944	5.295	5.417	5.440	5.832	6.778	6.707	6.994	6.559	7.185	7.467	7.266	7.499	7.746	8.227	8.961	8.552	8.858	9.430	9.246	9.580	9.981	10.18	10.42	10.78	10.05	10.31	10.04	10.10	8.500	8.859
370.0	610.7	891.6	 1302	 1639	 1783	 1865	 1860	 1927	 2029	 2206	 2277	 2373	 2391	 2367	 2215	 1979	 1741	 1587	 1447	 1349	 1286	 1283	 1176	890.3	673.0	519.5	404.9	555.8	 2302	 7838	9999.9	 6861	49.82	12.75	7.838	5.891	4.700	4.365	4.109	3.591	3.854	3.260	3.708	3.583	3.845	4.658	4.730	5.241	5.676	5.503	5.675	6.335	6.870	7.266	6.698	7.225	7.699	7.511	7.658	7.810	7.944	8.795	8.956	9.265	8.949	8.978	9.644	10.13	9.475	10.75	10.67	10.11	10.50	10.12	9.674	9.910	9.577
375.0	565.8	870.7	 1242	 1576	 1803	 1893	 1961	 1986	 2085	 2222	 2297	 2390	 2380	 2302	 2170	 1981	 1779	 1661	 1562	 1455	 1392	 1303	 1263	 1183	868.1	666.7	509.9	420.2	713.2	 1887	 4558	9999.9	 4729	61.84	12.75	8.089	5.734	4.954	4.568	4.058	3.701	3.527	3.693	4.202	3.851	4.483	4.553	5.581	5.245	5.007	5.196	6.634	6.781	7.048	7.182	7.199	7.967	8.243	7.849	8.146	9.050	8.734	8.714	9.772	9.330	9.443	10.30	10.09	9.372	10.32	10.60	9.763	10.43	10.34	10.07	10.03	9.905
380.0	539.2	826.0	 1245	 1528	 1807	 1944	 1945	 2001	 2083	 2197	 2305	 2363	 2360	 2252	 2151	 1970	 1795	 1697	 1607	 1527	 1458	 1364	 1274	 1293	 1085	791.0	611.0	460.1	417.2	595.2	 1175	 6579	9999.9	 3738	44.12	10.71	7.826	6.147	5.063	4.382	3.849	4.190	3.807	3.883	4.184	4.261	4.275	5.243	5.214	5.103	5.256	6.643	6.667	7.509	7.624	7.602	7.800	7.926	7.698	8.021	8.791	8.666	8.674	9.496	9.051	9.082	9.530	10.36	9.269	10.31	10.33	9.977	10.43	11.02	10.14	10.07	9.906
385.0	516.6	824.3	 1149	 1486	 1744	 1946	 1933	 1952	 2062	 2182	 2279	 2332	 2317	 2208	 2101	 1951	 1790	 1698	 1645	 1563	 1503	 1416	 1304	 1266	 1226	930.0	695.8	527.9	406.2	356.4	414.2	 1715	 9182	9999.9	555.1	27.63	10.78	6.770	5.624	4.664	4.176	3.973	3.889	3.862	3.891	3.927	4.116	4.863	4.997	4.837	4.885	6.971	7.546	7.608	7.922	7.637	7.057	8.578	7.385	8.181	8.009	8.012	9.042	8.700	9.142	9.137	9.367	9.875	10.42	9.954	10.44	9.919	10.35	9.908	10.07	10.32	10.41
390.0	488.5	762.4	 1116	 1434	 1661	 1888	 1925	 1950	 2016	 2148	 2209	 2247	 2204	 2152	 2036	 1888	 1782	 1708	 1654	 1589	 1529	 1448	 1355	 1260	 1210	 1108	845.3	622.3	479.1	371.6	297.8	526.6	 2368	 7709	9999.9	 5046	39.05	10.73	7.227	5.757	4.887	4.122	3.858	4.262	4.063	4.021	4.270	4.743	4.783	4.927	4.998	6.568	6.793	6.840	7.538	7.574	7.261	7.896	7.572	7.684	8.221	7.973	8.372	8.540	9.068	8.839	8.818	9.674	9.739	9.530	9.724	8.982	10.28	9.296	10.11	10.02	10.31
395.0	465.0	687.6	 1011	 1393	 1618	 1798	 1869	 1948	 1962	 2055	 2134	 2146	 2144	 2053	 1970	 1831	 1744	 1677	 1645	 1591	 1552	 1484	 1398	 1290	 1211	 1130	 1028	761.4	565.3	443.0	337.5	312.1	660.9	 1818	 4459	9999.9	 3742	49.74	10.41	7.213	5.481	4.893	4.313	4.137	4.032	4.261	3.906	4.769	4.795	4.554	4.782	6.142	6.231	6.815	6.873	7.078	7.020	7.361	7.385	7.771	7.911	7.863	8.334	8.514	8.050	9.010	9.325	8.646	9.479	8.951	8.951	8.979	9.618	9.547	9.681	9.377	9.854
400.0	473.0	665.0	991.9	 1324	 1564	 1712	 1819	 1899	 1922	 1983	 2066	 2088	 2061	 1994	 1909	 1785	 1706	 1659	 1620	 1584	 1544	 1468	 1404	 1317	 1207	 1112	 1071	909.1	646.6	504.7	388.7	299.6	308.2	519.3	 1119	 6149	9999.9	 2934	34.76	9.794	6.616	5.639	4.826	4.109	4.198	4.145	4.171	4.629	4.438	4.585	4.956	6.166	5.825	6.834	6.317	7.033	6.496	7.469	7.663	7.529	7.886	7.592	7.934	8.593	8.230	8.558	9.065	8.256	9.525	9.665	9.065	9.013	9.131	9.728	9.248	9.709	9.531
405.0	486.5	653.3	956.2	 1252	 1474	 1710	 1767	 1842	 1864	 1961	 1989	 1990	 1984	 1920	 1849	 1733	 1656	 1611	 1585	 1558	 1519	 1469	 1387	 1316	 1215	 1109	 1041	984.5	753.0	570.9	442.0	333.2	260.7	256.6	347.0	 1598	 8238	9999.9	468.4	20.48	7.835	6.870	4.923	4.576	4.064	4.725	4.301	4.648	4.880	4.841	4.926	5.799	6.231	6.880	6.720	6.738	6.605	7.397	7.391	7.546	8.162	7.500	7.728	7.655	8.203	8.831	8.201	8.735	9.677	8.823	8.945	9.135	8.803	8.666	9.166	9.250	8.871
410.0	420.5	643.2	916.1	 1209	 1414	 1602	 1708	 1761	 1834	 1883	 1923	 1892	 1880	 1812	 1735	 1643	 1584	 1549	 1533	 1520	 1473	 1426	 1358	 1296	 1223	 1128	 1025	953.5	884.8	681.9	511.2	393.2	300.7	235.8	204.9	447.3	 2116	 6665	 9974	 2035	32.70	8.714	6.029	5.315	4.589	4.550	4.403	4.463	4.312	4.474	4.237	5.292	5.963	6.366	6.326	6.489	7.134	7.155	6.829	7.665	7.281	7.287	7.538	7.604	7.647	8.215	7.576	7.809	8.315	7.888	8.642	8.186	8.447	8.354	8.749	9.193	8.539
