Sample:	'1
File name:	G2025062417新立河入潮河.FD3
Run date:	'09:58:22, 06/27/2025
Operator:	Administrator
Comment:	'

Instrument
Model:	F-2700 FL Spectrophotometer
Serial number:	23B8-004
ROM Version:	4J14000 07

Instrument parameters
Measurement type:	3-D scan
Data mode:	Fluorescence
EX  Start WL:	220.0 nm
EX  End WL:	600.0 nm
EX Sampling interval:	5.0 nm
EM  Start WL:	230.0 nm
EM  End WL:	650.0 nm
EM Sampling interval:	5.0 nm
Scan speed:	12000 nm/min
EX Slit:	5.0 nm
EM Slit:	5.0 nm
PMT Voltage:	700 V
Response:	Auto 
Corrected spectra:	Off
Contour interval:	50.000

Peak integration
Integration method:	Rectangular
Sensitivity:	1
Threshold:	1.000

Peaks
No.	ApexEX/EM(nm)	Height(Data)
1	225.0/340.0	1124
2	225.0/405.0	802.9
3	225.0/595.0	55.57
4	225.0/615.0	49.46
5	230.0/410.0	779.8
6	230.0/500.0	376.3
7	235.0/510.0	295.3
8	240.0/265.0	417.7
9	240.0/525.0	250.0
10	245.0/270.0	440.5
11	245.0/540.0	210.1
12	250.0/275.0	560.1
13	250.0/550.0	174.1
14	255.0/280.0	587.8
15	255.0/560.0	143.1
16	260.0/290.0	528.4
17	260.0/575.0	114.4
18	265.0/295.0	673.0
19	265.0/585.0	96.27
20	270.0/300.0	922.9
21	270.0/600.0	93.44
22	275.0/305.0	951.6
23	275.0/335.0	687.4
24	275.0/375.0	610.1
25	275.0/610.0	75.38
26	280.0/315.0	870.6
27	280.0/625.0	66.09
28	285.0/320.0	898.7
29	285.0/640.0	48.48
30	290.0/325.0	763.5
31	305.0/345.0	441.6
32	310.0/350.0	365.8
33	315.0/355.0	363.6
34	320.0/365.0	356.8
35	325.0/370.0	333.1
36	330.0/375.0	330.7
37	335.0/380.0	322.9
38	340.0/390.0	299.2
39	345.0/395.0	286.5
40	350.0/400.0	284.6
41	355.0/410.0	263.2
42	360.0/415.0	248.4
43	365.0/420.0	238.3
44	455.0/540.0	12.60
45	460.0/335.0	3.194
46	495.0/270.0	2.280
47	505.0/275.0	3.261
48	510.0/280.0	3.543
49	515.0/285.0	3.578
50	530.0/290.0	3.339
51	540.0/295.0	4.420
52	545.0/300.0	5.396
53	550.0/305.0	5.368
54	560.0/310.0	4.970
55	570.0/315.0	5.180
56	580.0/320.0	4.926
57	585.0/325.0	4.606

Data points
	220.0	225.0	230.0	235.0	240.0	245.0	250.0	255.0	260.0	265.0	270.0	275.0	280.0	285.0	290.0	295.0	300.0	305.0	310.0	315.0	320.0	325.0	330.0	335.0	340.0	345.0	350.0	355.0	360.0	365.0	370.0	375.0	380.0	385.0	390.0	395.0	400.0	405.0	410.0	415.0	420.0	425.0	430.0	435.0	440.0	445.0	450.0	455.0	460.0	465.0	470.0	475.0	480.0	485.0	490.0	495.0	500.0	505.0	510.0	515.0	520.0	525.0	530.0	535.0	540.0	545.0	550.0	555.0	560.0	565.0	570.0	575.0	580.0	585.0	590.0	595.0	600.0
230.0	74.94	1287	3424	1155	45.55	6.260	4.343	4.079	3.180	3.308	2.985	2.673	2.335	2.030	1.733	1.397	1.267	1.126	1.039	0.934	0.851	0.812	0.771	0.668	0.653	0.586	0.454	0.558	0.473	0.524	0.504	0.438	0.394	0.406	0.380	0.317	0.346	0.316	0.338	0.299	0.430	0.675	0.699	0.477	0.346	0.300	1.316	6.746	11.78	8.604	3.428	0.698	0.244	0.224	0.193	0.209	0.201	0.195	0.217	0.202	0.190	0.219	0.196	0.203	0.190	0.201	0.222	0.178	0.189	0.199	0.172	0.183	0.175	0.201	0.203	0.183	0.205
235.0	196.7	360.6	1888	3220	609.7	63.55	6.919	6.027	4.200	3.728	3.187	2.898	2.839	2.109	1.577	1.470	1.370	1.300	1.103	0.942	0.828	0.743	0.760	0.618	0.594	0.574	0.554	0.455	0.460	0.465	0.421	0.416	0.359	0.458	0.343	0.354	0.310	0.373	0.400	0.256	0.290	0.447	0.442	0.842	0.685	0.435	0.603	1.823	4.269	7.408	10.49	11.59	5.186	1.320	0.320	0.248	0.201	0.243	0.211	0.184	0.187	0.200	0.184	0.182	0.215	0.209	0.231	0.186	0.193	0.183	0.206	0.196	0.203	0.211	0.171	0.182	0.199
240.0	247.7	212.1	549.5	2494	3371	473.0	30.52	6.584	5.262	4.554	3.609	2.700	2.809	2.035	1.749	1.470	1.434	1.357	1.210	1.042	0.935	0.820	0.800	0.702	0.645	0.557	0.566	0.618	0.456	0.505	0.468	0.436	0.427	0.449	0.373	0.314	0.336	0.357	0.358	0.353	0.257	0.292	0.354	0.504	0.852	0.824	0.649	0.650	1.229	2.139	5.170	13.39	16.19	12.44	4.314	0.774	0.243	0.221	0.192	0.225	0.207	0.213	0.175	0.185	0.210	0.195	0.256	0.194	0.191	0.175	0.211	0.213	0.204	0.249	0.170	0.170	0.225
245.0	181.7	297.3	198.9	820.7	3414	3315	341.8	14.26	6.700	5.186	3.358	3.657	3.324	2.320	1.987	1.723	1.499	1.107	1.228	0.946	0.863	0.996	0.951	0.723	0.629	0.644	0.451	0.609	0.561	0.616	0.479	0.513	0.497	0.409	0.348	0.371	0.378	0.344	0.325	0.474	0.300	0.303	0.307	0.374	0.536	0.882	0.892	0.913	0.599	0.673	1.388	4.446	10.64	19.64	18.65	10.63	2.991	0.364	0.246	0.223	0.208	0.235	0.234	0.219	0.236	0.193	0.195	0.200	0.210	0.192	0.227	0.200	0.168	0.294	0.232	0.212	0.243
250.0	65.34	195.8	295.0	291.7	1077	3195	3951	1239	72.36	6.825	4.790	4.628	3.981	2.808	2.207	1.810	1.613	1.437	1.143	1.122	0.863	1.058	0.751	0.829	0.656	0.687	0.640	0.691	0.532	0.590	0.479	0.502	0.517	0.409	0.390	0.346	0.397	0.331	0.295	0.362	0.320	0.321	0.346	0.296	0.337	0.466	0.595	0.971	1.104	0.933	0.742	1.255	2.706	5.995	11.04	17.26	22.72	19.19	11.03	3.071	0.483	0.268	0.253	0.205	0.241	0.205	0.190	0.187	0.228	0.173	0.212	0.212	0.244	0.258	0.196	0.189	0.215
255.0	42.64	65.15	199.2	362.9	341.6	819.9	3178	6328	1683	64.50	8.385	6.071	4.682	3.227	2.828	2.135	1.984	1.669	1.367	1.225	1.040	1.126	0.795	0.794	0.799	0.651	0.717	0.794	0.608	0.619	0.512	0.528	0.521	0.502	0.425	0.383	0.365	0.344	0.319	0.305	0.358	0.370	0.396	0.384	0.329	0.367	0.340	0.525	0.624	0.927	1.364	1.473	1.067	1.594	2.733	4.302	8.209	19.26	35.37	29.09	17.02	3.291	0.385	0.250	0.258	0.254	0.250	0.242	0.240	0.202	0.207	0.185	0.238	0.250	0.240	0.217	0.209
260.0	36.65	31.94	81.37	307.2	342.8	254.6	998.9	5364	6942	269.9	29.97	8.048	5.943	3.911	3.462	2.698	2.045	1.879	1.601	1.271	1.108	1.113	0.952	0.867	0.935	0.667	0.686	0.640	0.614	0.588	0.469	0.518	0.480	0.453	0.378	0.373	0.409	0.402	0.343	0.391	0.372	0.360	0.350	0.364	0.298	0.299	0.358	0.320	0.379	0.478	0.916	1.726	1.758	1.182	0.987	1.322	2.243	5.317	15.71	31.77	45.97	27.55	12.32	1.693	0.295	0.255	0.253	0.239	0.262	0.241	0.244	0.228	0.245	0.217	0.206	0.225	0.239
265.0	34.58	28.28	37.56	146.3	417.7	273.9	284.7	1870	7664	6633	216.2	15.90	7.853	5.154	3.984	2.903	2.322	2.265	1.730	1.493	1.157	1.154	1.023	1.067	0.895	0.770	0.644	0.749	0.668	0.606	0.478	0.553	0.488	0.493	0.478	0.478	0.461	0.360	0.408	0.519	0.413	0.333	0.374	0.373	0.311	0.334	0.307	0.298	0.316	0.299	0.429	0.976	1.881	2.045	1.510	0.869	0.955	1.592	3.977	9.460	24.54	47.21	54.49	24.45	7.519	0.610	0.285	0.268	0.231	0.263	0.239	0.250	0.250	0.228	0.264	0.237	0.226
270.0	43.62	37.43	32.40	61.90	226.6	440.5	322.6	495.9	2541	7230	8282	822.3	47.23	8.404	5.133	3.726	2.874	2.341	1.940	1.667	1.468	1.376	1.036	1.186	1.006	0.916	0.843	0.753	0.738	0.730	0.656	0.578	0.543	0.560	0.495	0.566	0.436	0.439	0.489	0.447	0.467	0.372	0.428	0.368	0.413	0.367	0.308	0.311	0.295	0.277	0.338	0.525	0.772	1.324	1.954	2.280	2.004	1.223	1.461	2.530	6.013	13.67	27.10	40.36	39.87	44.11	16.14	6.471	0.806	0.329	0.305	0.264	0.313	0.282	0.270	0.245	0.285
275.0	80.37	66.47	48.39	51.84	104.8	256.5	560.1	360.2	618.6	1842	6880	9999.9	1110	37.31	8.322	5.254	4.233	3.250	2.361	1.877	1.528	1.698	1.466	1.290	1.179	1.044	0.937	0.875	0.984	0.726	0.691	0.717	0.556	0.637	0.545	0.680	0.585	0.531	0.511	0.578	0.461	0.407	0.522	0.442	0.422	0.424	0.399	0.466	0.422	0.329	0.352	0.414	0.487	0.671	0.951	1.511	2.536	3.261	2.297	1.280	1.729	3.415	6.466	9.646	12.98	34.15	65.14	72.09	25.32	6.542	0.492	0.309	0.365	0.369	0.277	0.305	0.302
280.0	134.6	109.8	73.03	58.63	80.92	145.6	400.7	587.8	275.7	468.2	2086	9999.9	9510	149.7	18.10	7.451	5.678	3.540	2.445	2.258	1.725	1.939	1.516	1.439	1.373	0.968	1.160	0.919	0.999	0.900	0.772	0.655	0.679	0.664	0.640	0.669	0.806	0.716	0.676	0.602	0.556	0.532	0.481	0.492	0.530	0.642	0.415	0.529	0.467	0.366	0.387	0.471	0.490	0.531	0.672	0.834	1.331	2.426	3.543	2.739	1.369	1.374	1.867	2.624	3.440	8.935	24.01	54.42	78.92	34.04	19.53	3.117	0.466	0.364	0.306	0.278	0.278
285.0	183.6	161.7	118.1	77.34	80.89	106.1	202.2	553.9	353.9	198.8	548.6	3334	9999.9	7264	112.3	11.79	6.924	5.289	3.567	3.007	2.139	2.054	1.811	1.593	1.326	1.275	1.040	1.016	0.968	0.829	0.657	0.715	0.710	0.684	0.812	0.783	0.839	0.751	0.676	0.700	0.606	0.679	0.589	0.541	0.636	0.731	0.559	0.638	0.596	0.476	0.358	0.554	0.471	0.561	0.578	0.599	0.815	1.133	2.018	3.578	3.345	1.908	1.179	1.192	1.278	2.615	5.934	14.39	33.87	61.36	84.78	31.12	12.99	1.142	0.363	0.387	0.319
290.0	292.7	270.8	199.4	114.7	92.70	101.0	127.4	256.7	528.4	461.7	277.3	883.3	3366	9199	8412	441.5	25.60	6.853	4.912	3.765	2.802	2.245	1.937	1.615	1.450	1.277	1.165	1.073	1.037	0.864	0.841	0.776	0.743	0.863	0.857	1.064	1.068	1.014	0.850	0.787	0.750	0.855	0.755	0.774	0.827	0.937	0.804	0.886	0.783	0.609	0.515	0.596	0.523	0.587	0.566	0.615	0.658	0.722	0.978	1.625	2.447	3.159	3.339	2.378	1.433	1.378	2.002	3.994	8.356	16.48	33.69	46.64	61.37	52.75	20.17	9.862	1.412
295.0	392.6	364.2	281.1	159.8	107.0	109.5	118.2	153.7	277.2	673.0	626.3	386.5	909.5	2327	6957	9999.9	624.2	20.42	7.523	4.867	3.573	2.967	2.456	1.793	1.699	1.523	1.223	1.140	1.177	0.897	0.976	0.831	0.999	1.001	0.919	1.178	1.235	1.177	1.075	0.990	1.071	0.903	1.026	0.893	1.025	1.189	1.087	1.101	1.022	0.774	0.680	0.694	0.600	0.635	0.569	0.694	0.668	0.816	0.841	1.061	1.259	1.508	2.307	4.092	4.420	2.968	1.627	1.964	2.975	4.696	8.493	11.31	16.22	28.78	58.98	81.58	32.11
300.0	458.9	449.6	343.9	199.2	135.1	122.1	131.3	162.9	226.2	465.1	922.9	540.8	434.3	675.1	2016	9242	5845	86.94	12.45	6.231	4.285	3.264	3.076	2.114	1.966	1.655	1.416	1.202	1.337	1.002	1.061	1.004	0.967	0.993	1.038	1.362	1.441	1.362	1.178	1.135	1.198	1.044	0.964	0.982	1.165	1.317	1.174	1.257	1.163	0.786	0.779	0.879	0.674	0.699	0.806	0.803	0.853	0.857	0.940	0.972	1.018	1.261	1.546	2.412	3.872	5.396	3.824	2.131	2.161	2.272	3.133	3.517	4.511	7.401	18.03	46.36	74.29
305.0	519.6	532.4	412.4	239.7	161.6	156.0	166.6	205.0	258.0	386.4	789.6	951.6	470.1	374.7	594.2	2985	9999.9	4662	67.76	8.661	5.354	4.080	3.379	2.353	2.271	1.895	1.489	1.283	1.274	1.175	0.998	0.955	0.963	1.018	1.030	1.342	1.402	1.451	1.176	1.195	1.163	1.092	1.058	1.104	1.256	1.374	1.311	1.415	1.208	0.952	0.991	0.970	0.820	0.807	0.854	0.900	0.881	1.049	1.168	1.202	1.347	1.342	1.468	1.842	2.461	4.129	5.368	4.883	3.035	2.123	2.198	2.040	2.221	2.505	4.893	11.97	26.75
310.0	585.6	579.8	475.8	297.6	190.3	184.5	204.3	249.5	308.3	403.5	586.7	912.4	866.6	446.4	328.0	787.2	3175	7268	6438	301.6	17.88	5.525	4.283	3.092	2.720	2.082	1.682	1.491	1.336	1.153	1.050	1.092	1.033	1.176	1.069	1.433	1.404	1.470	1.313	1.334	1.347	1.260	1.248	1.310	1.419	1.440	1.584	1.659	1.460	1.250	1.079	1.139	0.856	0.942	0.871	0.960	1.083	1.131	1.295	1.324	1.527	1.561	1.817	2.054	2.269	2.930	3.463	4.216	4.970	4.412	3.484	2.383	1.939	1.758	2.097	3.525	6.879
315.0	640.7	685.0	539.1	341.9	229.0	208.4	232.1	281.0	351.7	447.9	553.2	681.4	870.6	808.3	350.6	316.5	804.2	1804	5766	8362	451.6	14.51	5.779	4.341	3.399	2.478	2.085	1.650	1.623	1.414	1.209	1.092	1.103	1.181	1.276	1.504	1.570	1.529	1.278	1.423	1.388	1.379	1.443	1.430	1.606	1.638	1.768	2.042	1.578	1.394	1.154	1.220	1.031	1.040	1.014	1.152	1.163	1.352	1.450	1.555	1.583	1.694	1.890	2.288	2.428	2.666	2.827	3.072	3.630	4.367	5.180	4.808	3.061	1.997	1.666	1.840	2.437
320.0	746.2	781.9	627.3	383.6	251.2	230.6	255.3	310.1	382.6	473.0	568.9	651.0	718.4	898.7	562.8	247.6	290.1	470.3	1645	7636	4229	64.75	9.369	5.303	4.081	2.774	2.181	1.888	1.631	1.463	1.282	1.095	1.102	1.192	1.259	1.410	1.541	1.600	1.459	1.643	1.396	1.419	1.441	1.546	1.762	1.756	2.073	2.002	1.867	1.429	1.281	1.333	1.158	1.137	1.032	1.285	1.210	1.333	1.323	1.718	1.619	1.841	1.970	2.316	2.612	2.513	2.701	2.905	3.204	3.367	3.792	4.579	4.926	3.542	2.076	1.580	1.533
325.0	852.2	910.8	774.9	441.3	289.7	242.6	278.5	330.2	394.7	493.2	593.1	655.4	654.1	714.3	763.5	334.0	193.5	182.6	415.7	2482	7789	3544	52.69	7.310	4.732	3.496	2.471	2.389	1.739	1.761	1.610	1.166	1.189	1.078	1.319	1.385	1.491	1.595	1.425	1.418	1.432	1.482	1.630	1.705	1.893	2.095	2.215	2.410	2.306	1.807	1.420	1.474	1.247	1.178	1.132	1.367	1.403	1.448	1.512	1.616	1.754	1.963	2.017	2.203	2.815	2.650	2.844	2.906	3.247	3.078	3.420	3.258	4.268	4.606	3.792	2.041	1.610
330.0	915.6	996.0	890.9	563.6	353.8	276.0	297.8	347.2	414.5	512.4	609.8	675.0	661.1	609.2	622.0	544.9	282.1	140.8	155.3	603.0	2508	5720	5112	242.9	15.19	4.597	3.482	2.734	2.091	1.918	1.640	1.294	1.249	1.176	1.258	1.450	1.498	1.483	1.543	1.480	1.526	1.608	1.650	1.833	1.959	2.402	2.286	2.756	2.636	2.089	1.760	1.746	1.495	1.374	1.295	1.345	1.389	1.555	1.563	1.706	1.822	1.962	2.227	2.349	2.741	2.704	2.955	3.036	3.037	3.102	3.122	2.901	3.046	3.361	3.874	3.391	3.003
335.0	933.9	1095	1004	661.1	430.4	329.7	328.0	364.3	439.8	527.6	621.1	687.4	674.2	598.6	507.3	468.7	492.2	218.1	121.7	194.6	602.7	1418	4739	6885	386.6	12.93	4.928	3.582	2.519	2.115	1.662	1.495	1.480	1.492	1.463	1.348	1.353	1.542	1.572	1.521	1.401	1.588	1.640	1.866	2.058	2.368	2.620	3.084	3.194	2.316	1.948	2.077	1.748	1.596	1.473	1.331	1.529	1.563	1.638	1.813	2.050	2.295	2.215	2.487	2.730	2.888	3.028	3.044	3.094	3.423	3.225	3.132	2.855	2.928	2.807	2.687	2.969
340.0	946.9	1124	1047	712.7	474.0	357.2	355.5	380.2	445.0	532.9	626.4	676.4	674.9	600.4	493.9	388.4	473.6	374.1	148.1	119.6	189.4	356.8	1368	6348	3514	56.10	8.196	4.434	3.318	2.648	2.083	1.572	1.552	1.461	1.372	1.426	1.444	1.546	1.444	1.531	1.424	1.513	1.764	1.896	2.112	2.456	2.639	3.038	3.075	2.445	2.080	2.242	1.925	1.711	1.487	1.509	1.765	1.534	1.603	1.857	2.176	2.128	2.356	2.546	2.652	2.953	2.923	3.047	3.296	3.302	3.315	2.804	2.935	2.725	2.492	2.413	2.249
345.0	932.7	1117	995.7	749.0	504.1	395.7	379.5	408.0	457.2	530.7	616.9	661.9	663.1	594.0	487.8	370.4	363.3	441.6	255.9	124.1	107.5	131.7	346.5	2062	6429	3106	47.70	6.120	3.913	3.152	2.208	1.875	1.622	1.539	1.335	1.337	1.482	1.549	1.474	1.516	1.484	1.445	1.677	1.881	2.093	2.267	2.594	3.006	3.019	2.472	2.062	2.312	2.030	1.777	1.752	1.590	1.709	1.763	1.854	1.919	1.980	2.184	2.320	2.660	2.739	2.769	2.996	3.040	2.960	3.436	3.196	2.670	2.880	2.670	2.385	2.343	2.296
350.0	901.5	1040	979.6	767.2	551.2	445.6	411.5	428.8	464.7	527.5	599.3	641.6	638.4	579.9	490.9	383.4	326.7	341.1	365.8	233.7	126.3	104.0	133.5	503.6	2060	4642	4250	905.0	15.17	4.080	2.905	2.141	1.633	1.588	1.340	1.459	1.555	1.523	1.518	1.451	1.533	1.524	1.633	1.881	2.004	2.316	2.451	2.841	2.802	2.460	2.064	2.433	2.084	1.967	1.904	1.823	1.852	1.818	1.980	1.979	1.995	2.130	2.203	2.529	2.613	2.717	2.906	2.980	2.938	3.150	3.087	2.756	2.783	2.721	2.538	2.171	2.275
355.0	896.7	995.9	939.5	758.6	604.0	499.8	464.2	466.4	493.8	541.0	587.8	622.2	620.9	568.3	496.2	398.9	340.6	301.8	308.3	363.6	223.4	129.5	111.0	168.7	500.5	1139	3626	5758	369.3	15.41	4.182	2.782	1.946	1.912	1.578	1.471	1.549	1.491	1.451	1.462	1.546	1.439	1.729	1.691	1.975	2.207	2.209	2.575	2.533	2.340	2.093	2.364	2.258	2.037	2.076	1.986	2.011	1.996	2.167	2.171	2.111	2.169	2.526	2.576	2.688	2.688	2.908	2.623	2.850	2.905	2.929	2.938	2.836	2.718	2.455	2.280	2.131
360.0	782.0	964.9	912.3	763.0	627.1	532.5	498.7	498.7	509.2	544.3	595.3	613.9	604.4	560.6	497.9	416.4	362.1	313.0	282.1	336.5	337.5	181.4	123.1	112.6	163.8	293.1	1017	4834	3277	307.8	7.897	3.569	2.606	2.073	1.726	1.573	1.510	1.489	1.537	1.522	1.289	1.504	1.522	1.600	1.944	2.080	2.046	2.494	2.495	2.156	2.206	2.426	2.314	2.228	2.294	2.033	2.217	2.043	2.023	2.173	2.142	2.286	2.490	2.531	2.630	2.613	2.753	2.730	2.671	2.908	2.754	2.945	3.035	2.803	2.677	2.286	2.382
365.0	787.7	898.5	888.2	770.6	641.7	578.6	528.5	521.9	540.8	567.9	594.7	608.7	603.4	559.2	498.9	429.8	376.2	329.1	294.1	292.2	356.8	280.5	156.2	115.9	105.2	114.9	265.0	1500	5197	3067	47.28	5.320	3.211	2.524	1.854	1.766	1.629	1.532	1.451	1.453	1.459	1.618	1.579	1.691	1.907	1.985	2.002	2.463	2.385	2.277	2.104	2.683	2.342	2.381	2.330	2.149	2.485	2.354	2.148	2.399	2.476	2.497	2.514	2.816	2.744	2.545	2.808	2.545	2.693	3.035	2.925	2.744	2.800	2.712	2.579	2.382	2.416
370.0	794.6	870.2	835.1	765.7	675.3	614.2	571.5	567.9	559.0	586.0	594.8	608.3	592.4	556.7	508.9	441.7	399.8	360.9	323.1	296.4	302.4	333.1	261.2	158.0	118.1	96.05	111.2	373.2	1589	3985	3980	961.8	15.17	3.450	2.480	2.100	1.900	1.577	1.570	1.408	1.445	1.586	1.537	1.691	1.747	1.980	1.937	2.404	2.302	2.109	2.220	2.649	2.464	2.446	2.382	2.323	2.429	2.615	2.429	2.474	2.517	2.646	2.698	2.698	2.741	2.652	2.788	2.697	2.923	2.858	2.726	2.942	2.755	2.657	2.647	2.578	2.552
375.0	784.9	836.5	823.5	774.7	698.4	646.1	605.8	599.2	592.4	597.1	606.7	610.1	585.8	554.6	509.9	450.3	419.7	384.6	350.2	319.9	295.1	292.5	330.7	254.3	152.9	115.1	97.43	133.0	391.2	964.7	3033	5278	340.5	16.52	3.244	2.661	2.164	1.948	1.726	1.598	1.468	1.426	1.614	1.709	1.861	2.043	1.886	2.201	2.343	2.118	2.275	2.544	2.410	2.657	2.634	2.570	2.697	2.719	2.491	2.584	2.565	2.755	2.781	2.668	2.688	2.422	2.777	2.620	3.094	2.849	2.661	2.926	2.893	2.668	2.523	2.727	2.534
380.0	732.8	834.3	826.0	760.1	707.8	680.4	639.4	619.6	604.9	615.1	607.0	601.4	576.7	546.0	511.0	453.8	432.7	400.9	369.8	339.8	311.4	284.9	306.9	322.9	206.1	136.4	108.4	95.29	134.8	248.5	825.2	3992	4494	282.7	8.182	3.222	2.469	2.010	1.711	1.603	1.730	1.561	1.701	1.790	1.648	2.114	1.872	2.159	2.266	2.193	2.319	2.574	2.381	2.648	2.733	2.686	2.560	2.585	2.768	2.736	2.482	2.662	2.675	2.760	2.693	2.715	2.722	2.668	2.771	2.972	2.705	2.861	2.858	2.901	2.787	2.760	2.619
385.0	729.6	816.4	820.5	764.3	702.5	695.4	650.1	641.5	616.9	620.3	606.2	605.4	578.5	547.7	507.7	453.3	437.3	409.1	381.8	354.2	323.9	298.7	281.0	317.8	281.6	169.8	124.1	99.75	88.46	97.91	214.6	1169	4342	2649	40.85	5.044	3.180	2.301	1.947	1.634	1.690	1.557	1.780	1.675	1.696	1.978	1.956	1.952	2.112	2.061	2.261	2.568	2.609	2.478	2.814	2.508	2.729	2.608	2.776	2.841	2.508	2.866	2.585	2.737	2.672	2.870	2.557	2.776	2.580	2.984	2.705	2.798	2.945	2.806	2.607	2.680	2.713
390.0	743.9	804.8	796.5	759.6	725.0	703.6	671.1	652.8	631.1	625.4	612.1	608.5	572.5	541.0	501.1	459.2	440.6	417.8	392.7	367.0	342.2	314.8	290.5	284.7	299.2	254.4	166.1	121.5	97.10	81.56	89.85	291.2	1232	2879	3045	843.4	14.76	3.202	2.500	2.062	1.753	1.762	1.811	1.709	1.935	1.935	1.911	2.063	2.234	1.937	2.142	2.534	2.605	2.588	2.566	2.715	2.861	2.852	2.902	2.799	2.738	2.719	2.713	2.753	2.830	2.704	2.683	2.658	2.571	2.767	2.787	2.660	2.792	2.768	2.711	2.700	2.603
395.0	723.7	753.5	788.3	778.2	726.3	715.2	690.1	678.3	642.7	631.4	623.9	598.5	572.6	532.7	497.6	459.1	444.3	421.7	399.3	374.1	356.4	331.7	305.3	285.6	271.7	286.5	247.0	157.7	121.0	96.48	79.43	105.9	304.4	683.5	1944	3987	1230	18.02	3.338	2.629	2.027	1.956	1.870	1.879	1.976	2.042	1.947	2.332	2.169	2.003	2.253	2.647	2.553	2.849	2.772	2.727	2.815	2.775	2.873	2.937	2.902	2.843	2.660	2.819	2.907	2.880	2.681	2.695	2.623	2.738	2.769	2.576	2.881	2.573	2.819	2.920	2.910
400.0	723.0	759.5	781.1	753.1	745.4	723.7	709.7	676.6	648.3	634.5	631.2	602.5	568.0	536.9	496.9	456.1	437.1	419.8	400.4	380.9	361.3	339.4	318.7	295.0	268.6	264.9	284.6	210.7	146.2	113.9	88.48	75.85	105.3	179.1	507.0	2586	3727	265.0	11.28	3.181	2.550	2.021	2.030	1.921	1.797	2.102	1.996	2.356	2.222	1.937	2.126	2.730	2.560	2.699	2.669	2.798	2.763	2.782	2.710	3.001	3.220	2.883	2.944	2.768	3.156	2.809	2.788	2.800	2.721	2.685	2.687	2.641	2.663	2.746	2.627	2.735	2.739
405.0	750.0	802.9	773.5	755.5	740.4	721.6	704.3	684.0	659.0	643.6	630.3	600.9	565.5	529.1	491.7	451.0	435.5	414.2	397.1	382.6	362.9	347.7	325.3	303.8	275.9	256.5	273.1	263.0	181.2	131.4	105.3	80.48	70.81	73.69	137.2	707.2	2932	2311	212.2	5.354	2.781	2.190	2.247	1.952	1.922	1.937	2.026	2.425	2.132	1.982	1.975	2.646	2.675	2.788	2.750	2.700	2.806	2.831	2.884	2.909	3.005	2.807	2.821	3.003	2.694	2.977	2.697	2.614	2.736	2.691	2.668	2.620	2.598	2.549	2.648	2.804	2.502
410.0	738.1	752.7	779.8	750.9	736.5	715.3	703.9	693.1	668.5	647.0	633.5	598.7	560.1	518.4	478.8	441.7	426.5	405.6	391.1	376.9	362.4	345.3	329.6	309.3	289.4	262.5	252.1	263.2	240.4	170.4	125.5	95.36	74.52	59.35	60.97	180.5	788.3	2013	2443	816.9	14.65	2.934	2.479	2.144	2.047	1.979	1.991	2.267	2.069	2.027	2.061	2.678	2.559	2.636	2.576	2.690	3.047	2.905	2.978	3.037	2.828	2.971	2.923	2.985	2.733	2.796	2.697	2.658	2.731	2.705	2.605	2.458	2.629	2.547	2.470	2.658	2.607
