Sample:	'1
File name:	G2025070118±ı±±Õ‚≈≈ÀÆ.FD3
Run date:	'10:44:31, 07/04/2025
Operator:	Administrator
Comment:	'

Instrument
Model:	F-2700 FL Spectrophotometer
Serial number:	23B8-004
ROM Version:	4J14000 07

Instrument parameters
Measurement type:	3-D scan
Data mode:	Fluorescence
EX  Start WL:	220.0 nm
EX  End WL:	600.0 nm
EX Sampling interval:	5.0 nm
EM  Start WL:	230.0 nm
EM  End WL:	650.0 nm
EM Sampling interval:	5.0 nm
Scan speed:	12000 nm/min
EX Slit:	5.0 nm
EM Slit:	5.0 nm
PMT Voltage:	700 V
Response:	Auto 
Corrected spectra:	Off
Contour interval:	50.000

Peak integration
Integration method:	Rectangular
Sensitivity:	1
Threshold:	1.000

Peaks
No.	ApexEX/EM(nm)	Height(Data)
1	225.0/340.0	1057
2	225.0/600.0	46.73
3	230.0/345.0	1041
4	230.0/505.0	282.6
5	235.0/260.0	355.6
6	235.0/405.0	650.2
7	235.0/515.0	244.2
8	240.0/265.0	409.9
9	240.0/525.0	207.1
10	245.0/270.0	411.0
11	245.0/535.0	175.3
12	250.0/275.0	542.5
13	250.0/550.0	144.4
14	255.0/285.0	616.3
15	255.0/565.0	125.5
16	260.0/290.0	568.7
17	260.0/575.0	105.1
18	265.0/295.0	696.9
19	265.0/585.0	89.82
20	270.0/300.0	878.2
21	270.0/600.0	84.20
22	275.0/305.0	858.7
23	275.0/340.0	509.0
24	275.0/415.0	848.6
25	275.0/435.0	801.3
26	275.0/610.0	69.10
27	280.0/625.0	57.79
28	285.0/320.0	766.5
29	285.0/640.0	42.84
30	290.0/325.0	688.9
31	300.0/335.0	500.3
32	305.0/345.0	440.9
33	310.0/350.0	362.8
34	315.0/355.0	348.0
35	320.0/360.0	327.8
36	325.0/370.0	311.0
37	330.0/375.0	300.1
38	335.0/380.0	301.2
39	335.0/410.0	385.8
40	340.0/390.0	270.4
41	355.0/410.0	371.6
42	360.0/415.0	355.9
43	365.0/420.0	338.6
44	425.0/500.0	25.55
45	440.0/520.0	14.77
46	455.0/340.0	3.225
47	455.0/540.0	8.479
48	480.0/265.0	2.283
49	495.0/270.0	2.163
50	505.0/275.0	3.325
51	510.0/280.0	3.812
52	520.0/285.0	4.069
53	530.0/290.0	3.671
54	535.0/425.0	3.774
55	540.0/295.0	4.729
56	545.0/300.0	5.245
57	550.0/305.0	5.267
58	560.0/310.0	5.030
59	570.0/315.0	5.188
60	580.0/320.0	4.603
61	585.0/325.0	4.822

Data points
	220.0	225.0	230.0	235.0	240.0	245.0	250.0	255.0	260.0	265.0	270.0	275.0	280.0	285.0	290.0	295.0	300.0	305.0	310.0	315.0	320.0	325.0	330.0	335.0	340.0	345.0	350.0	355.0	360.0	365.0	370.0	375.0	380.0	385.0	390.0	395.0	400.0	405.0	410.0	415.0	420.0	425.0	430.0	435.0	440.0	445.0	450.0	455.0	460.0	465.0	470.0	475.0	480.0	485.0	490.0	495.0	500.0	505.0	510.0	515.0	520.0	525.0	530.0	535.0	540.0	545.0	550.0	555.0	560.0	565.0	570.0	575.0	580.0	585.0	590.0	595.0	600.0
230.0	69.26	935.1	1884	482.4	20.16	5.620	4.797	3.761	3.200	3.081	2.581	2.696	1.934	1.806	1.370	1.324	1.174	1.091	0.951	0.911	0.792	0.699	0.687	0.678	0.656	0.632	0.570	0.530	0.540	0.520	0.486	0.436	0.398	0.432	0.396	0.360	0.385	0.340	0.374	0.380	0.483	0.658	0.628	0.446	0.326	0.339	1.329	5.069	7.379	4.747	1.703	0.462	0.249	0.279	0.259	0.255	0.270	0.256	0.245	0.242	0.265	0.257	0.260	0.262	0.259	0.254	0.241	0.241	0.220	0.247	0.237	0.260	0.257	0.283	0.285	0.263	0.268
235.0	176.7	284.1	1325	1841	430.6	26.48	4.717	4.421	3.646	2.913	3.085	2.656	2.241	2.005	1.407	1.142	1.336	1.039	0.906	1.099	0.800	0.673	0.688	0.644	0.641	0.561	0.613	0.614	0.517	0.518	0.565	0.482	0.399	0.457	0.428	0.351	0.404	0.334	0.350	0.359	0.362	0.458	0.642	0.734	0.686	0.361	0.593	1.467	3.181	5.184	7.284	6.818	2.638	0.751	0.266	0.258	0.211	0.284	0.250	0.266	0.252	0.246	0.310	0.304	0.344	0.254	0.261	0.241	0.212	0.257	0.262	0.283	0.258	0.254	0.240	0.245	0.304
240.0	255.7	173.3	437.8	1776	1844	313.9	11.42	5.482	4.251	3.412	3.170	2.442	1.998	1.986	1.478	1.198	1.257	1.095	0.881	1.122	0.770	0.883	0.642	0.687	0.609	0.626	0.611	0.605	0.530	0.509	0.527	0.516	0.437	0.496	0.444	0.353	0.395	0.363	0.395	0.360	0.371	0.378	0.505	0.572	0.884	0.859	0.613	0.578	1.048	1.793	4.439	9.842	10.39	7.036	2.311	0.392	0.282	0.263	0.269	0.268	0.230	0.273	0.248	0.269	0.316	0.252	0.257	0.217	0.274	0.352	0.316	0.224	0.223	0.275	0.296	0.276	0.293
245.0	185.5	260.3	166.2	664.2	2335	1800	206.2	6.874	5.037	4.030	3.698	2.607	2.224	2.181	1.598	1.601	1.238	1.140	0.925	0.974	0.774	0.917	0.670	0.662	0.651	0.643	0.614	0.547	0.589	0.478	0.498	0.499	0.391	0.457	0.434	0.370	0.360	0.414	0.354	0.372	0.351	0.347	0.378	0.393	0.603	0.830	1.016	0.767	0.554	0.625	1.266	3.703	8.472	13.56	11.50	5.740	1.299	0.341	0.293	0.258	0.277	0.273	0.262	0.252	0.382	0.242	0.277	0.244	0.261	0.233	0.281	0.221	0.321	0.263	0.279	0.284	0.249
250.0	78.11	210.7	275.2	237.6	840.4	2189	2255	647.5	30.87	4.664	4.157	3.181	2.726	1.943	1.937	1.739	1.274	1.130	1.045	1.013	0.911	0.866	0.750	0.738	0.617	0.677	0.638	0.550	0.541	0.548	0.511	0.520	0.572	0.377	0.416	0.354	0.385	0.337	0.303	0.365	0.326	0.325	0.342	0.370	0.379	0.479	0.704	0.974	1.157	0.954	0.717	1.136	2.301	5.017	8.301	11.96	13.94	12.07	6.026	1.533	0.324	0.294	0.295	0.260	0.327	0.261	0.281	0.269	0.272	0.249	0.279	0.228	0.280	0.295	0.247	0.265	0.286
255.0	37.57	70.51	228.9	342.8	263.8	612.5	2313	2631	266.9	26.70	5.589	3.969	3.492	2.807	2.038	1.938	1.556	1.281	1.152	1.155	0.792	1.026	0.804	0.796	0.682	0.625	0.650	0.578	0.540	0.538	0.548	0.506	0.517	0.439	0.401	0.388	0.394	0.328	0.359	0.319	0.360	0.353	0.351	0.337	0.316	0.333	0.411	0.462	0.641	1.173	1.548	1.398	0.986	1.396	2.141	3.204	6.381	14.98	22.86	19.90	8.127	1.363	0.336	0.327	0.279	0.247	0.323	0.245	0.269	0.240	0.278	0.227	0.287	0.293	0.369	0.244	0.309
260.0	34.78	29.10	91.75	355.6	305.8	182.0	789.0	3336	2155	214.2	12.40	4.711	4.478	2.844	2.590	1.753	1.736	1.161	1.104	1.212	0.866	0.959	0.953	0.760	0.679	0.700	0.655	0.613	0.557	0.517	0.627	0.530	0.494	0.466	0.456	0.452	0.355	0.372	0.342	0.311	0.288	0.392	0.304	0.374	0.342	0.308	0.305	0.341	0.336	0.550	1.188	2.097	1.820	1.041	0.848	0.979	1.761	4.452	11.71	22.84	27.24	17.63	5.352	0.752	0.285	0.280	0.250	0.253	0.254	0.322	0.322	0.255	0.326	0.268	0.305	0.243	0.281
265.0	28.11	23.60	37.02	182.9	409.9	204.7	210.7	1329	4296	1868	153.9	7.952	5.235	3.486	2.429	1.784	1.680	1.220	1.180	1.191	0.921	0.867	0.894	0.882	0.822	0.730	0.641	0.631	0.626	0.585	0.577	0.607	0.482	0.464	0.532	0.456	0.405	0.455	0.337	0.377	0.302	0.359	0.320	0.411	0.388	0.366	0.254	0.372	0.276	0.343	0.563	1.194	2.283	2.251	1.312	0.675	0.782	1.321	3.136	7.563	17.62	29.37	28.48	14.47	2.974	0.439	0.277	0.364	0.312	0.311	0.240	0.281	0.353	0.292	0.290	0.231	0.307
270.0	49.36	35.39	31.43	63.33	232.8	411.0	240.3	345.1	1561	3770	3579	618.8	23.87	4.479	2.998	2.660	1.935	1.591	1.307	1.184	1.096	0.980	0.925	0.974	0.798	0.756	0.699	0.641	0.661	0.690	0.641	0.575	0.507	0.527	0.536	0.467	0.452	0.470	0.357	0.381	0.359	0.343	0.364	0.363	0.434	0.382	0.341	0.360	0.333	0.291	0.326	0.518	0.908	1.478	2.031	2.163	1.806	0.910	1.092	2.030	4.523	9.264	16.83	24.55	26.92	20.20	11.28	2.763	0.470	0.358	0.311	0.333	0.342	0.290	0.270	0.299	0.267
275.0	89.26	86.16	61.24	46.47	79.29	233.0	542.5	275.6	392.5	1021	3715	5686	785.9	17.96	4.825	3.652	2.543	2.269	1.505	1.461	1.195	1.257	1.025	0.953	0.915	0.722	0.714	0.779	0.640	0.615	0.802	0.559	0.580	0.709	0.600	0.599	0.526	0.543	0.507	0.435	0.425	0.450	0.412	0.431	0.565	0.520	0.526	0.514	0.430	0.380	0.356	0.388	0.464	0.604	0.760	1.383	2.809	3.325	2.148	1.065	1.411	2.414	4.186	6.107	9.379	20.64	37.56	30.38	15.10	2.314	0.407	0.337	0.337	0.355	0.296	0.277	0.392
280.0	139.4	156.1	108.2	62.79	48.41	96.58	415.6	557.1	203.1	281.5	1185	5490	4891	129.2	8.782	4.301	3.228	2.494	1.712	1.462	1.391	1.160	1.107	1.023	1.031	0.902	0.804	0.878	0.708	0.643	0.707	0.571	0.572	0.723	0.683	0.690	0.623	0.613	0.569	0.525	0.506	0.498	0.496	0.579	0.646	0.773	0.706	0.683	0.585	0.492	0.369	0.390	0.386	0.449	0.518	0.651	1.354	2.677	3.812	2.985	1.476	0.949	1.261	1.817	2.636	5.654	15.00	30.71	41.58	26.62	9.953	1.125	0.433	0.351	0.365	0.351	0.339
285.0	216.7	220.4	159.9	86.23	50.55	62.58	187.4	616.3	307.9	149.8	340.8	1916	6305	3497	89.94	6.176	4.013	2.833	1.935	1.814	1.549	1.201	1.081	1.120	1.056	0.930	0.851	0.741	0.776	0.817	0.632	0.630	0.572	0.606	0.738	0.795	0.753	0.688	0.554	0.618	0.557	0.590	0.681	0.727	0.714	0.918	0.911	0.871	0.767	0.580	0.428	0.494	0.374	0.431	0.506	0.491	0.705	1.220	2.473	3.946	4.069	1.887	0.966	0.852	1.119	1.886	3.945	8.712	20.66	37.20	34.76	21.41	4.965	0.566	0.522	0.355	0.321
290.0	289.0	284.5	217.8	121.1	69.87	66.21	101.8	276.9	568.7	446.2	211.1	536.1	2078	4571	3201	363.9	14.46	3.713	2.721	2.104	1.774	1.466	1.163	1.044	1.060	0.934	0.970	0.840	0.715	0.743	0.701	0.624	0.659	0.809	0.914	0.898	0.873	0.809	0.704	0.672	0.618	0.684	0.743	0.780	0.805	1.009	0.929	1.096	0.898	0.710	0.550	0.582	0.529	0.466	0.532	0.492	0.592	0.709	1.126	1.727	2.894	3.514	3.671	2.540	1.298	1.195	1.529	2.644	5.381	10.49	17.15	26.45	29.12	27.15	13.99	4.227	0.595
295.0	337.3	336.3	258.0	151.8	96.18	84.19	98.46	149.2	280.6	696.9	549.4	281.1	580.0	1198	3383	4825	466.6	10.90	4.031	2.632	1.989	1.660	1.374	1.254	1.019	1.025	1.025	0.847	0.720	0.870	0.729	0.808	0.726	0.759	0.969	0.880	1.041	0.806	0.765	0.778	0.674	0.687	0.877	0.891	1.004	0.985	1.096	1.244	1.126	0.767	0.642	0.695	0.659	0.583	0.595	0.622	0.628	0.715	0.832	0.906	1.312	1.659	2.671	4.582	4.729	2.719	1.364	1.513	2.139	3.148	4.573	6.694	8.511	17.41	35.20	34.47	20.86
300.0	345.8	364.4	279.1	177.2	121.3	113.2	115.8	146.9	206.5	459.0	878.2	427.8	279.2	373.6	1043	4621	3925	77.01	6.277	3.394	2.380	1.961	1.678	1.384	1.196	1.026	0.977	1.105	0.751	0.845	0.670	0.753	0.775	0.718	0.977	1.118	1.158	0.850	0.883	0.840	0.763	0.783	0.791	0.850	1.019	1.101	1.129	1.272	1.076	0.888	0.694	0.804	0.772	0.598	0.749	0.740	0.761	0.771	1.024	0.917	1.065	1.179	1.544	2.401	4.168	5.245	3.373	2.210	1.571	1.716	2.055	2.396	2.654	4.746	11.87	25.76	41.78
305.0	365.9	396.3	316.1	196.6	149.5	137.5	154.0	189.2	233.4	343.6	727.6	858.7	337.3	240.3	342.0	1564	5078	2829	56.50	4.469	2.934	2.508	1.770	1.462	1.284	1.173	1.015	1.103	0.976	0.877	0.706	0.815	0.753	0.818	0.870	1.086	1.054	0.886	0.838	0.867	0.779	0.811	0.999	1.046	1.086	1.219	1.074	1.313	1.039	0.989	0.740	0.804	0.928	0.705	0.796	0.837	0.963	1.015	1.112	1.136	1.215	1.372	1.431	1.857	2.757	3.881	5.267	4.855	2.947	1.883	1.640	1.686	1.339	2.052	3.504	7.017	16.74
310.0	367.1	388.4	329.3	219.7	168.6	167.9	196.8	226.4	263.1	335.3	472.2	777.7	729.0	332.6	222.3	448.8	1650	3544	2460	264.7	11.30	3.014	2.210	1.836	1.424	1.349	1.185	1.025	0.969	0.893	0.766	0.717	0.801	0.829	0.965	1.022	0.962	0.990	0.915	0.901	0.895	0.838	0.900	0.937	1.119	1.232	1.210	1.360	1.129	1.006	0.865	0.931	0.930	0.840	0.938	0.889	1.111	1.215	1.295	1.345	1.361	1.513	1.561	1.885	2.228	2.491	3.205	4.263	5.030	4.538	3.077	1.921	1.506	1.557	1.841	2.301	4.496
315.0	390.6	417.5	358.2	246.0	194.0	194.4	217.7	255.3	282.5	339.5	411.9	505.5	704.2	690.6	271.2	221.4	454.9	905.2	2542	3778	371.2	8.434	3.125	2.241	1.668	1.739	1.338	1.009	0.978	1.123	0.848	0.765	0.834	0.784	0.928	1.092	0.864	0.987	0.894	0.910	0.870	0.866	0.962	0.946	1.191	1.271	1.291	1.399	1.197	0.976	0.844	1.030	0.929	0.940	1.014	1.012	1.241	1.295	1.394	1.356	1.530	1.944	1.774	2.017	1.950	2.203	2.300	2.734	2.913	3.727	5.188	4.164	2.769	1.747	1.497	1.599	1.936
320.0	506.7	548.1	438.5	279.6	221.5	217.4	238.5	272.8	311.9	363.8	422.4	462.8	534.7	766.5	491.0	208.9	216.2	272.3	741.6	3371	3111	60.57	5.211	3.006	1.970	1.661	1.313	1.243	1.082	0.975	0.936	0.782	0.821	0.845	0.987	0.966	0.943	1.061	1.035	0.993	0.891	0.931	1.105	1.109	1.384	1.600	1.617	1.849	1.429	1.059	0.943	1.256	1.083	1.067	1.043	1.061	1.304	1.416	1.425	1.404	1.631	1.808	1.887	2.139	2.088	2.293	2.214	2.500	2.550	2.723	3.457	4.587	4.603	3.213	1.992	1.447	1.415
325.0	606.5	734.6	604.6	367.5	254.4	238.3	262.1	295.8	331.7	387.9	440.2	478.8	477.1	575.4	688.9	319.0	181.7	141.0	217.6	1085	3664	2296	46.40	3.960	2.387	1.695	1.431	1.368	1.214	1.061	0.923	0.757	0.845	0.892	0.917	0.956	1.039	0.982	1.026	0.976	1.050	1.067	1.149	1.285	1.532	1.779	2.017	2.568	1.982	1.470	1.243	1.436	1.263	1.174	1.151	1.244	1.330	1.540	1.450	1.528	1.811	1.897	1.955	2.107	2.217	2.454	2.239	2.392	2.435	2.581	2.833	3.155	4.173	4.822	3.869	2.200	1.514
330.0	678.0	868.0	772.5	514.3	341.6	283.6	292.2	312.7	346.8	395.0	455.2	490.6	481.3	468.5	534.0	528.1	290.1	141.8	118.2	292.4	1136	2591	2432	226.4	11.19	2.541	2.018	1.583	1.381	1.245	1.057	0.889	0.904	0.795	0.883	1.102	0.949	0.923	0.973	0.961	1.110	1.135	1.149	1.389	1.645	2.143	2.448	2.851	2.595	2.087	1.665	1.742	1.474	1.475	1.437	1.343	1.430	1.527	1.586	1.631	1.792	1.928	1.982	2.238	2.156	2.324	2.421	2.506	2.401	2.616	2.741	2.718	2.891	3.298	3.654	3.776	3.176
335.0	761.0	972.8	902.6	643.1	434.9	347.7	326.8	344.7	367.7	421.1	469.3	503.2	499.8	461.5	420.9	438.0	500.3	237.6	121.3	130.6	299.0	643.9	1961	3170	338.9	8.643	2.749	1.965	1.575	1.167	1.112	1.080	1.041	0.867	0.941	0.897	0.937	0.946	1.012	0.937	1.007	1.146	1.408	1.526	1.778	2.288	2.670	3.092	2.970	2.440	2.037	2.305	1.902	1.867	1.510	1.644	1.640	1.735	1.819	1.908	1.850	2.038	1.999	2.153	2.287	2.513	2.489	2.527	2.501	2.592	2.738	2.601	2.516	2.954	2.737	2.722	3.372
340.0	770.5	1057	1002	726.7	484.5	383.2	355.7	357.9	383.7	427.2	470.2	509.0	497.9	461.5	405.3	357.8	452.7	399.7	161.6	111.4	124.5	184.0	552.8	2612	2665	53.25	4.961	2.447	2.033	1.526	1.172	1.118	0.980	0.960	0.898	0.931	0.895	1.025	0.971	0.906	1.032	1.211	1.413	1.491	1.836	2.519	2.812	3.225	3.071	2.771	2.137	2.581	2.120	2.007	1.748	1.724	1.762	1.913	1.741	1.906	1.894	2.114	2.172	2.251	2.387	2.661	2.635	2.733	2.663	2.667	2.688	2.561	2.642	2.675	2.425	2.530	2.394
345.0	779.9	1036	1041	764.4	544.7	423.2	373.3	376.0	385.7	409.6	461.0	504.1	488.6	454.2	400.9	338.4	338.7	440.9	277.1	125.4	97.39	91.02	158.9	802.3	2832	2068	44.46	3.472	2.251	1.763	1.333	1.195	1.136	0.955	1.047	1.066	0.915	0.921	0.963	0.913	1.062	1.167	1.352	1.493	1.972	2.455	2.783	3.216	3.029	2.722	2.319	2.784	2.175	2.053	1.981	1.701	1.798	2.020	1.823	1.966	1.879	1.911	2.110	2.303	2.307	2.414	2.567	2.565	2.513	2.711	2.615	2.551	2.721	2.486	2.571	2.431	2.319
350.0	754.5	960.4	984.2	787.9	591.5	468.3	414.7	390.7	397.3	415.8	453.5	479.8	477.5	450.0	397.5	340.3	299.3	324.3	362.8	241.9	123.1	89.83	86.10	216.5	845.2	1998	1995	208.1	12.51	2.379	1.608	1.268	1.194	1.005	1.048	1.056	0.974	0.951	0.933	0.967	1.063	1.204	1.228	1.409	1.846	2.146	2.521	3.175	2.933	2.587	2.488	2.656	2.404	2.220	2.083	1.820	2.035	1.999	1.989	1.966	2.137	1.936	2.108	2.269	2.262	2.225	2.454	2.481	2.448	2.662	2.556	2.488	2.750	2.507	2.637	2.444	2.233
355.0	725.8	889.5	926.3	799.2	622.2	515.3	455.1	431.5	424.4	432.5	451.3	468.4	464.2	444.4	401.9	352.6	312.4	283.1	283.8	348.0	227.3	120.9	93.51	101.9	227.2	489.7	1359	2467	334.4	10.95	2.105	1.766	1.244	1.201	1.177	1.067	1.033	1.095	1.018	1.020	1.006	1.244	1.229	1.472	1.818	2.068	2.496	2.816	2.743	2.652	2.343	2.526	2.537	2.373	2.381	2.103	2.285	1.982	2.105	2.086	2.115	2.183	2.511	2.540	2.382	2.340	2.457	2.385	2.540	2.533	2.697	2.569	2.666	2.693	2.647	2.497	2.421
360.0	645.9	839.4	868.4	776.5	639.2	549.1	487.9	453.8	448.3	443.0	457.6	466.2	459.5	443.8	408.4	360.1	321.8	283.7	258.2	302.0	327.8	183.4	115.2	94.11	101.5	146.9	373.1	1805	2326	266.5	5.847	2.174	1.502	1.437	1.204	1.149	1.084	1.038	1.024	0.973	1.037	1.126	1.356	1.435	1.746	2.037	2.319	2.837	2.796	2.485	2.319	2.638	2.716	2.501	2.229	2.315	2.379	2.305	2.172	2.132	2.272	2.234	2.194	2.399	2.401	2.482	2.485	2.386	2.380	2.491	2.449	2.367	2.655	2.686	2.362	2.480	2.494
365.0	663.8	824.9	815.5	754.5	651.2	576.3	517.0	475.0	455.2	459.1	455.9	462.8	452.5	443.1	405.4	370.9	330.5	297.2	269.5	260.7	322.9	284.5	149.8	107.9	89.77	80.09	118.1	527.0	2161	2024	46.09	3.660	1.877	1.407	1.269	1.143	0.926	1.039	1.131	1.062	1.030	1.052	1.367	1.426	1.601	1.995	2.117	2.493	2.648	2.422	2.278	2.795	2.572	2.492	2.329	2.331	2.487	2.377	2.407	2.301	2.410	2.251	2.466	2.435	2.502	2.505	2.454	2.457	2.356	2.326	2.564	2.405	2.647	2.700	2.418	2.539	2.403
370.0	622.3	772.1	794.5	738.8	671.8	597.7	544.2	505.2	483.4	477.6	467.0	462.8	452.7	433.4	402.8	372.9	339.9	312.3	286.5	263.1	269.4	311.0	256.3	150.6	106.4	83.63	72.76	152.4	618.8	1673	1847	198.1	12.91	2.000	1.433	1.350	1.054	1.037	1.084	1.078	1.084	1.115	1.230	1.396	1.466	1.828	2.004	2.290	2.347	2.163	2.167	2.679	2.589	2.756	2.382	2.497	2.583	2.388	2.450	2.483	2.476	2.337	2.390	2.429	2.383	2.435	2.432	2.409	2.354	2.350	2.520	2.438	2.549	2.701	2.465	2.554	2.593
375.0	591.9	722.8	761.2	725.7	666.5	612.9	561.1	530.4	502.3	481.5	473.9	465.8	451.9	426.7	403.5	371.7	348.9	324.9	307.6	282.4	264.2	263.0	300.1	246.6	141.9	103.1	80.40	80.81	170.2	404.7	1110	2204	310.6	13.02	1.907	1.599	1.258	1.216	1.163	1.219	1.055	1.204	1.156	1.389	1.487	1.901	1.864	2.258	2.178	2.072	2.181	2.802	2.615	2.724	2.599	2.522	2.733	2.500	2.512	2.624	2.558	2.441	2.545	2.536	2.447	2.601	2.511	2.343	2.418	2.423	2.542	2.473	2.380	2.530	2.448	2.521	2.747
380.0	571.6	708.5	727.1	709.4	663.1	627.8	564.7	531.4	507.7	489.2	477.3	466.0	452.0	430.4	404.9	373.1	351.0	335.5	315.7	293.8	268.8	251.9	267.4	301.2	198.4	123.6	93.22	76.33	79.78	119.2	295.9	1492	1943	240.1	5.670	2.059	1.681	1.391	1.105	1.111	1.049	1.160	1.194	1.284	1.366	1.599	1.771	1.975	2.162	2.019	2.175	2.553	2.459	2.631	2.601	2.540	2.716	2.708	2.502	2.522	2.441	2.450	2.615	2.507	2.420	2.437	2.334	2.276	2.293	2.329	2.465	2.347	2.544	2.535	2.478	2.238	2.635
385.0	555.7	681.2	718.2	688.6	664.1	619.2	568.4	534.4	507.9	497.3	476.8	465.6	449.3	423.7	400.1	370.4	353.5	337.7	319.8	298.4	279.9	257.8	247.4	277.4	265.3	157.8	109.2	86.37	69.36	62.97	92.42	420.9	1643	1608	38.40	3.810	2.035	1.539	1.173	1.212	1.072	1.111	1.328	1.229	1.546	1.709	1.735	2.021	2.083	2.030	1.979	2.372	2.448	2.599	2.524	2.410	2.611	2.489	2.640	2.383	2.686	2.484	2.562	2.540	2.472	2.492	2.414	2.315	2.387	2.282	2.330	2.409	2.684	2.429	2.471	2.470	2.465
390.0	522.0	642.4	674.0	678.7	643.2	616.8	578.8	541.6	518.8	512.5	492.5	482.3	464.8	436.5	403.2	375.8	355.1	338.2	324.4	306.5	291.6	270.8	254.2	248.7	270.4	240.0	156.4	111.8	88.67	69.58	61.38	125.9	460.8	1230	1372	482.6	12.55	2.596	1.580	1.388	1.120	1.134	1.279	1.397	1.420	1.669	1.709	2.052	2.077	1.845	2.002	2.420	2.528	2.715	2.443	2.483	2.786	2.613	2.796	2.585	2.738	2.603	2.579	2.455	2.504	2.509	2.495	2.418	2.448	2.527	2.385	2.496	2.516	2.470	2.544	2.428	2.441
395.0	529.5	614.3	661.2	646.8	648.6	613.3	583.0	573.3	560.1	560.7	554.0	542.8	517.4	478.9	442.0	397.5	363.9	345.2	332.0	319.0	313.1	292.7	279.6	270.4	259.8	277.7	253.9	169.8	131.3	108.9	89.93	86.30	143.1	313.6	802.7	1888	262.9	14.34	2.648	1.775	1.340	1.302	1.216	1.328	1.575	1.642	1.809	2.092	2.100	1.946	1.968	2.460	2.413	2.600	2.454	2.626	2.795	2.814	2.797	2.647	2.706	2.737	2.690	2.680	2.699	2.783	2.549	2.658	2.786	2.659	2.617	2.504	2.382	2.647	2.496	2.603	2.615
400.0	533.4	588.1	653.7	644.9	641.8	629.0	611.4	590.9	594.1	611.3	634.1	630.6	604.5	549.2	497.2	431.0	385.6	357.1	343.6	333.8	332.3	319.1	313.5	305.2	289.5	289.1	320.0	254.7	186.5	158.9	131.8	111.2	101.7	124.0	241.6	1218	1477	208.1	7.307	2.382	1.618	1.319	1.316	1.519	1.597	1.740	1.738	2.013	2.065	2.042	1.995	2.588	2.670	2.505	2.703	2.941	2.813	2.978	3.098	2.770	3.060	3.010	3.069	2.872	2.985	3.114	3.028	2.880	3.037	2.964	2.686	2.802	2.773	2.808	2.709	2.707	2.596
405.0	513.5	560.5	635.6	650.2	646.8	637.7	627.6	619.1	643.2	696.6	729.4	748.5	706.5	636.9	567.7	472.2	407.1	365.3	353.9	350.7	351.2	351.1	352.6	346.0	336.6	323.2	347.2	341.4	259.9	215.6	184.5	153.8	125.4	106.1	117.4	370.9	1240	1237	34.92	3.979	2.023	1.434	1.353	1.570	1.525	1.658	1.625	2.145	2.214	2.009	2.032	2.621	2.764	2.822	2.801	2.900	3.028	3.014	3.074	3.252	2.963	3.356	3.211	3.212	3.492	3.267	3.411	3.157	3.242	3.236	3.149	3.107	2.997	3.153	2.873	2.685	2.871
410.0	497.1	559.0	629.4	619.7	637.2	634.7	636.4	651.7	690.3	761.3	818.0	833.0	795.0	712.8	620.9	506.9	421.4	374.9	360.0	359.0	363.2	374.4	383.1	385.8	381.6	366.1	361.6	371.6	351.2	283.1	236.7	196.8	158.0	124.9	107.8	147.3	371.3	948.4	1038	147.1	11.03	1.943	1.649	1.647	1.674	1.627	1.678	2.131	2.139	2.069	2.101	2.737	2.649	2.909	3.005	3.127	3.181	3.236	3.181	3.373	3.472	3.543	3.617	3.345	3.700	3.619	3.676	3.370	3.559	3.405	3.386	3.250	3.242	3.014	2.903	2.849	2.747
