Sample:	'1
File name:	t2025040812利民闸北支流.FD3
Run date:	'11:19:38, 04/09/2025
Operator:	Administrator
Comment:	'

Instrument
Model:	F-2700 FL Spectrophotometer
Serial number:	23B8-004
ROM Version:	4J14000 07

Instrument parameters
Measurement type:	3-D scan
Data mode:	Fluorescence
EX  Start WL:	220.0 nm
EX  End WL:	600.0 nm
EX Sampling interval:	5.0 nm
EM  Start WL:	230.0 nm
EM  End WL:	650.0 nm
EM Sampling interval:	5.0 nm
Scan speed:	12000 nm/min
EX Slit:	5.0 nm
EM Slit:	5.0 nm
PMT Voltage:	700 V
Response:	Auto 
Corrected spectra:	Off
Contour interval:	50.000

Peak integration
Integration method:	Rectangular
Sensitivity:	1
Threshold:	1.000

Peaks
No.	ApexEX/EM(nm)	Height(Data)
1	225.0/605.0	58.71
2	225.0/630.0	54.31
3	230.0/340.0	1487
4	230.0/580.0	59.56
5	235.0/510.0	260.1
6	240.0/525.0	227.6
7	245.0/535.0	194.9
8	250.0/435.0	655.3
9	250.0/550.0	155.1
10	255.0/280.0	531.3
11	255.0/560.0	132.2
12	260.0/290.0	531.5
13	260.0/575.0	110.7
14	265.0/585.0	103.4
15	270.0/300.0	1072
16	270.0/600.0	98.95
17	275.0/310.0	1296
18	275.0/610.0	90.79
19	280.0/315.0	1406
20	280.0/335.0	1456
21	280.0/625.0	89.32
22	285.0/320.0	1480
23	285.0/635.0	70.57
24	315.0/355.0	425.4
25	320.0/365.0	408.7
26	335.0/380.0	372.9
27	425.0/500.0	39.38
28	445.0/525.0	20.38
29	460.0/340.0	5.386
30	510.0/280.0	3.498
31	520.0/285.0	3.656
32	545.0/300.0	6.559
33	550.0/305.0	6.886
34	560.0/340.0	7.659
35	565.0/335.0	7.649
36	575.0/320.0	8.321
37	585.0/325.0	7.612

Data points
	220.0	225.0	230.0	235.0	240.0	245.0	250.0	255.0	260.0	265.0	270.0	275.0	280.0	285.0	290.0	295.0	300.0	305.0	310.0	315.0	320.0	325.0	330.0	335.0	340.0	345.0	350.0	355.0	360.0	365.0	370.0	375.0	380.0	385.0	390.0	395.0	400.0	405.0	410.0	415.0	420.0	425.0	430.0	435.0	440.0	445.0	450.0	455.0	460.0	465.0	470.0	475.0	480.0	485.0	490.0	495.0	500.0	505.0	510.0	515.0	520.0	525.0	530.0	535.0	540.0	545.0	550.0	555.0	560.0	565.0	570.0	575.0	580.0	585.0	590.0	595.0	600.0
230.0	47.73	1114	3537	1390	60.42	9.545	6.962	5.367	5.316	5.608	5.026	4.660	4.363	4.004	3.579	2.963	2.529	2.491	2.321	2.180	1.876	1.682	1.633	1.635	1.451	1.325	1.196	1.140	1.183	1.143	1.019	0.952	1.018	0.920	0.864	0.769	0.727	0.670	0.654	0.647	0.571	0.665	0.615	0.613	0.552	0.541	1.220	6.345	13.18	10.67	4.280	1.072	0.444	0.408	0.353	0.393	0.386	0.421	0.341	0.343	0.336	0.357	0.324	0.318	0.309	0.369	0.333	0.299	0.303	0.316	0.298	0.294	0.319	0.312	0.331	0.292	0.294
235.0	78.78	316.0	2356	4804	591.4	86.61	9.911	7.520	5.795	6.118	4.964	4.992	4.528	4.241	3.650	3.200	2.527	2.353	2.101	2.124	1.943	1.790	1.589	1.586	1.568	1.308	1.352	1.297	1.230	1.205	1.100	0.971	1.003	0.954	1.026	0.816	0.766	0.598	0.650	0.597	0.618	0.592	0.725	0.711	0.681	0.607	0.659	1.859	5.170	10.87	16.51	18.89	8.503	1.724	0.408	0.412	0.400	0.406	0.375	0.353	0.363	0.374	0.354	0.313	0.353	0.347	0.314	0.310	0.260	0.290	0.290	0.291	0.348	0.337	0.302	0.352	0.306
240.0	134.6	152.6	713.0	4261	4566	475.5	44.17	9.858	8.139	7.325	5.764	4.800	5.180	4.164	4.094	3.337	2.889	2.375	2.302	2.447	1.889	1.852	1.999	1.527	1.597	1.465	1.347	1.262	1.197	1.170	1.082	0.959	0.980	0.909	0.970	0.921	0.739	0.645	0.792	0.677	0.570	0.563	0.579	0.657	0.711	0.751	0.695	0.758	1.644	3.500	9.402	25.67	26.68	18.37	6.350	1.095	0.475	0.435	0.477	0.343	0.342	0.417	0.381	0.415	0.384	0.340	0.347	0.296	0.268	0.288	0.341	0.303	0.330	0.301	0.288	0.281	0.322
245.0	102.9	167.2	220.8	1482	6247	3772	370.4	17.72	10.82	9.063	7.187	6.213	5.857	4.608	4.298	3.542	3.197	2.702	2.804	2.513	2.009	1.889	1.971	1.744	1.583	1.523	1.387	1.231	1.236	1.090	1.153	1.085	1.026	0.907	0.931	0.763	0.863	0.717	0.683	0.732	0.614	0.582	0.610	0.577	0.633	0.867	0.907	0.827	0.912	1.076	2.484	8.899	21.93	38.67	27.15	17.28	4.335	0.649	0.442	0.389	0.368	0.423	0.364	0.396	0.373	0.416	0.324	0.317	0.373	0.292	0.305	0.303	0.355	0.311	0.297	0.298	0.359
250.0	54.94	131.6	230.6	418.7	2087	5780	6671	1335	84.67	13.83	9.896	7.343	6.766	5.397	4.949	3.815	3.457	2.868	2.901	2.734	2.173	1.968	1.999	1.855	1.519	1.554	1.412	1.355	1.293	1.226	1.187	1.146	1.089	0.977	0.944	0.822	0.836	0.789	0.738	0.726	0.664	0.678	0.576	0.686	0.590	0.589	0.741	0.977	1.117	0.944	1.099	2.419	5.611	12.92	22.22	38.50	40.54	39.77	13.15	4.690	0.690	0.427	0.467	0.423	0.415	0.415	0.382	0.357	0.347	0.348	0.348	0.345	0.306	0.337	0.340	0.304	0.333
255.0	41.72	57.54	165.6	330.9	548.9	1523	6731	9999.9	1842	95.33	13.94	11.21	8.420	6.418	6.055	4.451	3.829	3.414	3.490	2.846	2.105	2.254	2.030	1.853	1.649	1.671	1.464	1.478	1.388	1.431	1.362	1.183	1.105	1.070	0.895	0.856	0.893	0.762	0.762	0.661	0.806	0.665	0.614	0.645	0.557	0.539	0.544	0.603	0.799	1.064	1.389	1.618	1.712	3.318	5.438	9.727	17.63	48.22	73.68	67.85	19.78	4.391	0.669	0.536	0.430	0.506	0.427	0.403	0.362	0.455	0.384	0.394	0.342	0.344	0.355	0.328	0.367
260.0	38.95	40.81	78.62	284.7	338.4	402.7	2178	9999.9	9999.9	1462	40.72	15.73	10.52	9.229	7.056	5.221	4.182	3.797	3.331	3.270	2.421	2.331	2.133	2.018	1.777	1.660	1.483	1.514	1.378	1.265	1.379	1.172	1.019	1.066	1.019	0.974	0.861	0.803	0.752	0.698	0.785	0.746	0.659	0.636	0.704	0.643	0.575	0.611	0.587	0.656	1.003	1.781	1.728	1.478	1.690	2.623	4.479	13.68	35.85	77.82	92.53	29.28	16.46	2.332	0.537	0.513	0.445	0.473	0.391	0.546	0.446	0.421	0.377	0.350	0.342	0.339	0.370
265.0	42.94	37.17	43.33	136.5	360.2	247.5	537.9	3685	9999.9	9999.9	210.3	23.36	15.74	11.38	9.179	6.204	5.138	4.261	3.619	3.512	2.842	2.629	2.477	2.290	1.810	1.722	1.569	1.567	1.554	1.418	1.448	1.377	1.128	1.155	1.161	0.944	0.981	0.705	0.810	0.658	0.727	0.822	0.630	0.634	0.668	0.611	0.514	0.569	0.564	0.523	0.546	1.099	1.894	2.089	1.492	1.135	1.541	3.542	8.878	24.45	58.68	98.44	114.6	27.56	9.414	1.023	0.586	0.537	0.392	0.495	0.446	0.415	0.371	0.415	0.390	0.375	0.379
270.0	51.66	50.64	45.26	62.07	187.1	351.3	315.0	891.7	3923	9999.9	9999.9	3480	60.90	16.55	12.16	8.982	6.253	5.448	4.550	4.082	3.235	2.813	2.624	2.281	2.059	2.016	1.823	1.780	1.748	1.698	1.607	1.495	1.335	1.223	1.246	1.071	1.018	0.838	0.786	0.834	0.716	0.804	0.682	0.718	0.748	0.674	0.640	0.625	0.632	0.563	0.539	0.677	0.924	1.378	1.954	2.104	1.915	1.610	2.528	6.076	14.33	30.31	63.21	97.59	102.7	88.49	17.24	8.242	1.141	0.581	0.534	0.465	0.487	0.490	0.426	0.423	0.423
275.0	90.58	92.89	85.01	59.28	75.46	181.5	456.5	404.7	932.5	2732	9999.9	9999.9	1185	61.78	18.91	12.58	9.434	7.212	5.686	4.805	4.078	3.444	3.262	2.754	2.546	2.454	1.986	1.942	1.604	1.692	1.816	1.633	1.524	1.379	1.281	1.182	1.156	0.959	0.939	0.835	0.886	0.877	0.743	0.825	0.836	0.903	0.728	0.778	0.831	0.621	0.556	0.649	0.700	0.770	0.930	1.417	2.541	3.069	2.366	2.112	3.746	7.334	14.75	23.18	32.93	80.64	145.2	149.8	27.81	10.54	0.909	0.729	0.534	0.486	0.518	0.461	0.467
280.0	149.1	150.3	143.8	97.57	62.40	82.77	317.4	531.3	344.1	696.7	3232	9999.9	9999.9	855.6	36.22	17.78	11.93	8.997	7.013	5.763	4.446	3.884	3.755	3.176	2.734	2.436	2.176	2.103	1.892	1.941	1.794	1.827	1.570	1.494	1.469	1.297	1.156	1.030	1.003	0.883	0.871	0.887	0.980	0.879	0.936	0.980	0.946	0.928	0.907	0.741	0.659	0.729	0.667	0.687	0.673	0.808	1.416	2.410	3.498	2.830	2.002	2.305	3.917	5.936	8.149	20.53	54.90	123.0	179.0	147.1	23.19	5.061	0.736	0.563	0.508	0.561	0.587
285.0	213.1	233.2	227.3	151.4	85.34	69.06	152.4	502.1	341.9	285.9	859.3	4438	9999.9	8530	119.2	26.32	15.70	11.28	8.105	7.419	4.796	4.134	3.972	3.253	3.237	2.582	2.438	2.259	2.338	1.989	1.846	1.779	1.546	1.561	1.466	1.390	1.386	1.127	1.076	1.114	0.886	1.034	0.957	0.985	1.023	1.221	1.057	1.082	1.200	1.039	0.866	0.907	0.673	0.698	0.646	0.772	1.018	1.222	2.277	3.569	3.656	2.364	1.801	2.207	2.798	5.515	13.42	32.87	80.66	161.8	193.7	33.05	16.86	1.991	0.748	0.673	0.639
290.0	276.9	361.8	356.4	248.3	136.0	94.92	119.7	259.1	531.5	502.5	434.6	1231	4688	9999.9	9999.9	2470	42.42	17.50	12.22	9.769	6.466	5.170	4.838	3.685	3.359	2.982	2.621	2.692	2.388	2.291	2.233	1.817	1.829	1.806	1.672	1.509	1.496	1.280	1.198	1.151	1.141	1.046	1.021	1.112	1.241	1.458	1.479	1.480	1.568	1.356	1.108	1.141	0.924	0.911	0.858	0.878	0.990	1.053	1.331	1.826	2.872	3.653	3.838	3.002	2.348	2.658	4.399	8.783	19.67	42.59	79.93	105.3	145.6	116.6	87.90	12.92	3.324
295.0	339.6	491.0	503.7	343.9	214.7	149.4	157.9	209.4	351.9	746.9	747.8	639.2	1360	2861	9999.9	9999.9	681.6	42.80	18.34	13.99	9.474	6.794	5.629	4.552	3.926	3.525	3.040	2.931	3.000	2.420	2.429	2.182	2.103	1.839	1.884	1.708	1.766	1.551	1.504	1.312	1.240	1.053	1.179	1.326	1.431	1.695	1.572	1.868	2.100	1.565	1.368	1.461	1.312	1.114	1.086	1.062	1.182	1.354	1.207	1.530	1.730	2.308	3.073	4.794	5.173	3.891	3.139	3.933	6.559	11.33	19.49	25.35	38.49	71.46	168.0	225.6	35.02
300.0	398.6	563.1	630.8	427.4	277.4	199.7	209.9	254.3	337.7	625.3	1072	779.6	737.1	971.2	3483	9999.9	9999.9	532.7	30.99	18.38	11.43	8.935	7.038	5.678	4.571	4.010	3.442	3.355	3.140	2.902	2.760	2.519	2.140	2.070	1.908	1.762	1.895	1.419	1.661	1.368	1.378	1.327	1.154	1.436	1.688	1.708	1.926	2.255	2.574	1.896	1.531	1.822	1.403	1.293	1.258	1.229	1.464	1.507	1.500	1.710	1.976	2.063	2.876	3.517	5.220	6.559	5.274	4.054	4.187	5.054	6.510	7.999	10.51	18.36	50.35	130.0	216.4
305.0	435.9	660.3	724.0	508.0	342.7	248.1	270.4	318.7	415.1	618.1	1014	1235	793.9	681.4	1081	4897	9999.9	9999.9	78.95	25.60	15.42	10.96	8.974	6.769	5.261	4.698	3.939	3.683	3.464	2.960	2.950	2.350	2.423	2.303	2.065	1.766	1.892	1.618	1.595	1.499	1.389	1.393	1.492	1.523	1.686	1.859	2.100	2.598	2.857	2.238	1.915	1.995	1.714	1.471	1.342	1.659	1.668	1.815	1.986	2.096	2.296	2.646	2.994	3.439	4.232	5.923	6.886	6.727	5.255	4.555	4.513	4.594	4.824	6.200	13.02	32.45	78.26
310.0	484.1	728.2	839.9	591.4	408.6	307.0	351.5	418.5	534.2	736.2	950.6	1296	1282	865.9	670.3	1351	4778	9999.9	9999.9	1921	35.28	16.62	12.21	8.197	6.810	5.440	4.537	4.272	3.896	3.400	3.118	2.699	2.425	2.466	2.246	2.070	1.998	1.696	1.657	1.698	1.480	1.600	1.708	1.585	1.937	2.123	2.306	2.745	3.284	2.533	2.230	2.173	1.983	1.752	1.629	1.870	2.023	2.118	2.383	2.428	2.800	3.131	3.535	3.981	4.277	5.521	5.640	6.821	7.657	7.166	5.772	5.050	4.290	4.115	5.147	9.046	19.05
315.0	536.4	798.5	932.7	667.5	482.3	356.9	422.5	502.7	646.7	859.1	1044	1231	1406	1323	758.0	615.7	1222	2674	9999.9	9999.9	509.7	37.66	18.81	11.56	8.516	6.954	5.409	4.749	4.638	3.969	3.316	2.931	2.823	2.646	2.346	2.252	2.145	1.738	1.784	1.681	1.657	1.768	1.636	1.670	2.049	2.343	2.721	3.303	3.677	2.722	2.391	2.631	2.165	1.932	2.066	2.034	2.348	2.535	2.652	2.755	3.252	3.380	4.179	4.811	4.573	5.928	5.561	5.959	7.094	7.416	7.803	7.930	5.800	4.781	4.009	4.499	5.941
320.0	602.1	890.2	1042	753.8	532.2	401.4	482.7	555.8	714.8	963.3	1137	1299	1360	1480	1009	526.5	464.5	711.9	3230	9999.9	9999.9	442.9	31.33	15.37	11.06	8.364	6.562	5.488	4.700	4.463	3.787	3.267	3.217	2.751	2.669	2.406	2.061	2.057	2.025	1.751	1.682	1.764	1.703	1.950	2.195	2.685	2.841	3.484	4.152	2.968	2.617	2.782	2.317	2.095	2.323	2.156	2.388	2.997	2.876	3.081	3.497	3.909	4.738	5.222	5.013	6.563	6.132	6.534	6.988	7.254	7.355	8.321	7.417	6.479	4.466	3.688	3.283
325.0	625.4	1024	1198	835.0	588.6	454.4	520.1	599.8	778.4	1026	1217	1377	1384	1407	1252	640.2	332.4	293.2	819.0	4608	9999.9	9999.9	346.9	21.36	14.73	10.75	7.736	6.379	5.392	4.997	4.135	3.541	3.144	3.097	2.646	2.476	2.250	2.068	1.965	1.846	1.658	1.842	1.670	1.948	2.566	2.889	3.018	3.788	4.543	3.233	2.850	2.922	2.518	2.312	2.430	2.438	2.662	3.207	3.113	3.541	3.651	4.162	4.937	5.630	5.242	6.636	6.361	6.802	6.968	7.208	7.150	7.296	7.201	7.612	6.134	4.499	3.043
330.0	686.8	1127	1375	1019	669.5	513.5	563.0	640.4	818.6	1067	1276	1425	1440	1367	1184	857.5	429.5	237.6	294.0	1129	4343	9999.9	9999.9	1629	31.57	14.48	10.55	8.246	6.856	5.627	4.974	3.914	3.479	3.448	2.921	2.487	2.333	2.095	2.098	1.809	1.840	1.907	1.834	1.974	2.395	2.864	3.296	4.201	4.968	3.963	3.384	3.393	2.833	2.574	2.700	2.562	2.706	3.200	3.393	3.680	3.923	4.418	5.419	5.652	5.622	7.097	6.623	6.698	7.641	7.381	7.380	7.336	6.736	6.796	6.249	5.883	4.770
335.0	714.9	1158	1472	1132	760.7	560.6	603.0	678.0	842.5	1082	1294	1436	1456	1377	1129	815.3	637.1	330.0	212.3	360.4	1044	2559	9999.9	9999.9	2595	35.53	15.53	11.09	8.691	7.518	5.664	4.988	3.975	3.903	3.189	2.711	2.635	2.177	2.334	1.975	2.114	1.989	1.950	2.004	2.384	2.973	3.492	4.234	5.148	4.375	3.768	3.637	3.067	2.717	2.786	2.906	3.042	3.239	3.509	3.675	3.929	4.596	5.500	5.862	5.708	6.927	6.733	6.839	7.609	7.649	7.281	7.180	6.439	6.779	5.509	5.001	5.031
340.0	722.4	1192	1487	1184	795.9	610.6	626.4	684.4	849.9	1074	1267	1405	1429	1367	1117	757.9	628.4	484.4	241.2	207.1	324.4	640.7	2998	9999.9	9999.9	393.0	28.06	14.25	10.99	8.389	6.501	5.494	4.466	4.074	3.390	2.894	2.847	2.314	2.147	2.026	1.998	2.076	2.191	2.014	2.426	2.936	3.692	4.402	5.386	4.493	3.693	3.946	3.531	3.048	2.873	2.823	3.349	3.290	3.639	3.522	4.083	4.612	5.298	5.802	5.893	6.779	6.662	6.535	7.659	7.384	7.355	6.987	6.367	6.751	5.676	4.994	4.729
345.0	715.9	1171	1480	1188	826.0	634.6	645.0	677.8	826.1	1036	1238	1345	1379	1322	1089	740.3	536.6	538.7	346.2	202.5	181.8	226.9	738.3	3804	9999.9	9999.9	334.6	20.62	13.22	10.03	7.412	5.844	4.493	4.241	3.634	2.976	2.826	2.310	2.216	1.971	1.837	2.251	2.030	2.036	2.253	2.920	3.453	4.302	5.236	4.487	3.811	4.216	3.543	3.035	3.107	3.164	3.437	3.526	3.446	3.647	4.033	4.655	5.120	5.674	5.891	6.264	6.372	6.661	7.246	7.283	6.927	6.896	6.675	6.646	5.431	4.898	4.566
350.0	667.3	1063	1357	1147	848.6	659.6	649.4	676.3	797.6	961.8	1150	1243	1272	1226	1032	722.2	513.3	455.6	445.5	313.9	190.4	158.6	246.9	919.1	3814	9999.9	9999.9	1545	30.61	13.70	9.874	7.331	5.379	4.468	3.936	3.173	2.971	2.617	2.382	2.026	1.852	1.967	2.079	2.083	2.337	2.772	3.139	4.128	4.846	3.988	3.699	3.833	3.510	3.312	3.066	2.957	3.425	3.517	3.488	3.623	3.907	4.330	4.617	5.194	5.242	5.993	5.975	6.007	6.639	6.867	6.779	6.506	6.323	6.231	5.188	4.771	4.303
355.0	607.5	939.7	1251	1094	868.4	694.7	661.3	683.6	776.6	906.5	1052	1132	1158	1124	968.2	715.5	527.7	437.9	396.7	425.4	294.3	181.1	164.1	289.1	911.5	2427	9894	9999.9	2719	37.04	13.16	9.562	6.795	5.731	4.532	3.679	3.142	2.852	2.607	2.165	2.050	1.959	2.041	2.182	2.115	2.561	3.010	3.724	4.281	4.014	3.453	3.965	3.476	3.351	3.069	3.164	3.305	3.501	3.503	3.539	3.567	4.199	4.383	5.007	5.075	5.669	5.360	5.377	5.885	5.881	5.865	6.081	5.803	5.570	5.161	4.872	4.187
360.0	579.7	881.6	1140	1053	858.5	704.6	664.9	679.8	766.6	870.5	982.7	1059	1071	1057	912.8	698.2	538.2	452.5	391.3	403.2	399.7	243.8	171.2	168.4	279.3	601.2	2619	9999.9	9999.9	2251	29.90	12.78	9.078	6.900	5.552	4.152	3.405	2.914	2.673	2.296	2.177	1.922	2.073	2.019	2.253	2.514	2.903	3.322	4.239	3.614	3.326	3.799	3.450	3.336	3.222	3.177	3.567	3.553	3.366	3.574	3.813	3.831	4.158	4.716	4.804	5.437	4.974	5.120	5.580	5.557	5.466	5.741	5.570	5.155	4.934	4.888	4.194
365.0	542.7	831.8	1066	1014	841.0	718.0	677.8	685.3	742.6	833.5	940.6	999.5	1007	988.7	871.2	683.5	546.8	466.4	403.8	375.0	408.7	343.2	208.0	161.2	156.3	203.3	641.4	3169	9999.9	9999.9	354.4	21.45	11.36	8.354	6.428	4.681	3.783	2.996	2.843	2.443	2.148	2.077	2.040	1.991	1.968	2.432	2.660	3.588	4.100	3.438	3.169	3.704	3.503	3.384	3.183	3.387	3.662	3.860	3.304	3.531	3.914	3.965	4.137	4.500	4.762	5.057	4.648	4.798	5.260	5.226	5.284	5.492	5.084	5.141	4.751	4.855	4.170
370.0	503.3	758.3	977.3	957.3	831.7	730.7	686.2	689.3	716.9	792.7	866.3	906.4	915.6	907.6	813.0	664.6	554.9	487.5	435.4	390.6	373.0	385.9	318.9	206.7	157.4	140.5	214.3	763.7	3304	9999.9	9999.9	5375	29.00	12.23	8.263	5.863	4.622	3.434	3.053	2.734	2.244	2.270	2.105	2.046	2.092	2.403	2.567	3.251	3.674	3.346	3.153	3.695	3.458	3.379	3.264	3.356	3.556	3.691	3.508	3.656	3.676	3.729	4.019	4.124	4.249	4.754	4.368	4.468	4.888	4.851	4.869	5.125	4.705	4.995	4.624	4.440	4.143
375.0	477.5	716.5	904.9	894.8	814.4	743.6	694.6	686.8	703.4	755.4	812.6	844.7	851.3	832.4	758.4	641.9	562.6	508.6	466.4	420.4	383.4	362.1	375.4	308.8	198.2	155.3	140.4	241.5	790.4	2360	8599	9999.9	2544	35.28	11.94	7.860	6.210	4.180	3.597	2.963	2.520	2.517	2.133	2.127	2.222	2.259	2.366	3.102	3.234	3.266	3.011	3.448	3.481	3.491	3.344	3.336	3.766	3.597	3.390	3.440	3.508	3.766	3.941	3.986	4.213	4.409	4.013	4.285	4.383	4.661	4.591	4.547	4.497	4.591	4.310	4.238	4.241
380.0	455.5	670.3	845.5	889.5	809.0	740.6	700.5	675.2	692.9	724.9	782.6	794.2	803.2	785.8	721.4	625.1	561.7	517.6	483.1	437.0	399.9	362.2	361.2	372.9	260.7	179.3	143.8	141.0	242.1	578.4	2215	9999.9	9999.9	2136	27.33	9.929	7.434	4.852	4.059	3.341	2.731	2.639	2.244	2.123	2.199	2.428	2.284	2.889	3.414	3.083	2.940	3.413	3.453	3.399	3.349	3.264	3.572	3.422	3.436	3.517	3.484	3.803	3.811	3.649	3.877	4.247	3.836	4.223	4.288	4.522	4.217	4.376	4.169	4.539	4.076	4.244	4.011
385.0	417.3	657.0	809.9	845.6	807.1	738.6	699.5	667.3	678.6	701.7	742.3	758.9	764.2	753.2	689.9	610.7	556.8	527.6	489.9	457.5	417.1	382.1	351.9	364.8	334.3	220.3	164.9	134.8	133.8	191.0	543.5	2822	9999.9	9999.9	303.4	18.67	9.206	5.966	4.912	3.869	3.030	2.909	2.327	2.205	2.223	2.539	2.487	2.889	3.165	2.934	2.934	3.250	3.331	3.521	3.421	3.276	3.477	3.393	3.318	3.522	3.333	3.609	3.583	3.492	3.689	3.930	3.804	3.675	4.210	4.384	4.299	4.194	3.978	4.408	3.931	4.098	3.978
390.0	412.9	607.0	770.6	815.6	793.2	744.6	702.0	674.4	667.2	692.0	707.8	724.3	719.7	708.6	658.8	595.9	554.2	529.4	497.5	471.1	435.3	401.4	366.8	347.3	349.9	305.8	214.1	162.4	136.5	127.8	187.0	679.6	2892	9999.9	9999.9	4835	24.57	8.816	6.146	4.851	3.559	3.379	2.440	2.376	2.437	2.582	2.513	2.928	3.146	2.854	2.827	3.286	3.291	3.439	3.386	3.297	3.383	3.477	3.562	3.390	3.432	3.531	3.585	3.551	3.643	3.931	3.710	3.596	3.910	3.958	3.984	4.012	4.058	4.070	3.823	3.996	3.984
395.0	400.7	587.4	729.2	798.9	771.3	739.6	698.7	674.9	657.0	668.9	687.7	685.5	685.2	676.7	635.5	582.6	548.7	522.9	505.5	478.3	451.9	418.9	389.2	359.7	335.7	337.7	297.1	207.3	163.6	140.5	128.6	214.5	692.7	2317	6835	9999.9	2171	29.66	8.848	6.337	4.532	4.098	2.921	2.792	2.597	2.826	2.648	2.859	3.150	2.837	2.743	3.162	3.481	3.414	3.450	3.465	3.357	3.481	3.685	3.203	3.405	3.320	3.613	3.590	3.470	3.497	3.496	3.524	3.627	3.619	4.023	3.967	3.817	3.949	3.703	3.725	3.851
400.0	380.5	555.9	720.2	775.7	756.3	734.4	700.0	675.9	658.7	662.4	672.0	670.8	665.1	652.0	617.4	567.0	541.8	519.7	502.1	479.0	457.1	425.7	401.2	368.3	342.5	324.9	334.9	262.7	188.7	157.6	128.0	122.2	209.0	561.5	1716	8649	9999.9	1850	23.55	7.852	5.555	4.916	3.366	2.973	2.785	2.750	2.814	2.854	3.113	2.927	2.818	3.206	3.389	3.212	3.433	3.340	3.526	3.318	3.604	3.280	3.389	3.450	3.462	3.408	3.484	3.498	3.556	3.492	3.525	3.402	3.762	3.792	3.593	3.992	3.797	3.715	3.920
405.0	368.2	547.3	702.9	754.4	751.4	737.7	691.4	667.0	668.4	653.5	662.7	655.0	640.5	635.0	597.7	551.2	528.8	510.1	494.6	476.8	456.9	433.2	407.2	379.2	349.3	322.0	323.3	311.6	223.8	174.6	139.3	109.7	108.3	172.5	421.5	2325	9999.9	9999.9	1398	16.66	6.635	5.597	3.904	3.279	2.958	2.745	2.807	2.886	2.999	2.769	2.910	3.135	3.252	3.372	3.416	3.380	3.358	3.466	3.816	3.476	3.183	3.564	3.312	3.424	3.451	3.443	3.502	3.390	3.496	3.276	3.449	3.601	3.541	3.660	3.675	3.627	4.003
410.0	356.6	518.2	670.8	732.3	755.3	726.3	694.7	672.3	660.1	640.9	644.8	636.5	616.2	611.7	573.7	527.2	510.1	497.3	480.7	469.2	450.4	430.7	412.4	388.0	361.6	332.1	311.5	309.3	284.7	215.1	159.8	121.4	98.49	95.95	137.9	549.7	2680	8058	9999.9	3893	21.41	7.736	4.781	4.049	3.316	3.257	2.836	3.038	3.123	2.812	2.818	3.303	3.272	3.331	3.260	3.341	3.558	3.559	3.475	3.529	3.397	3.393	3.438	3.380	3.254	3.491	3.376	3.450	3.424	3.515	3.410	3.515	3.522	3.823	3.450	3.587	3.561
415.0	354.4	516.4	645.6	702.3	716.7	709.5	684.9	686.4	650.8	634.0	634.7	623.5	595.2	585.1	544.4	505.9	483.6	479.6	466.0	453.3	434.0	424.4	404.4	388.3	364.3	341.6	314.9	290.3	294.1	272.8	190.8	137.9	107.7	90.59	83.37	157.6	622.2	1844	5228	9999.9	1975	27.26	6.993	5.163	3.904	3.635	3.198	3.039	3.277	2.725	2.795	3.039	3.326	3.348	3.238	3.562	3.560	3.511	3.445	3.338	3.336	3.375	3.263	3.308	3.202	3.253	3.151	3.352	3.309	3.496	3.261	3.311	3.401	3.467	3.469	3.492	3.512
