Sample:	'1
File name:	Default_20230428_130608.FD3
Run date:	'12:59:47, 04/28/2023
Operator:	user
Comment:	'

Instrument
Model:	F-2700 FL Spectrophotometer
Serial number:	2190-003
ROM Version:	4J14000 07

Instrument parameters
Measurement type:	3-D scan
Data mode:	Fluorescence
EX  Start WL:	220.0 nm
EX  End WL:	600.0 nm
EX Sampling interval:	5.0 nm
EM  Start WL:	230.0 nm
EM  End WL:	650.0 nm
EM Sampling interval:	5.0 nm
Scan speed:	12000 nm/min
EX Slit:	5.0 nm
EM Slit:	5.0 nm
PMT Voltage:	700 V
Response:	Auto 
Corrected spectra:	Off
Contour interval:	50.000

Peak integration
Integration method:	Rectangular
Sensitivity:	1
Threshold:	1.000

Peaks
No.	ApexEX/EM(nm)	Height(Data)
1	225.0/570.0	55.62
2	225.0/580.0	57.72
3	225.0/615.0	49.52
4	230.0/330.0	236.1
5	230.0/345.0	231.2
6	230.0/540.0	54.87
7	230.0/635.0	50.30
8	235.0/275.0	43.05
9	235.0/355.0	228.8
10	235.0/370.0	227.3
11	235.0/400.0	254.8
12	235.0/505.0	129.2
13	235.0/575.0	44.03
14	235.0/585.0	48.45
15	240.0/375.0	227.9
16	240.0/520.0	125.3
17	245.0/265.0	216.1
18	245.0/465.0	227.5
19	245.0/530.0	118.5
20	245.0/580.0	32.16
21	245.0/590.0	26.97
22	245.0/625.0	28.52
23	250.0/545.0	114.6
24	250.0/605.0	28.53
25	250.0/630.0	26.99
26	255.0/280.0	344.1
27	255.0/555.0	102.5
28	255.0/595.0	27.94
29	260.0/285.0	452.9
30	260.0/565.0	100.0
31	260.0/610.0	27.96
32	260.0/640.0	22.83
33	265.0/290.0	482.2
34	265.0/435.0	349.0
35	265.0/445.0	336.3
36	265.0/575.0	91.80
37	270.0/235.0	15.73
38	270.0/295.0	661.7
39	270.0/410.0	355.0
40	270.0/425.0	346.5
41	270.0/590.0	84.47
42	270.0/625.0	35.43
43	275.0/240.0	12.73
44	275.0/305.0	795.3
45	275.0/420.0	354.5
46	275.0/435.0	353.3
47	275.0/605.0	86.67
48	280.0/310.0	826.7
49	280.0/335.0	529.6
50	280.0/400.0	377.8
51	280.0/615.0	72.57
52	285.0/315.0	823.7
53	285.0/390.0	382.4
54	285.0/630.0	58.65
55	290.0/320.0	778.0
56	290.0/385.0	383.8
57	290.0/640.0	52.76
58	300.0/335.0	445.7
59	305.0/340.0	463.1
60	310.0/345.0	417.9
61	310.0/410.0	308.0
62	315.0/350.0	339.3
63	320.0/360.0	351.5
64	325.0/365.0	353.3
65	330.0/370.0	307.9
66	335.0/380.0	316.6
67	340.0/385.0	325.9
68	345.0/390.0	280.1
69	350.0/395.0	279.0
70	355.0/405.0	268.1
71	360.0/410.0	246.1
72	365.0/415.0	236.7
73	370.0/425.0	221.8
74	380.0/435.0	171.0
75	385.0/445.0	157.9
76	400.0/465.0	101.9
77	405.0/470.0	83.96
78	415.0/485.0	59.52
79	420.0/490.0	52.01
80	425.0/495.0	44.58
81	430.0/505.0	40.61
82	435.0/510.0	32.28
83	440.0/515.0	27.47
84	445.0/525.0	23.97
85	475.0/565.0	6.743
86	520.0/285.0	3.431
87	525.0/290.0	3.056
88	535.0/295.0	3.695
89	535.0/360.0	3.085
90	535.0/425.0	2.983
91	545.0/300.0	3.970
92	550.0/305.0	4.182
93	560.0/310.0	3.660
94	565.0/315.0	4.294
95	575.0/320.0	3.887
96	580.0/325.0	3.502

Data points
	220.0	225.0	230.0	235.0	240.0	245.0	250.0	255.0	260.0	265.0	270.0	275.0	280.0	285.0	290.0	295.0	300.0	305.0	310.0	315.0	320.0	325.0	330.0	335.0	340.0	345.0	350.0	355.0	360.0	365.0	370.0	375.0	380.0	385.0	390.0	395.0	400.0	405.0	410.0	415.0	420.0	425.0	430.0	435.0	440.0	445.0	450.0	455.0	460.0	465.0	470.0	475.0	480.0	485.0	490.0	495.0	500.0	505.0	510.0	515.0	520.0	525.0	530.0	535.0	540.0	545.0	550.0	555.0	560.0	565.0	570.0	575.0	580.0	585.0	590.0	595.0	600.0
230.0	44.08	175.3	 1538	 1258	116.5	22.51	18.53	15.78	14.44	13.10	13.53	10.95	9.444	9.094	6.641	7.006	5.062	5.362	3.968	3.847	3.854	3.223	3.145	2.859	2.948	2.608	2.354	2.343	2.478	2.340	2.194	2.105	2.057	1.850	1.824	1.969	1.919	1.777	1.757	1.708	1.820	1.557	1.526	1.532	1.494	1.236	1.504	3.026	6.097	5.539	2.753	1.221	1.074	1.229	1.033	1.307	1.058	1.165	1.320	0.886	1.046	1.036	1.035	0.976	1.047	0.982	0.989	0.915	1.035	1.033	1.023	1.001	0.914	0.911	0.974	1.011	1.007
235.0	50.47	68.68	573.7	 1809	 1475	154.8	17.37	13.17	15.48	12.96	15.73	10.85	10.49	7.695	6.841	5.415	5.640	4.616	4.143	4.254	3.525	2.981	3.598	2.499	2.720	2.488	2.347	2.536	2.422	2.445	2.699	2.198	1.986	2.471	2.195	1.665	2.244	1.620	1.622	1.681	2.100	1.573	1.434	1.439	1.810	1.521	1.383	1.645	2.769	4.230	6.566	7.468	4.255	1.475	1.079	0.997	1.140	1.135	1.089	0.749	1.275	0.992	0.880	1.079	1.161	1.010	1.041	1.012	0.811	1.049	0.937	0.940	1.019	0.976	1.043	0.742	1.039
240.0	51.93	72.56	154.9	870.6	 2675	 1309	99.60	22.39	14.73	11.79	10.86	12.73	9.583	6.823	7.007	6.793	6.169	4.128	4.790	4.297	3.375	4.032	3.970	2.557	2.996	2.380	2.935	2.520	2.573	2.501	2.347	2.183	2.403	2.209	1.934	1.921	2.116	2.351	1.893	1.683	1.577	1.739	1.407	1.569	1.995	1.313	1.261	1.748	1.580	1.899	3.740	8.547	10.81	8.208	2.889	1.219	0.994	1.032	1.009	0.855	0.829	0.947	1.085	0.912	1.014	1.237	0.865	0.904	0.942	0.935	1.150	0.892	1.121	1.084	0.928	0.946	1.065
245.0	50.25	87.92	83.44	242.9	 1594	 3287	 1149	52.04	18.21	13.19	12.50	11.26	9.724	6.970	7.066	7.778	5.706	4.460	4.851	4.648	3.815	3.605	3.838	2.902	2.370	2.765	2.951	1.841	2.280	2.049	1.996	1.714	1.931	2.394	1.547	1.770	1.726	1.994	2.023	1.815	1.662	1.504	1.497	1.928	1.750	1.183	1.389	1.756	1.237	1.240	1.836	3.243	7.369	13.38	12.89	12.77	2.229	0.844	1.283	1.035	0.877	1.025	0.977	0.762	0.901	0.924	1.009	1.096	1.128	1.297	0.958	0.885	0.939	0.863	0.699	0.798	0.831
250.0	42.37	56.99	92.24	130.7	424.7	 1734	 3547	 2585	363.0	17.43	14.37	13.37	10.47	9.124	7.074	6.697	6.597	5.187	3.900	4.810	3.558	3.878	3.226	2.810	2.830	2.940	2.824	2.509	2.537	2.671	2.313	2.112	2.011	2.553	1.884	1.688	1.828	1.864	1.794	1.740	1.613	1.538	1.326	1.617	1.510	1.464	1.410	1.648	1.618	1.255	1.539	1.568	2.822	4.964	8.267	23.72	15.83	13.47	6.802	2.112	1.315	1.133	0.911	1.022	0.849	1.051	1.024	0.887	0.863	1.006	1.066	0.996	1.158	0.961	0.999	0.929	1.009
255.0	45.98	42.79	61.93	144.4	194.2	412.5	 1305	 5082	 4632	473.3	20.24	17.60	12.12	9.997	8.152	6.769	6.452	5.094	4.286	4.363	3.646	3.160	3.165	3.172	2.322	2.779	2.814	2.973	2.681	2.151	2.604	2.235	2.115	2.216	1.411	1.542	1.838	1.512	1.379	1.833	1.445	1.895	1.822	1.565	1.557	1.476	1.405	1.522	1.401	1.007	1.487	1.724	1.471	2.046	2.792	6.609	6.831	13.85	25.63	22.82	10.01	2.094	1.102	1.222	0.883	0.868	1.097	0.793	0.829	0.848	0.994	0.767	1.232	1.376	1.226	1.009	0.907
260.0	44.15	47.27	40.39	96.08	209.1	168.6	325.9	 2278	 7089	 4490	277.5	22.12	16.15	10.60	9.591	7.070	6.371	5.816	3.951	4.318	3.881	3.350	3.122	3.409	2.997	2.568	2.518	2.433	2.610	2.170	2.380	2.156	2.219	1.958	1.870	1.720	1.834	1.445	1.814	1.849	1.561	1.533	1.655	1.106	1.516	1.244	1.705	1.344	1.464	1.167	1.305	1.804	1.925	1.878	1.528	2.602	2.336	4.625	12.59	26.14	35.21	23.10	6.066	1.315	0.716	1.150	0.855	0.911	0.827	0.928	0.906	0.853	0.994	0.821	0.901	1.068	1.042
265.0	45.61	40.49	49.35	47.62	149.2	216.1	121.0	582.3	 3600	 9192	 3800	118.5	17.89	15.46	10.62	8.355	8.771	6.703	4.394	5.713	4.786	4.408	3.688	3.114	3.220	2.955	2.816	3.054	2.893	2.608	2.554	2.112	2.273	1.853	1.462	1.414	1.472	1.421	1.668	1.557	1.488	1.692	1.516	1.325	2.026	1.236	1.655	1.245	1.250	1.111	1.097	1.588	1.557	2.544	2.049	1.853	1.603	1.977	3.858	8.634	21.37	36.95	36.10	16.90	2.461	0.941	0.881	0.911	1.121	1.015	0.934	0.789	0.742	0.913	0.829	1.135	0.966
270.0	44.86	41.89	36.53	36.31	65.22	169.7	233.5	208.0	891.0	 4033	 7921	 4174	374.2	19.34	12.41	10.84	7.463	7.102	5.500	4.972	4.687	3.776	3.737	3.192	3.252	2.985	2.881	2.678	3.091	2.613	2.339	2.043	2.518	1.670	2.198	1.727	1.728	1.599	1.473	1.527	1.445	1.497	1.607	1.523	1.954	1.327	1.465	1.608	1.209	1.143	1.207	1.343	1.291	1.522	1.895	2.121	2.115	1.473	1.872	2.620	5.937	11.59	21.08	31.53	34.43	26.52	12.31	2.215	1.125	0.977	1.036	1.054	0.786	1.070	0.823	1.080	0.958
275.0	45.41	49.80	38.97	43.05	38.26	63.45	197.5	337.4	272.7	936.5	 2560	 9857	 6486	471.3	15.21	12.88	9.584	7.629	6.428	5.734	4.342	4.556	4.347	3.599	2.909	3.355	2.652	2.722	3.239	2.782	2.398	2.527	2.183	1.934	2.084	1.700	1.707	1.429	1.691	1.535	1.220	1.516	1.821	1.792	1.623	1.587	1.546	1.485	1.197	1.155	1.109	1.312	1.142	1.426	1.558	1.315	2.411	2.623	2.347	2.037	2.382	3.515	5.952	7.912	13.52	30.57	51.27	40.22	12.23	1.547	1.316	0.827	1.026	1.051	0.964	1.123	1.134
280.0	56.61	50.98	66.11	36.03	35.06	36.22	87.01	344.1	325.1	264.5	630.2	 3752	9999.9	 5332	285.3	17.67	11.26	9.425	7.480	6.773	4.065	4.981	4.062	3.299	2.852	3.840	2.922	2.424	3.289	2.798	2.668	2.543	2.388	2.554	1.958	1.827	1.539	1.520	1.849	1.661	1.439	1.223	1.623	1.392	1.576	1.882	1.449	1.184	1.328	1.260	1.307	1.298	1.045	1.297	1.217	1.267	1.584	1.747	2.714	2.199	1.889	1.755	2.355	2.709	3.939	8.904	23.89	48.46	57.85	29.46	6.276	1.283	1.114	1.179	1.041	1.044	1.078
285.0	62.27	65.99	71.16	44.05	38.91	32.37	50.23	170.7	452.9	251.2	203.4	945.3	 5170	9999.9	 3954	121.8	15.60	10.06	9.182	6.732	5.038	4.744	3.794	3.686	3.079	4.439	3.198	2.993	2.756	2.846	2.168	2.950	2.932	2.183	1.808	1.753	2.242	1.391	1.855	1.860	1.595	1.012	1.289	1.620	1.526	1.620	1.725	1.256	1.199	1.356	1.236	1.150	1.368	1.035	1.102	1.078	1.380	1.369	2.004	2.709	3.431	2.201	1.646	1.375	1.907	2.913	6.431	15.84	38.44	58.16	47.75	17.41	2.691	1.093	1.013	1.014	1.208
290.0	72.04	80.63	80.61	62.53	47.39	38.17	48.73	81.84	235.9	482.2	317.7	326.7	 1339	 4880	9999.9	 7752	241.1	15.47	10.43	8.051	5.721	5.569	5.018	4.137	4.026	4.116	3.032	3.043	2.492	2.828	2.461	2.898	2.567	2.519	2.386	1.912	1.915	1.795	1.624	1.719	1.677	1.498	1.427	1.582	1.673	1.540	1.603	1.608	1.283	1.429	1.278	1.423	1.237	1.313	1.112	1.300	1.501	1.346	1.577	1.772	2.450	3.056	2.783	2.360	1.662	1.802	2.527	4.726	10.28	18.94	32.23	42.94	42.80	30.44	11.71	2.610	1.004
295.0	87.75	101.1	93.60	82.31	59.90	53.87	57.76	71.30	117.9	275.7	661.7	414.0	487.7	 1234	 3016	9999.9	9999.9	305.4	15.35	10.58	8.213	6.435	5.165	4.670	3.951	3.451	3.269	2.946	3.137	3.037	2.880	3.046	2.015	2.313	2.295	2.463	1.951	1.811	2.002	1.652	1.539	1.653	1.238	1.672	1.163	1.614	1.415	1.609	1.564	1.711	1.331	1.278	1.176	1.613	1.501	1.328	1.257	1.170	1.556	1.649	1.695	1.891	2.049	3.695	2.970	2.518	2.103	2.397	3.641	5.549	8.230	11.05	17.91	40.08	60.51	44.85	13.71
300.0	84.42	107.7	129.9	106.4	75.54	57.62	70.98	77.98	112.7	182.9	534.4	743.8	419.3	451.9	812.5	 3867	9999.9	 3273	199.7	12.90	9.933	6.637	5.316	5.119	4.354	4.701	3.757	3.329	3.021	2.076	2.778	2.274	2.609	2.336	2.060	2.387	1.741	2.039	1.890	1.876	1.638	1.483	1.611	1.886	1.209	1.660	1.450	1.513	1.526	1.575	1.305	1.526	0.882	1.408	1.512	1.212	1.428	1.361	1.471	1.866	1.578	1.715	1.568	2.531	3.152	3.970	2.824	2.009	2.102	2.716	3.064	3.478	5.240	12.11	31.03	61.93	66.23
305.0	83.80	133.1	126.1	116.8	85.61	69.38	69.53	94.43	123.1	173.9	351.3	795.3	702.9	347.8	335.9	982.3	 5259	9999.9	 2709	107.0	11.74	9.087	6.008	6.065	5.085	5.261	4.063	3.559	3.646	2.861	3.083	2.398	2.320	2.420	2.758	2.175	2.247	2.188	1.750	1.840	1.412	1.594	1.531	1.386	1.355	1.259	1.523	1.497	1.430	1.243	1.289	1.607	1.335	1.352	1.729	1.530	1.167	1.347	1.620	1.644	1.784	1.709	1.775	1.854	2.228	3.659	4.182	3.213	2.249	2.095	2.091	2.068	2.222	3.715	8.266	21.57	46.48
310.0	95.59	131.9	141.9	132.7	91.66	82.36	81.33	109.8	135.2	202.3	323.8	513.5	826.7	639.4	305.4	340.7	 1290	 5071	9999.9	 6890	171.8	14.48	8.695	6.497	5.870	4.743	4.365	4.532	3.494	3.313	2.694	2.598	2.621	3.005	2.588	2.194	2.296	2.011	2.004	2.020	1.616	1.625	1.695	1.536	1.749	1.655	1.492	1.609	1.519	1.354	1.300	1.656	1.451	1.497	1.318	1.412	1.327	1.581	1.647	1.792	1.815	1.638	2.126	1.805	1.813	2.585	3.249	3.489	3.660	3.281	2.365	1.915	1.725	1.837	2.817	5.776	11.98
315.0	112.1	142.2	190.4	140.8	107.4	101.6	95.50	125.5	165.6	224.3	343.8	426.6	584.5	823.7	571.6	240.2	367.0	 1181	 3021	9999.9	 9515	232.0	12.61	8.919	6.946	5.377	4.763	4.503	3.864	4.079	3.171	3.286	2.971	3.085	2.549	1.970	2.301	2.077	2.059	2.041	1.664	1.722	2.308	1.680	2.040	1.891	1.631	1.771	2.206	1.299	1.536	1.596	1.552	1.574	1.252	1.726	1.683	1.296	1.927	1.688	2.009	1.764	2.090	2.125	2.164	2.221	2.239	2.329	3.043	4.294	4.133	3.012	1.787	1.404	1.818	2.123	3.738
320.0	102.8	147.4	215.0	156.8	123.0	106.3	110.3	131.4	186.3	235.0	378.3	411.4	513.8	642.3	778.0	359.0	180.4	324.8	722.9	 3959	9999.9	 6868	161.5	11.27	9.094	6.507	5.068	3.927	3.657	4.338	3.315	2.841	3.157	3.239	2.572	1.827	2.627	2.158	2.208	1.547	1.790	1.489	2.270	1.627	1.821	1.610	1.853	1.819	1.793	1.133	1.490	1.861	1.607	1.742	1.485	1.367	1.547	1.598	1.727	1.973	1.817	1.869	2.373	2.117	2.420	2.244	2.453	2.569	2.460	3.152	3.200	3.887	3.063	1.819	1.686	1.548	1.969
325.0	98.78	154.1	215.7	176.1	124.2	118.5	131.4	146.8	190.1	251.2	398.2	435.7	500.8	522.1	662.6	588.3	199.5	140.4	210.6	954.5	 5339	9999.9	 2047	89.52	11.05	7.535	5.415	4.840	4.511	4.056	3.358	3.298	2.809	3.404	2.639	2.259	2.056	2.366	2.106	1.756	1.910	1.424	2.515	1.581	1.316	1.996	1.390	1.932	2.033	1.456	1.540	1.855	1.501	1.890	1.429	1.475	1.727	1.721	2.139	1.758	1.726	2.220	2.190	2.246	2.374	2.399	2.055	2.527	2.626	2.517	2.577	3.209	3.502	3.145	2.473	2.025	1.566
330.0	114.8	165.1	236.1	206.2	142.7	126.2	124.1	160.9	198.6	270.5	395.3	455.7	521.1	494.7	474.9	544.1	434.4	170.9	107.6	258.1	 1284	 4914	9999.9	 5973	136.4	13.53	7.441	6.588	4.717	4.953	4.025	3.486	3.081	3.234	2.727	2.615	1.968	2.533	1.758	2.086	1.538	1.870	2.163	1.467	1.966	2.046	1.540	1.905	1.924	1.561	1.601	1.775	1.698	1.662	1.739	1.843	1.789	1.749	2.210	1.983	1.714	2.049	2.167	2.531	2.437	2.373	2.290	2.484	2.705	2.388	2.494	2.203	2.539	2.731	2.829	2.589	2.223
335.0	117.2	201.8	223.4	220.3	152.4	134.3	137.5	167.5	208.9	269.1	404.9	469.6	529.6	491.0	439.3	372.6	445.7	404.1	141.7	113.6	331.9	 1131	 3076	9999.9	 8514	189.2	11.96	7.572	7.035	5.442	4.097	3.454	3.591	3.765	3.066	2.890	2.690	2.212	2.074	1.967	1.769	2.233	2.099	1.630	2.073	2.027	1.924	1.865	2.116	1.456	1.509	1.451	1.222	1.852	1.843	1.959	1.803	1.845	1.889	2.064	1.880	2.005	2.123	2.497	2.022	2.695	2.689	2.650	2.180	2.714	2.725	2.096	2.376	2.283	2.024	2.791	3.280
340.0	116.9	193.8	215.8	219.7	156.1	159.2	149.5	173.1	227.3	289.4	395.2	457.8	506.7	495.8	430.5	337.8	307.3	463.1	273.9	107.2	129.2	295.1	728.9	 4065	9999.9	 6460	134.0	9.377	8.268	5.891	4.282	3.968	3.452	4.067	2.899	2.916	2.768	2.648	2.339	2.520	1.749	1.990	2.037	1.910	1.735	1.853	1.874	1.962	2.130	1.619	1.684	2.221	1.204	1.842	1.622	1.951	1.836	2.031	1.876	2.242	2.074	2.151	2.338	2.627	2.692	2.862	2.336	2.678	2.661	2.621	2.375	2.427	2.082	1.964	1.949	1.708	2.567
345.0	123.1	159.3	231.2	206.8	173.6	152.6	167.2	165.2	212.8	295.8	388.0	446.8	487.3	484.2	415.1	329.5	248.6	340.5	417.9	180.8	99.08	115.9	203.7	978.0	 5526	9999.9	 1671	77.04	9.253	6.894	6.156	4.140	3.841	4.558	2.919	3.182	2.419	2.647	2.130	2.285	2.070	2.181	2.288	1.763	1.868	1.761	1.786	1.948	1.842	1.651	1.601	1.877	1.413	1.783	1.665	1.617	1.638	1.953	1.694	2.208	1.994	2.375	2.363	2.524	2.683	2.471	2.301	2.443	2.247	2.726	2.793	2.371	2.364	1.892	2.163	1.746	2.152
350.0	114.1	157.3	226.8	215.3	196.4	166.9	179.2	194.3	232.7	281.3	384.1	440.9	482.4	461.8	409.1	328.0	248.2	236.8	325.8	339.3	169.4	98.08	99.58	262.1	 1348	 5283	 9466	 5353	116.9	11.34	7.062	5.409	4.370	4.318	2.928	3.134	2.503	2.678	1.893	2.158	2.040	2.164	1.917	1.983	1.964	1.956	1.895	2.045	1.653	1.735	1.513	1.596	1.639	1.588	1.536	1.516	1.606	2.045	2.029	2.219	1.995	2.202	2.639	2.534	2.522	2.322	2.345	2.405	2.458	2.910	2.651	2.297	2.290	1.906	1.933	2.048	2.003
355.0	117.9	174.5	205.6	228.8	186.1	180.3	191.7	213.7	238.4	283.0	367.7	427.2	461.9	432.9	400.6	323.7	256.8	217.7	226.2	293.1	335.2	151.9	95.22	118.8	344.8	 1215	 3156	9999.9	 7536	159.9	10.39	6.962	5.457	4.847	3.387	2.986	2.669	2.440	2.239	1.957	2.021	1.876	2.348	2.218	1.826	1.859	2.195	2.179	1.466	1.701	1.575	2.167	1.824	1.883	1.717	1.668	1.914	1.610	1.736	2.093	1.900	2.097	2.599	2.782	2.664	2.192	2.448	2.815	2.509	2.548	2.716	2.439	2.304	2.037	1.867	2.031	1.779
360.0	90.69	157.8	206.2	215.2	206.1	203.7	199.9	220.3	241.4	287.9	335.6	403.6	438.1	425.5	393.6	332.7	272.3	229.0	215.6	227.9	351.5	271.6	117.6	97.63	131.0	317.4	749.5	 4310	9999.9	 5288	108.5	8.909	6.584	5.420	3.762	3.320	2.971	2.765	2.467	1.839	2.187	2.062	2.019	2.055	2.017	1.722	2.132	1.905	1.870	1.929	1.504	1.903	1.961	2.116	1.750	1.943	1.913	2.011	1.886	1.928	2.007	2.221	2.699	3.085	2.708	2.253	2.265	2.125	2.451	2.301	2.157	1.852	2.023	2.262	2.180	2.068	2.166
365.0	86.46	157.2	190.4	221.7	193.1	204.8	222.7	228.7	238.8	287.0	345.1	389.3	424.0	413.5	381.7	336.8	290.0	250.5	221.5	208.2	275.9	353.3	196.1	107.5	98.45	121.7	207.8	 1049	 5719	9999.9	 1480	55.70	7.879	6.850	4.483	4.049	3.247	3.025	2.767	2.323	2.308	1.960	2.267	2.189	1.957	1.761	2.124	1.843	1.798	1.548	1.502	1.853	2.110	2.180	1.820	1.901	2.179	1.833	1.947	2.106	2.542	1.824	2.788	2.741	2.245	2.132	1.994	2.074	2.510	2.376	2.192	2.223	2.003	2.075	2.201	2.040	2.382
370.0	94.64	155.8	180.0	227.3	215.0	221.5	229.0	240.7	254.2	290.9	358.2	377.7	405.6	399.8	377.7	332.5	299.0	268.4	251.9	228.8	232.9	287.0	307.9	189.9	112.9	97.67	100.0	276.8	 1397	 5389	 9413	 4876	92.29	9.122	5.642	4.550	4.085	2.875	3.311	2.704	2.315	2.514	2.123	1.945	1.904	1.686	1.902	1.766	1.974	1.718	1.665	2.009	2.300	1.723	1.853	2.015	2.060	2.054	1.978	2.303	2.415	2.196	2.546	2.582	2.549	2.383	2.204	2.075	2.387	2.608	2.380	2.114	2.204	2.002	1.954	1.933	2.387
375.0	104.7	125.0	176.6	221.9	227.9	214.6	238.3	262.4	267.3	299.1	353.5	359.6	398.4	382.3	375.9	342.9	311.1	294.7	273.8	255.1	244.1	243.0	276.5	315.1	177.0	114.0	94.38	113.6	351.4	 1234	 3399	9999.9	 6384	121.9	7.841	5.612	4.364	3.464	3.523	2.693	2.530	2.374	2.292	1.697	2.009	1.946	1.742	2.418	1.798	1.639	1.452	2.139	2.236	1.883	2.083	1.999	1.829	2.252	2.035	2.367	2.066	2.418	2.480	2.948	2.572	2.316	2.084	2.049	1.912	2.661	2.122	2.394	2.239	1.959	2.044	2.270	2.333
380.0	111.5	146.2	172.1	231.5	222.6	241.5	257.0	267.7	272.7	303.8	341.4	358.0	388.5	378.8	374.5	352.0	317.6	307.7	294.6	278.5	257.6	236.5	237.6	316.6	265.3	142.6	100.9	86.23	127.5	310.3	805.8	 4841	9999.9	 4810	73.38	7.263	5.336	4.273	3.442	3.203	2.384	2.273	2.286	1.945	2.515	2.004	1.930	2.107	1.875	1.676	1.656	2.041	2.294	2.383	2.084	2.205	2.144	2.233	2.227	2.335	2.048	2.464	2.469	2.050	2.410	2.431	2.492	2.138	1.978	2.748	2.250	2.330	2.354	2.057	2.410	2.247	2.380
385.0	111.4	147.9	187.3	215.7	222.1	247.4	267.4	270.1	283.6	294.7	346.9	349.2	375.5	378.9	383.8	349.8	314.5	315.7	302.6	286.5	275.1	242.6	226.3	256.9	325.9	208.6	115.2	92.04	84.42	112.7	212.3	 1197	 6378	9999.9	 1118	28.49	5.930	5.051	3.813	3.384	2.191	2.519	2.207	2.037	2.159	1.961	2.004	2.213	1.883	1.550	1.597	1.807	2.079	1.966	1.859	2.187	2.185	2.147	2.135	2.462	1.947	2.791	2.369	1.936	2.336	2.461	2.227	2.429	2.483	2.532	2.565	1.999	2.072	2.476	2.313	2.167	2.215
390.0	102.6	142.1	192.5	228.3	248.0	254.6	266.5	282.5	295.0	314.1	346.0	354.8	376.5	382.4	363.5	351.1	321.5	316.4	310.4	291.7	278.1	262.2	240.9	237.1	265.4	280.1	185.3	114.4	90.09	82.54	90.63	299.1	 1594	 6139	 8106	 3317	67.08	6.643	5.232	4.542	3.081	2.537	2.435	2.033	2.305	2.048	1.962	1.819	1.762	1.676	1.682	1.852	2.057	2.044	1.842	2.179	2.493	2.188	2.292	2.327	2.162	2.661	2.097	2.124	2.167	2.238	2.611	2.139	2.167	1.891	2.545	2.176	2.020	2.556	2.076	2.050	2.345
395.0	93.80	132.5	194.2	241.2	232.2	280.5	272.4	292.1	313.8	319.6	358.6	351.9	375.8	376.3	357.7	344.4	328.0	321.1	308.6	291.8	288.0	268.7	252.9	238.9	234.6	250.3	279.0	172.0	115.8	87.00	75.05	108.8	385.8	 1399	 3373	 9346	 4592	84.90	6.642	5.875	3.331	3.378	3.115	2.147	2.168	1.962	2.173	2.161	1.783	2.267	1.880	2.140	1.929	1.999	2.139	2.318	2.245	2.522	2.193	2.457	2.198	2.662	2.237	2.092	2.299	2.251	2.746	2.548	2.439	1.991	2.374	2.018	2.027	2.434	2.173	1.996	2.530
400.0	107.1	154.3	191.4	254.8	227.1	268.4	284.3	298.2	312.5	332.3	347.0	361.4	377.8	367.3	358.7	341.2	322.0	313.0	305.1	296.2	293.4	285.9	260.7	246.5	231.8	217.9	268.4	239.0	148.7	101.2	79.24	73.51	120.4	339.0	804.7	 4853	 9379	 1069	52.14	6.043	4.284	3.991	3.225	2.174	2.009	1.924	2.371	2.379	1.814	2.063	2.219	2.020	1.807	2.282	2.458	2.449	2.393	2.343	2.259	2.250	2.085	2.566	2.528	2.106	2.523	2.197	2.596	2.523	2.291	2.243	2.293	1.989	2.026	2.240	1.979	2.122	2.118
