Sample:	'1
File name:	t2025022502金星科技1号车间地沟水.FD3
Run date:	'11:21:22, 02/26/2025
Operator:	Administrator
Comment:	'

Instrument
Model:	F-2700 FL Spectrophotometer
Serial number:	23B8-004
ROM Version:	4J14000 07

Instrument parameters
Measurement type:	3-D scan
Data mode:	Fluorescence
EX  Start WL:	220.0 nm
EX  End WL:	600.0 nm
EX Sampling interval:	5.0 nm
EM  Start WL:	230.0 nm
EM  End WL:	650.0 nm
EM Sampling interval:	5.0 nm
Scan speed:	12000 nm/min
EX Slit:	5.0 nm
EM Slit:	5.0 nm
PMT Voltage:	700 V
Response:	Auto 
Corrected spectra:	Off
Contour interval:	50.000

Peak integration
Integration method:	Rectangular
Sensitivity:	1
Threshold:	1.000

Peaks
No.	ApexEX/EM(nm)	Height(Data)
1	225.0/640.0	21.94
2	275.0/415.0	2899
3	330.0/420.0	3076
4	440.0/520.0	25.89
5	550.0/410.0	13.00
6	565.0/415.0	13.08

Data points
	220.0	225.0	230.0	235.0	240.0	245.0	250.0	255.0	260.0	265.0	270.0	275.0	280.0	285.0	290.0	295.0	300.0	305.0	310.0	315.0	320.0	325.0	330.0	335.0	340.0	345.0	350.0	355.0	360.0	365.0	370.0	375.0	380.0	385.0	390.0	395.0	400.0	405.0	410.0	415.0	420.0	425.0	430.0	435.0	440.0	445.0	450.0	455.0	460.0	465.0	470.0	475.0	480.0	485.0	490.0	495.0	500.0	505.0	510.0	515.0	520.0	525.0	530.0	535.0	540.0	545.0	550.0	555.0	560.0	565.0	570.0	575.0	580.0	585.0	590.0	595.0	600.0
230.0	22.44	103.6	228.9	64.13	7.437	4.711	4.067	3.560	3.119	2.786	2.758	2.526	2.122	1.979	1.784	1.454	1.419	1.377	1.321	1.358	1.338	1.395	1.313	1.398	1.176	1.058	1.059	0.986	0.937	0.926	0.829	0.784	0.792	0.669	0.631	0.624	0.578	0.517	0.506	0.525	0.459	0.422	0.459	0.445	0.448	0.446	0.477	0.874	1.026	0.807	0.449	0.342	0.357	0.333	0.328	0.351	0.327	0.337	0.353	0.322	0.338	0.339	0.348	0.312	0.314	0.312	0.319	0.292	0.302	0.303	0.310	0.338	0.318	0.333	0.314	0.359	0.330
235.0	20.06	37.96	153.7	244.3	71.15	7.895	3.884	4.076	3.553	3.331	2.970	2.388	2.403	1.567	1.775	1.388	1.235	1.251	1.246	1.290	1.350	1.417	1.317	1.490	1.117	1.041	1.035	0.967	0.955	0.880	0.889	0.768	0.748	0.760	0.679	0.620	0.556	0.551	0.537	0.478	0.438	0.461	0.443	0.420	0.473	0.497	0.391	0.475	0.703	0.792	1.077	1.026	0.538	0.349	0.346	0.366	0.319	0.325	0.314	0.368	0.333	0.288	0.306	0.304	0.311	0.321	0.330	0.326	0.306	0.307	0.306	0.334	0.389	0.357	0.308	0.379	0.333
240.0	18.84	18.69	52.16	241.6	269.8	54.68	4.925	3.555	3.168	3.156	2.970	2.522	2.279	1.830	1.865	1.730	1.162	1.531	1.206	1.288	1.387	1.459	1.373	1.353	1.270	1.257	1.071	0.878	0.979	0.869	0.867	0.836	0.781	0.741	0.737	0.635	0.570	0.528	0.553	0.446	0.471	0.486	0.542	0.388	0.449	0.489	0.375	0.407	0.465	0.453	0.739	1.530	1.830	1.138	0.512	0.405	0.329	0.316	0.338	0.314	0.311	0.330	0.323	0.378	0.355	0.329	0.346	0.310	0.316	0.302	0.267	0.312	0.376	0.303	0.281	0.361	0.326
245.0	22.28	18.10	20.26	85.75	330.1	257.1	34.40	4.086	3.775	3.026	2.721	2.321	2.216	1.954	1.727	1.595	1.445	1.315	1.425	1.290	1.598	1.503	1.404	1.408	1.175	1.190	1.052	0.947	1.213	0.925	0.871	0.824	0.846	0.688	0.651	0.602	0.599	0.581	0.522	0.522	0.493	0.451	0.502	0.438	0.431	0.440	0.337	0.411	0.356	0.352	0.408	0.777	1.482	2.062	1.630	1.002	0.459	0.358	0.368	0.313	0.315	0.359	0.313	0.369	0.314	0.312	0.306	0.280	0.321	0.304	0.299	0.326	0.314	0.294	0.271	0.329	0.325
250.0	22.64	15.71	13.63	25.60	115.7	303.3	327.5	90.82	7.306	3.224	2.983	2.733	2.481	2.056	1.785	1.649	1.740	1.454	1.402	1.396	1.524	1.463	1.448	1.523	1.238	1.117	0.995	0.955	1.121	0.854	0.965	0.728	0.735	0.721	0.678	0.583	0.584	0.544	0.517	0.594	0.492	0.472	0.463	0.472	0.428	0.462	0.400	0.421	0.366	0.347	0.311	0.436	0.605	0.957	1.421	1.893	2.263	1.610	0.969	0.475	0.366	0.360	0.348	0.351	0.347	0.304	0.286	0.299	0.297	0.332	0.311	0.304	0.345	0.337	0.303	0.319	0.359
255.0	21.75	19.06	10.78	13.30	31.04	80.66	315.2	473.8	109.7	5.123	3.112	2.609	2.375	2.368	1.938	1.618	1.742	1.597	1.388	1.759	1.399	1.417	1.500	1.278	1.253	1.148	1.130	1.089	1.044	0.906	0.857	0.837	0.792	0.681	0.692	0.590	0.619	0.492	0.471	0.497	0.516	0.453	0.486	0.454	0.434	0.448	0.408	0.396	0.389	0.345	0.275	0.342	0.461	0.453	0.565	0.734	1.241	2.214	3.291	2.565	0.988	0.448	0.330	0.322	0.315	0.336	0.354	0.308	0.306	0.321	0.304	0.326	0.329	0.318	0.322	0.325	0.347
260.0	21.12	15.50	10.17	10.44	13.73	22.31	101.9	470.1	289.1	71.74	3.394	2.831	2.405	2.325	1.865	1.563	1.482	1.534	1.422	1.472	1.507	1.494	1.405	1.415	1.330	1.163	1.142	1.074	1.019	1.017	0.852	0.831	0.796	0.738	0.732	0.651	0.593	0.514	0.524	0.576	0.491	0.502	0.492	0.421	0.405	0.478	0.394	0.433	0.381	0.345	0.278	0.365	0.378	0.328	0.392	0.415	0.549	0.876	1.983	3.071	3.225	2.275	0.775	0.369	0.377	0.302	0.356	0.292	0.338	0.312	0.309	0.308	0.371	0.330	0.342	0.312	0.329
265.0	19.21	17.48	12.35	8.401	9.749	10.51	27.60	177.2	545.3	244.5	36.83	3.012	2.688	2.080	1.886	1.638	1.537	1.433	1.522	1.391	1.501	1.588	1.560	1.375	1.354	1.310	1.307	1.035	1.163	0.889	0.911	0.803	0.906	0.773	0.683	0.577	0.520	0.556	0.470	0.512	0.539	0.522	0.512	0.408	0.522	0.433	0.395	0.415	0.380	0.344	0.278	0.346	0.368	0.346	0.323	0.345	0.422	0.476	0.723	1.225	2.392	3.955	3.421	1.700	0.567	0.314	0.324	0.300	0.305	0.298	0.338	0.301	0.348	0.303	0.360	0.300	0.440
270.0	21.24	16.62	10.19	7.430	7.397	8.354	11.48	45.25	195.4	460.1	418.4	78.91	4.666	2.288	2.008	1.755	1.516	1.516	1.591	1.529	1.574	1.626	1.529	1.417	1.210	1.208	1.250	1.096	1.113	0.982	0.942	0.832	0.836	0.855	0.676	0.624	0.586	0.558	0.511	0.529	0.481	0.479	0.506	0.471	0.473	0.433	0.417	0.424	0.371	0.397	0.299	0.353	0.393	0.342	0.317	0.311	0.372	0.388	0.430	0.548	0.826	1.489	2.214	2.906	3.017	2.633	1.350	0.500	0.331	0.337	0.345	0.333	0.345	0.321	0.325	0.312	0.369
275.0	24.33	17.95	10.50	8.255	6.862	8.809	8.901	15.81	47.72	125.1	438.5	598.8	95.18	3.635	2.480	2.239	1.631	1.507	1.715	1.708	1.547	1.509	1.512	1.375	1.518	1.214	1.412	1.172	1.162	1.010	0.946	0.884	0.879	0.850	0.729	0.670	0.670	0.595	0.535	0.521	0.465	0.462	0.599	0.453	0.458	0.465	0.420	0.432	0.416	0.331	0.350	0.332	0.354	0.349	0.324	0.384	0.386	0.388	0.411	0.377	0.435	0.589	0.797	0.923	1.332	2.567	3.955	3.543	1.571	0.529	0.313	0.368	0.342	0.313	0.325	0.347	0.338
280.0	27.18	19.19	12.23	8.048	7.181	8.290	7.881	10.86	15.82	33.74	143.3	584.9	509.9	57.09	2.745	2.124	1.818	1.568	1.518	1.615	1.631	1.522	1.594	1.437	1.509	1.193	1.400	1.210	1.172	1.057	0.903	0.846	1.036	0.836	0.741	0.670	0.648	0.538	0.510	0.524	0.501	0.499	0.514	0.508	0.473	0.496	0.408	0.453	0.423	0.349	0.303	0.343	0.397	0.390	0.370	0.363	0.368	0.388	0.396	0.349	0.366	0.403	0.435	0.463	0.594	0.888	1.867	3.282	4.258	2.639	1.162	0.438	0.358	0.350	0.308	0.337	0.325
285.0	24.27	20.80	11.69	10.85	7.816	8.590	8.207	9.918	12.20	14.05	37.58	215.5	649.9	374.6	23.30	2.149	2.019	1.792	1.510	1.617	1.708	1.621	1.904	1.458	1.713	1.275	1.316	1.104	1.071	1.073	1.016	0.915	1.031	0.801	0.778	0.748	0.678	0.576	0.462	0.534	0.553	0.429	0.535	0.515	0.540	0.502	0.449	0.422	0.399	0.355	0.338	0.396	0.358	0.343	0.348	0.353	0.404	0.389	0.370	0.327	0.339	0.355	0.419	0.355	0.407	0.499	0.682	1.165	2.363	3.460	3.770	2.268	0.693	0.359	0.309	0.318	0.308
290.0	27.82	22.27	14.55	11.21	11.23	11.95	12.23	12.30	14.12	14.00	17.68	57.03	224.9	480.9	340.2	45.69	2.834	1.899	1.621	1.611	1.722	1.738	1.556	1.489	1.541	1.369	1.305	1.158	1.074	1.071	0.978	0.974	0.955	0.827	0.836	0.713	0.637	0.613	0.584	0.541	0.546	0.440	0.525	0.517	0.505	0.515	0.472	0.452	0.416	0.393	0.331	0.387	0.372	0.380	0.380	0.401	0.457	0.392	0.358	0.396	0.360	0.348	0.435	0.348	0.398	0.428	0.447	0.562	0.815	1.193	1.927	2.759	3.000	2.621	1.626	0.673	0.347
295.0	31.25	24.30	18.49	19.01	17.37	19.29	17.98	18.26	18.52	20.60	21.24	29.36	63.71	133.6	382.9	533.2	58.10	2.623	2.089	1.755	1.881	1.884	1.864	1.672	1.673	1.488	1.313	1.292	1.065	1.121	0.956	0.836	0.954	0.977	0.827	0.732	0.678	0.632	0.592	0.665	0.498	0.509	0.477	0.542	0.445	0.523	0.482	0.423	0.425	0.403	0.386	0.434	0.385	0.379	0.352	0.390	0.405	0.373	0.429	0.401	0.364	0.393	0.457	0.459	0.359	0.431	0.406	0.411	0.515	0.567	0.747	0.908	1.121	1.859	3.690	3.945	2.266
300.0	43.19	35.98	29.33	26.36	23.74	27.79	26.59	24.59	24.45	26.04	30.26	32.45	35.45	47.63	130.7	547.4	484.9	39.00	2.211	1.829	2.027	1.978	1.745	1.484	1.358	1.524	1.310	1.323	1.174	1.079	1.083	0.815	1.028	0.849	0.836	0.882	0.688	0.641	0.606	0.553	0.512	0.487	0.489	0.503	0.452	0.537	0.541	0.469	0.389	0.437	0.382	0.415	0.374	0.408	0.453	0.429	0.442	0.433	0.476	0.490	0.382	0.451	0.438	0.452	0.444	0.517	0.454	0.463	0.468	0.459	0.480	0.593	0.585	0.761	1.433	2.935	4.407
305.0	48.99	39.79	38.88	34.26	34.78	39.01	35.43	33.44	33.70	33.36	39.50	46.04	39.45	37.01	48.14	201.9	644.6	379.3	19.60	2.126	2.120	1.923	2.115	1.671	1.649	1.494	1.363	1.240	1.253	1.058	1.015	0.959	1.079	0.776	0.758	0.831	0.675	0.664	0.629	0.624	0.566	0.472	0.579	0.544	0.464	0.513	0.504	0.474	0.405	0.456	0.451	0.402	0.400	0.470	0.492	0.460	0.500	0.419	0.516	0.473	0.533	0.490	0.456	0.489	0.552	0.512	0.607	0.533	0.566	0.535	0.479	0.509	0.492	0.522	0.634	1.055	1.903
310.0	50.65	51.46	44.44	42.10	42.72	45.95	45.31	42.13	42.30	43.77	53.51	62.09	61.66	51.44	39.60	62.39	219.1	499.9	470.1	35.82	3.319	2.174	2.056	1.953	1.803	1.629	1.513	1.529	1.344	1.211	1.106	1.039	1.177	0.909	0.884	0.825	0.697	0.683	0.656	0.604	0.556	0.482	0.565	0.517	0.511	0.529	0.497	0.500	0.448	0.465	0.484	0.481	0.443	0.543	0.509	0.545	0.600	0.528	0.489	0.546	0.493	0.522	0.546	0.526	0.555	0.629	0.611	0.625	0.584	0.581	0.577	0.587	0.528	0.538	0.517	0.578	0.784
315.0	56.04	59.53	55.82	55.83	56.45	61.76	57.18	59.33	54.98	58.54	68.61	82.26	83.67	77.47	55.03	41.62	64.48	133.7	452.7	529.8	49.47	3.024	2.374	2.303	2.110	1.612	1.632	1.433	1.420	1.379	1.322	1.214	1.139	1.024	0.912	0.822	0.713	0.662	0.638	0.665	0.598	0.553	0.574	0.588	0.543	0.549	0.591	0.549	0.463	0.464	0.470	0.599	0.540	0.648	0.564	0.614	0.632	0.627	0.559	0.607	0.551	0.569	0.526	0.575	0.686	0.657	0.635	0.706	0.651	0.653	0.660	0.758	0.706	0.682	0.622	0.541	0.546
320.0	64.40	73.71	68.05	74.42	72.37	77.76	75.24	76.22	69.32	76.77	86.70	97.13	101.8	98.34	77.52	50.40	39.64	47.04	142.1	672.0	483.0	40.18	3.144	2.632	2.127	1.964	1.977	1.506	1.569	1.418	1.522	1.306	1.258	1.014	1.041	0.993	0.694	0.775	0.646	0.718	0.605	0.589	0.677	0.581	0.598	0.638	0.598	0.564	0.563	0.492	0.472	0.528	0.641	0.674	0.659	0.755	0.670	0.711	0.673	0.622	0.645	0.563	0.673	0.723	0.757	0.726	0.732	0.711	0.715	0.782	0.794	0.832	0.847	0.815	0.708	0.613	0.539
325.0	68.45	80.97	80.44	90.07	92.85	102.7	103.6	96.47	97.55	99.23	108.4	120.3	122.8	116.0	104.9	71.87	52.81	43.04	55.52	240.2	866.4	445.3	30.99	3.440	2.681	2.310	1.987	1.789	1.737	1.580	1.439	1.310	1.321	1.084	1.011	0.908	0.763	0.808	0.673	0.742	0.602	0.646	0.651	0.594	0.667	0.608	0.615	0.646	0.615	0.538	0.535	0.621	0.628	0.762	0.650	0.793	0.794	0.796	0.825	0.715	0.784	0.866	0.731	0.810	0.831	0.834	0.897	0.775	0.857	0.841	0.818	0.860	0.924	0.931	0.846	0.719	0.644
330.0	86.93	101.7	111.3	123.7	140.4	158.2	158.0	157.9	153.3	148.5	155.7	161.6	164.9	156.7	144.0	126.6	98.81	75.06	67.72	95.16	301.3	852.5	945.6	178.6	7.972	2.974	2.415	1.990	2.065	1.587	1.606	1.378	1.307	1.151	1.019	0.993	0.766	0.833	0.775	0.780	0.633	0.727	0.592	0.618	0.633	0.732	0.646	0.671	0.645	0.633	0.620	0.807	0.818	0.868	0.916	0.928	0.980	0.932	1.095	0.927	0.983	1.032	0.948	0.971	1.026	0.995	0.976	1.045	1.016	1.096	1.056	1.051	1.018	1.178	1.092	1.091	1.041
335.0	117.5	129.9	156.2	173.9	205.6	234.8	240.4	238.3	238.5	223.3	226.4	218.2	217.3	212.0	200.4	187.9	178.5	150.2	126.6	105.1	121.2	243.4	941.4	1946	271.7	8.434	3.817	2.802	2.509	1.726	1.690	1.700	1.563	1.093	1.047	0.987	0.889	0.766	0.881	0.809	0.670	0.818	0.634	0.757	0.730	0.764	0.741	0.837	0.796	0.750	0.750	0.912	0.993	1.099	1.085	1.218	1.409	1.196	1.366	1.294	1.304	1.287	1.270	1.204	1.287	1.245	1.330	1.390	1.295	1.237	1.333	1.284	1.252	1.311	1.485	1.393	1.415
340.0	129.3	171.0	189.5	226.4	275.3	298.7	323.3	325.7	310.0	298.2	294.2	275.3	276.2	262.1	258.9	251.9	252.5	238.3	197.7	160.8	129.8	132.1	312.8	1771	2125	49.44	6.665	4.233	2.778	2.231	1.854	1.749	1.580	1.408	1.144	1.042	0.944	0.891	0.925	0.851	0.713	0.763	0.672	0.777	0.803	0.862	0.851	0.873	0.858	0.937	0.906	1.048	1.219	1.219	1.389	1.486	1.694	1.468	1.876	1.692	1.711	1.562	1.644	1.627	1.638	1.568	1.637	1.453	1.467	1.603	1.640	1.545	1.524	1.702	1.847	1.793	1.904
345.0	154.4	196.1	233.5	267.3	333.7	368.1	403.0	416.1	408.2	397.5	380.4	347.9	333.5	332.2	331.2	329.8	330.8	331.0	295.1	245.9	198.2	161.1	172.6	612.5	2474	2189	43.31	6.180	3.794	2.841	2.187	1.964	1.756	1.465	1.224	1.176	1.038	0.953	0.916	0.866	0.744	0.846	0.704	0.849	0.847	0.898	0.860	0.986	0.840	0.948	0.915	1.258	1.337	1.513	1.653	1.740	1.966	1.784	1.881	2.134	1.952	2.165	2.050	1.822	2.202	1.894	1.878	1.777	1.837	1.849	1.883	1.904	2.012	2.126	2.125	2.321	2.470
350.0	189.0	240.3	280.4	343.2	406.5	481.1	532.6	553.9	565.3	549.0	519.6	476.4	446.3	443.4	451.0	466.1	470.5	469.9	458.0	412.4	342.1	290.3	247.5	295.9	826.7	2341	2850	831.4	16.87	4.389	3.155	2.537	2.197	1.722	1.472	1.294	1.094	1.085	0.991	0.862	0.810	0.863	0.808	0.875	0.887	0.934	0.965	1.125	1.050	1.120	1.145	1.484	1.702	1.791	2.039	2.057	2.334	2.420	2.538	2.763	2.603	2.755	2.657	2.638	2.723	2.402	2.406	2.453	2.324	2.368	2.479	2.541	2.534	2.726	2.789	2.927	3.288
355.0	230.2	289.7	349.7	427.4	504.9	597.3	680.5	736.6	757.3	744.9	717.8	648.8	603.0	593.6	603.4	618.9	634.9	640.9	632.6	606.1	544.4	481.2	418.3	356.3	373.8	651.6	2101	4603	366.4	20.10	5.239	3.606	2.978	2.161	1.798	1.662	1.232	1.136	1.042	1.020	0.894	0.886	0.929	0.966	1.147	0.996	1.113	1.207	1.239	1.261	1.287	1.731	1.880	2.059	2.506	2.587	2.904	2.995	3.281	3.406	3.401	3.590	3.404	3.577	3.384	3.382	3.342	3.104	3.019	3.030	3.275	3.246	3.208	3.306	3.567	3.746	4.249
360.0	278.6	329.6	401.3	485.5	579.5	691.8	793.9	868.4	917.7	918.9	886.6	817.0	757.2	727.7	738.1	756.2	773.1	796.5	796.5	792.6	762.7	686.8	602.7	479.1	366.5	317.4	633.0	3438	5474	328.4	13.67	4.953	3.507	2.674	2.031	1.936	1.381	1.307	1.198	1.059	1.029	1.017	1.091	1.092	1.184	1.284	1.310	1.337	1.366	1.417	1.537	1.877	2.100	2.422	2.724	2.956	3.428	3.543	3.901	3.944	3.857	4.477	4.192	4.451	4.075	4.405	3.782	3.986	3.775	3.648	3.651	3.893	4.168	4.083	4.451	4.602	4.982
365.0	313.7	385.4	436.3	551.0	661.4	785.6	888.2	994.2	1067	1095	1073	997.3	915.0	878.9	877.4	901.9	918.0	939.8	959.5	975.5	968.6	914.1	805.4	662.5	469.6	323.5	289.2	1038	5307	3009	274.9	9.005	5.039	3.683	2.538	2.140	1.589	1.431	1.327	1.204	1.059	1.107	1.151	1.161	1.290	1.232	1.359	1.516	1.457	1.494	1.700	2.088	2.376	2.709	2.981	3.094	3.779	4.052	4.177	4.398	4.727	5.086	5.081	5.056	5.068	5.150	4.464	4.655	4.493	4.556	4.646	4.682	4.777	4.913	4.963	5.356	6.219
370.0	357.8	432.1	516.7	625.1	739.1	876.3	1013	1152	1272	1332	1339	1263	1161	1103	1073	1083	1093	1128	1182	1216	1229	1216	1126	943.1	691.3	466.0	308.2	372.0	1547	3729	4575	1198	20.56	5.935	3.876	2.866	2.028	1.730	1.574	1.404	1.201	1.293	1.317	1.245	1.418	1.440	1.465	1.614	1.704	1.669	1.862	2.438	2.480	3.132	3.184	3.633	4.023	4.542	4.808	5.142	5.288	5.708	6.051	5.976	6.027	6.089	5.790	5.896	5.776	5.720	5.774	5.795	5.910	5.940	6.425	6.393	6.929
375.0	394.7	483.8	587.3	698.4	809.4	969.6	1143	1317	1483	1577	1622	1556	1428	1347	1273	1269	1273	1316	1398	1474	1512	1513	1457	1265	951.2	660.0	425.0	305.4	476.1	935.8	2996	7292	1966	25.58	6.426	4.188	3.083	2.260	1.997	1.729	1.500	1.260	1.446	1.443	1.411	1.621	1.710	1.669	1.973	1.929	2.048	2.569	2.890	3.218	3.629	4.101	4.571	5.196	5.332	5.817	6.107	6.423	6.770	7.151	7.067	7.395	6.892	7.189	6.948	6.894	7.204	6.967	7.085	7.050	7.326	7.803	7.722
380.0	416.4	518.4	622.6	740.0	858.4	1025	1218	1415	1615	1748	1832	1771	1648	1527	1426	1405	1405	1454	1563	1666	1737	1742	1690	1520	1177	826.6	553.8	358.6	295.0	326.8	817.6	4734	8424	314.8	18.88	5.854	4.003	2.922	2.302	1.836	1.688	1.575	1.504	1.636	1.555	1.715	1.774	1.854	1.926	1.924	2.141	2.757	3.053	3.351	3.854	4.248	4.794	5.403	5.826	6.194	6.806	7.120	7.911	8.096	7.758	7.972	8.110	8.004	7.965	7.969	7.857	7.783	7.953	8.033	7.922	8.344	8.757
385.0	428.7	555.1	655.3	793.6	922.4	1074	1274	1509	1756	1927	2027	1999	1839	1696	1574	1525	1521	1587	1714	1839	1934	1964	1911	1725	1400	1007	690.8	445.4	323.0	243.1	294.6	1317	6775	7049	271.2	12.89	5.374	3.751	2.722	2.144	1.839	1.777	1.624	1.838	1.852	1.746	1.873	2.149	2.107	1.911	2.169	2.896	3.271	3.590	4.052	4.324	4.990	5.512	6.096	6.714	7.273	7.380	8.472	8.516	8.939	8.830	9.010	8.912	8.946	8.764	8.886	9.091	8.629	8.720	8.630	8.973	9.409
390.0	436.8	572.1	677.6	838.8	975.1	1123	1343	1614	1896	2111	2275	2255	2097	1899	1756	1690	1677	1756	1906	2063	2190	2249	2196	2003	1661	1273	899.6	628.1	453.6	331.9	256.8	416.6	1858	5056	6387	1085	20.07	6.107	3.977	2.796	2.269	2.179	1.884	1.939	1.922	1.968	1.986	2.168	2.292	2.249	2.360	3.094	3.455	3.684	4.078	4.450	5.120	5.735	6.375	7.009	7.834	8.054	9.132	9.524	9.922	10.15	10.22	10.08	10.01	9.863	10.12	9.821	9.916	9.716	9.825	9.984	10.26
395.0	451.8	581.2	726.1	885.5	1014	1174	1388	1687	2015	2287	2482	2491	2336	2118	1922	1837	1824	1910	2088	2277	2439	2514	2487	2285	1917	1527	1161	847.2	632.6	478.9	354.1	292.6	539.8	1225	3380	7977	1828	25.29	6.145	4.217	2.948	2.771	2.158	2.172	1.913	2.016	2.162	2.406	2.288	2.342	2.549	3.240	3.677	3.979	4.321	4.517	5.316	5.804	6.618	7.108	8.172	8.643	9.204	10.06	10.92	10.82	11.80	10.95	11.14	11.36	11.27	10.99	10.85	10.90	10.64	10.68	11.06
400.0	465.0	607.9	755.0	923.9	1040	1204	1405	1732	2076	2389	2636	2648	2487	2251	2032	1936	1930	2025	2219	2428	2594	2695	2680	2488	2108	1693	1350	1036	787.1	614.8	459.3	326.8	289.8	381.0	882.4	4762	7495	1433	18.41	5.552	3.759	2.950	2.547	2.238	2.083	2.188	2.313	2.488	2.609	2.426	2.726	3.427	3.812	4.151	4.510	4.837	5.492	6.030	6.630	7.190	8.484	8.879	9.768	10.52	11.04	11.81	12.34	11.83	12.09	11.80	11.82	11.29	11.41	11.28	11.15	10.88	11.28
405.0	487.1	610.7	795.3	931.6	1070	1229	1429	1752	2123	2479	2722	2771	2598	2355	2127	2015	2004	2110	2313	2541	2726	2836	2834	2644	2274	1858	1493	1213	949.6	749.4	569.9	397.0	285.4	224.9	284.5	1278	5570	6815	248.1	11.98	4.625	3.398	2.907	2.262	2.462	2.320	2.428	2.582	2.618	2.554	2.738	3.428	3.922	4.185	4.462	4.948	5.574	5.891	6.801	7.585	8.529	9.174	10.30	11.21	11.28	12.31	12.66	12.28	12.43	11.98	12.53	11.95	12.22	11.96	11.45	11.54	11.51
410.0	487.9	615.7	776.0	946.7	1072	1218	1446	1773	2141	2517	2818	2863	2712	2446	2195	2081	2075	2188	2401	2635	2841	2971	2981	2800	2450	2039	1668	1394	1168	943.2	727.6	526.6	360.1	247.4	186.7	357.9	1474	4507	5538	1104	18.11	5.028	3.617	3.002	2.620	2.594	2.492	2.666	2.700	2.588	2.773	3.502	3.947	4.186	4.654	4.898	5.495	6.079	6.725	7.837	8.377	9.237	10.42	11.10	11.72	12.19	13.00	12.68	12.91	12.67	12.48	12.54	12.13	11.99	11.61	11.86	12.65
415.0	474.7	612.0	757.0	940.8	1060	1190	1411	1751	2125	2516	2817	2899	2725	2486	2232	2100	2100	2228	2435	2677	2900	3029	3061	2899	2569	2179	1816	1535	1338	1138	890.9	646.5	455.5	307.8	204.1	175.8	383.7	1050	2723	6532	1685	23.17	4.702	3.948	3.132	2.806	2.601	2.799	2.653	2.615	2.903	3.652	3.736	4.314	4.541	4.723	5.243	5.936	6.963	7.409	8.728	9.380	10.53	11.06	11.63	12.42	12.44	12.84	12.71	13.08	12.89	12.35	12.23	12.25	11.58	12.25	12.93
420.0	487.5	577.3	762.6	925.5	1040	1171	1380	1694	2089	2497	2801	2865	2705	2466	2208	2096	2094	2221	2413	2674	2888	3042	3076	2929	2605	2242	1892	1621	1423	1240	1002	730.0	516.7	351.3	230.0	150.9	151.1	271.7	677.2	3804	6399	1305	16.19	4.660	3.557	3.089	2.733	2.786	2.756	2.747	2.825	3.711	3.620	4.261	4.512	4.686	5.293	5.753	6.731	7.625	8.786	8.924	10.17	10.56	11.96	12.14	12.42	12.61	12.72	12.93	12.97	12.39	11.98	12.35	12.05	11.59	12.36
425.0	441.5	565.1	746.8	893.1	1004	1137	1312	1635	2046	2438	2735	2810	2680	2414	2181	2059	2058	2189	2381	2636	2852	3010	3044	2908	2607	2262	1934	1677	1475	1293	1083	806.6	564.2	387.4	252.1	158.8	108.0	103.3	177.2	995.9	4613	5782	235.1	9.549	4.058	3.494	3.189	2.995	2.836	2.648	2.811	3.587	3.628	4.204	4.127	4.541	5.332	5.824	6.291	7.334	8.264	8.954	9.844	10.79	11.73	12.38	12.33	12.41	12.59	12.54	12.76	12.60	11.82	11.68	11.69	11.47	11.73
