Sample:	'1
File name:	Default_20230713_150817.FD3
Run date:	'15:01:56, 07/13/2023
Operator:	user
Comment:	'

Instrument
Model:	F-2700 FL Spectrophotometer
Serial number:	2190-003
ROM Version:	4J14000 07

Instrument parameters
Measurement type:	3-D scan
Data mode:	Fluorescence
EX  Start WL:	220.0 nm
EX  End WL:	600.0 nm
EX Sampling interval:	5.0 nm
EM  Start WL:	230.0 nm
EM  End WL:	650.0 nm
EM Sampling interval:	5.0 nm
Scan speed:	12000 nm/min
EX Slit:	5.0 nm
EM Slit:	5.0 nm
PMT Voltage:	700 V
Response:	Auto 
Corrected spectra:	Off
Contour interval:	50.000

Peak integration
Integration method:	Rectangular
Sensitivity:	1
Threshold:	1.000

Peaks
No.	ApexEX/EM(nm)	Height(Data)
1	225.0/615.0	-101.5
2	245.0/530.0	39.49
3	250.0/365.0	 1797
4	250.0/545.0	43.12
5	255.0/555.0	44.90
6	260.0/285.0	396.3
7	260.0/570.0	39.03
8	265.0/240.0	-27.08
9	265.0/290.0	441.0
10	265.0/580.0	57.60
11	270.0/295.0	666.8
12	270.0/590.0	47.97
13	275.0/305.0	851.4
14	275.0/605.0	46.68
15	280.0/245.0	-18.00
16	280.0/310.0	794.5
17	280.0/615.0	38.95
18	285.0/315.0	814.4
19	285.0/625.0	29.78
20	290.0/320.0	760.2
21	290.0/635.0	22.61
22	295.0/260.0	-8.418
23	295.0/330.0	612.2
24	300.0/335.0	538.3
25	305.0/340.0	529.0
26	315.0/260.0	-6.016
27	320.0/360.0	405.4
28	325.0/365.0	384.6
29	325.0/605.0	-2.249
30	330.0/240.0	-5.295
31	335.0/380.0	334.9
32	335.0/640.0	-3.511
33	340.0/385.0	330.3
34	345.0/390.0	279.4
35	350.0/395.0	265.3
36	350.0/600.0	-1.070
37	355.0/405.0	248.7
38	360.0/410.0	214.3
39	365.0/415.0	197.8
40	370.0/295.0	-2.492
41	370.0/425.0	186.7
42	375.0/430.0	152.9
43	380.0/435.0	141.8
44	385.0/445.0	127.4
45	390.0/450.0	105.9
46	395.0/255.0	-2.148
47	395.0/455.0	93.82
48	405.0/470.0	67.14
49	410.0/475.0	58.73
50	415.0/485.0	52.13
51	420.0/490.0	42.07
52	425.0/495.0	35.26
53	430.0/505.0	31.60
54	435.0/510.0	24.53
55	445.0/525.0	18.08
56	450.0/530.0	14.40
57	455.0/535.0	12.27
58	460.0/545.0	10.02
59	485.0/355.0	3.040
60	495.0/365.0	3.556
61	500.0/370.0	3.288
62	500.0/420.0	0.816
63	520.0/360.0	2.179
64	535.0/295.0	0.020
65	545.0/300.0	0.834
66	550.0/305.0	0.943
67	555.0/310.0	0.205
68	570.0/315.0	0.161
69	570.0/460.0	-0.765
70	575.0/320.0	0.567
71	585.0/325.0	-0.088

Data points
	220.0	225.0	230.0	235.0	240.0	245.0	250.0	255.0	260.0	265.0	270.0	275.0	280.0	285.0	290.0	295.0	300.0	305.0	310.0	315.0	320.0	325.0	330.0	335.0	340.0	345.0	350.0	355.0	360.0	365.0	370.0	375.0	380.0	385.0	390.0	395.0	400.0	405.0	410.0	415.0	420.0	425.0	430.0	435.0	440.0	445.0	450.0	455.0	460.0	465.0	470.0	475.0	480.0	485.0	490.0	495.0	500.0	505.0	510.0	515.0	520.0	525.0	530.0	535.0	540.0	545.0	550.0	555.0	560.0	565.0	570.0	575.0	580.0	585.0	590.0	595.0	600.0
230.0	-153.5	-62.33	 1404	 1591	80.07	-61.30	-55.10	-45.27	-37.69	-34.38	-28.06	-24.31	-22.79	-17.73	-16.54	-14.52	-12.70	-10.52	-9.592	-7.772	-6.715	-7.520	-5.798	-5.271	-5.730	-4.966	-4.572	-5.236	-4.749	-4.508	-4.205	-4.402	-3.696	-3.540	-3.378	-3.362	-2.885	-2.817	-3.025	-2.681	-2.657	-2.436	-2.546	-2.283	-2.479	-2.273	-1.904	-1.226	0.645	1.094	-0.220	-1.839	-2.048	-2.216	-1.865	-2.228	-2.280	-2.164	-2.311	-2.099	-2.300	-2.145	-2.162	-2.292	-2.321	-2.125	-2.527	-2.339	-2.387	-2.369	-2.147	-2.467	-2.417	-2.406	-2.619	-2.684	-2.519
235.0	-150.7	-139.3	387.6	 2092	 1979	151.6	-54.25	-42.18	-38.72	-35.05	-28.42	-26.91	-21.65	-16.47	-14.94	-14.16	-11.06	-9.683	-8.885	-7.003	-5.891	-6.098	-6.752	-5.133	-4.555	-5.373	-4.712	-5.350	-4.088	-3.905	-4.875	-5.346	-3.919	-3.370	-3.721	-2.872	-3.075	-3.054	-2.687	-2.573	-2.919	-2.903	-2.053	-2.403	-2.291	-2.684	-2.046	-1.572	-0.762	0.125	2.634	2.430	0.436	-2.010	-1.928	-2.424	-2.032	-2.068	-2.097	-2.262	-2.320	-2.302	-2.053	-2.163	-2.035	-1.745	-2.603	-2.276	-2.484	-2.383	-2.433	-2.305	-2.352	-2.535	-2.195	-2.535	-2.284
240.0	-158.2	-120.8	-15.17	939.3	 3217	 1900	68.91	-39.98	-33.82	-27.08	-32.37	-24.18	-18.62	-18.90	-15.28	-11.15	-11.67	-10.37	-8.311	-7.163	-7.637	-6.727	-5.295	-6.583	-5.072	-4.990	-5.259	-4.466	-4.908	-3.701	-3.892	-3.546	-3.457	-3.708	-3.191	-2.800	-2.874	-2.515	-3.081	-2.603	-2.566	-2.742	-2.573	-2.773	-2.750	-2.605	-2.220	-1.686	-1.869	-1.151	0.289	3.068	4.924	3.130	-0.424	-1.987	-2.243	-2.021	-2.373	-2.364	-2.013	-2.408	-1.972	-2.261	-2.247	-2.152	-2.321	-2.452	-2.220	-2.673	-2.290	-2.245	-2.370	-2.055	-2.338	-2.677	-2.427
245.0	-171.8	-114.1	-64.67	169.9	 1700	 4265	 1546	9.392	-36.70	-34.39	-37.04	-23.25	-18.00	-20.00	-16.94	-11.75	-10.83	-11.56	-10.56	-8.180	-7.335	-7.302	-5.742	-7.022	-5.151	-4.535	-5.384	-4.295	-4.246	-4.233	-4.239	-3.697	-3.901	-3.671	-3.238	-2.796	-2.713	-3.117	-2.895	-2.968	-2.573	-3.013	-2.610	-2.065	-2.375	-2.362	-2.170	-2.396	-1.727	-1.668	-1.216	-0.648	2.977	7.629	6.942	2.711	-1.188	-2.012	-2.461	-2.157	-2.007	-2.544	-2.429	-2.223	-2.537	-2.690	-2.483	-2.665	-2.507	-2.606	-2.397	-2.423	-2.351	-2.169	-2.501	-2.615	-2.651
250.0	-153.8	-117.9	-65.85	13.39	363.7	 2034	 4622	 3464	416.9	-25.82	-24.52	-19.87	-18.55	-18.37	-14.64	-13.44	-11.09	-9.444	-9.603	-7.708	-6.703	-6.155	-6.107	-5.747	-5.497	-5.521	-5.000	-4.746	-4.319	-4.340	-4.017	-3.328	-3.796	-4.190	-3.192	-2.996	-3.409	-2.822	-2.894	-2.964	-2.786	-2.695	-2.321	-2.478	-2.349	-2.697	-2.205	-2.244	-1.977	-1.414	-1.414	-1.716	-0.810	1.355	2.877	6.943	8.681	6.352	2.551	-1.449	-2.261	-2.321	-2.406	-2.245	-2.592	-2.393	-2.469	-2.552	-2.238	-2.019	-2.302	-2.519	-2.198	-2.343	-2.422	-2.622	-2.604
255.0	-139.0	-132.5	-87.25	-5.350	95.12	416.3	 1597	 6610	 5789	499.7	-25.01	-20.71	-18.59	-17.82	-13.84	-11.25	-11.37	-9.553	-9.530	-7.346	-6.313	-5.410	-5.609	-6.661	-5.352	-5.244	-4.520	-4.524	-4.922	-4.172	-3.745	-3.570	-4.440	-3.818	-3.278	-2.148	-3.142	-3.021	-2.663	-3.207	-2.340	-2.867	-2.616	-2.643	-2.807	-2.703	-2.129	-2.252	-1.627	-1.685	-1.170	-1.901	-1.977	-1.074	-1.235	0.117	1.857	6.950	13.86	13.12	4.532	-1.567	-2.596	-1.883	-2.363	-2.386	-2.390	-2.307	-2.393	-2.480	-2.336	-2.603	-2.010	-2.324	-2.365	-2.810	-2.738
260.0	-141.9	-105.1	-102.4	-54.92	94.61	100.7	334.2	 2868	 9088	 5077	200.9	-14.28	-19.26	-14.08	-11.46	-8.418	-9.886	-9.428	-8.872	-6.016	-7.124	-5.073	-5.888	-5.891	-5.622	-5.577	-5.077	-5.437	-4.827	-4.395	-4.200	-4.185	-4.332	-3.753	-3.054	-3.099	-2.789	-2.935	-2.134	-2.449	-2.865	-3.028	-2.440	-2.627	-2.142	-2.695	-2.521	-1.725	-1.845	-1.336	-1.432	-1.899	-1.929	-1.835	-1.680	-1.592	-1.497	0.171	5.126	13.63	19.53	13.34	2.020	-1.622	-2.008	-2.363	-2.350	-2.158	-2.206	-2.596	-1.901	-2.371	-2.516	-2.529	-2.404	-2.163	-2.678
265.0	-151.7	-136.1	-96.79	-81.13	25.66	99.74	75.32	664.9	 4602	9999.9	 1379	61.08	-15.84	-13.88	-12.24	-9.549	-11.12	-6.360	-8.345	-7.232	-5.816	-6.044	-6.786	-5.504	-4.665	-5.249	-4.639	-4.505	-4.332	-4.612	-4.305	-4.172	-4.076	-4.014	-3.545	-3.262	-2.853	-2.904	-2.714	-2.191	-2.930	-3.043	-2.586	-2.171	-1.775	-1.990	-2.355	-2.223	-1.965	-1.438	-1.800	-1.896	-1.750	-1.563	-1.581	-1.890	-1.566	-1.570	-0.780	2.715	8.676	18.91	21.53	11.09	-0.467	-2.486	-2.274	-2.659	-2.155	-2.211	-1.409	-2.448	-2.526	-2.688	-2.592	-2.445	-2.434
270.0	-145.0	-143.2	-110.8	-79.01	-32.37	60.14	141.4	171.9	 1093	 4439	 8326	 4871	363.0	-6.727	-9.460	-11.40	-8.838	-6.625	-7.191	-5.676	-7.398	-6.701	-5.217	-5.785	-4.498	-4.499	-4.275	-4.311	-4.762	-4.709	-3.922	-4.484	-3.439	-3.867	-3.457	-2.861	-2.873	-3.426	-2.991	-2.564	-2.563	-2.996	-2.528	-2.552	-2.426	-2.275	-2.148	-2.058	-1.687	-1.445	-1.666	-1.955	-2.155	-1.881	-1.424	-1.383	-1.534	-1.878	-1.625	-1.015	0.359	3.992	9.985	18.16	22.45	18.26	7.528	-0.525	-2.126	-2.281	-2.121	-2.589	-2.420	-2.588	-2.444	-2.502	-2.660
275.0	-115.6	-127.3	-123.1	-75.79	-40.69	-12.63	114.8	244.0	275.7	 1004	 2571	 9876	 7360	408.4	-6.086	-9.375	-6.890	-6.913	-7.614	-5.583	-4.533	-5.381	-5.350	-5.102	-4.684	-5.195	-3.977	-4.925	-4.571	-4.365	-4.898	-4.131	-3.935	-3.186	-3.044	-2.682	-3.050	-3.199	-2.484	-2.669	-2.938	-3.038	-2.808	-2.705	-2.434	-1.760	-1.787	-2.150	-1.956	-1.588	-1.815	-2.148	-1.854	-2.108	-1.698	-2.052	-1.707	-1.375	-1.512	-1.719	-1.410	-0.473	0.410	2.450	6.291	17.81	35.16	33.47	10.41	-1.306	-2.271	-2.377	-2.185	-2.332	-2.259	-2.494	-2.394
280.0	-143.2	-98.90	-118.7	-67.92	-59.58	-31.12	27.03	251.8	263.5	255.8	622.3	 3790	9999.9	 5583	183.9	-5.811	-2.843	-6.183	-7.672	-6.257	-4.802	-4.972	-5.153	-5.671	-4.117	-4.755	-4.692	-4.513	-4.221	-4.351	-4.306	-3.475	-3.671	-3.446	-2.983	-2.133	-3.042	-2.753	-2.750	-2.777	-2.766	-2.796	-2.567	-2.442	-2.487	-2.004	-1.672	-2.034	-1.755	-1.586	-1.453	-2.056	-1.605	-1.715	-2.062	-1.834	-1.695	-1.311	-0.699	-1.201	-1.551	-1.717	-1.474	-0.929	-0.256	2.835	13.26	31.98	44.54	26.76	4.228	-1.918	-2.321	-2.472	-2.178	-2.565	-2.688
285.0	-128.4	-90.69	-92.13	-62.25	-38.27	-43.01	-5.741	114.1	396.3	215.1	201.8	964.4	 5378	9999.9	 3675	53.24	-3.130	-3.266	-5.187	-6.647	-3.298	-5.115	-3.705	-5.528	-4.640	-4.620	-4.578	-4.567	-4.256	-4.758	-3.613	-3.628	-3.425	-2.979	-3.511	-3.018	-2.903	-2.972	-2.821	-3.085	-2.922	-3.057	-2.789	-2.510	-2.565	-2.210	-1.786	-2.120	-1.642	-1.731	-1.492	-1.890	-1.813	-1.927	-2.137	-2.196	-2.149	-1.609	-1.027	-1.354	-0.741	-1.266	-1.616	-1.620	-1.529	-0.849	1.511	7.942	23.03	43.65	39.60	15.67	-0.852	-2.675	-1.978	-2.584	-2.620
290.0	-113.0	-99.67	-79.89	-37.25	-18.06	-23.76	-7.807	39.05	225.6	441.0	309.9	371.9	 1407	 5457	9999.9	 5891	217.9	0.680	-2.228	-3.538	-3.431	-4.633	-3.687	-4.191	-4.342	-4.234	-4.375	-4.346	-4.266	-4.721	-3.922	-2.849	-3.886	-3.119	-3.576	-2.832	-2.701	-2.146	-2.539	-2.512	-2.659	-2.259	-2.249	-2.722	-2.376	-2.169	-1.775	-2.144	-1.700	-1.613	-1.200	-1.802	-1.571	-1.709	-2.105	-2.095	-2.081	-1.971	-1.790	-1.812	-1.225	-0.872	-0.935	-1.415	-1.403	-1.555	-1.048	0.616	3.991	10.93	21.05	31.51	34.94	25.97	9.515	-0.633	-2.263
295.0	-120.6	-61.88	-20.74	-6.512	-21.17	-7.996	16.87	42.93	116.6	307.5	666.8	410.4	517.6	 1352	 3139	9999.9	 4312	276.6	2.270	-1.401	-2.578	-4.201	-3.387	-3.600	-4.024	-3.347	-3.245	-3.340	-3.924	-4.063	-2.492	-2.816	-3.750	-3.005	-2.871	-2.955	-2.797	-2.675	-2.387	-2.832	-2.093	-2.363	-2.465	-2.472	-2.248	-2.012	-1.580	-1.507	-1.328	-1.388	-1.676	-1.630	-1.481	-1.560	-1.988	-2.120	-2.356	-2.254	-2.040	-2.039	-1.474	-1.533	-1.157	0.020	-0.357	-1.058	-1.397	-1.173	-0.299	0.673	3.107	5.572	9.993	27.71	49.56	41.62	12.32
300.0	-97.87	-43.88	-8.193	-9.844	6.686	10.62	38.52	66.88	114.0	229.1	578.2	730.2	411.8	474.6	793.7	 4154	9999.9	 3568	163.1	0.960	-0.497	-1.838	-2.401	-1.837	-3.270	-3.847	-3.015	-3.852	-3.312	-4.451	-2.652	-3.092	-3.824	-3.357	-3.084	-3.073	-2.883	-2.433	-2.159	-2.503	-2.204	-2.784	-2.527	-2.504	-2.038	-1.569	-1.845	-1.351	-1.314	-1.292	-1.117	-1.704	-1.331	-1.571	-1.890	-1.757	-1.966	-1.694	-1.988	-1.945	-1.925	-1.540	-1.398	-0.545	-0.230	0.834	-0.114	-1.452	-1.461	-0.960	-0.522	-0.817	1.082	5.080	20.58	46.43	58.48
305.0	-62.44	-78.69	15.28	14.71	20.19	22.63	56.65	71.72	144.3	230.7	403.0	851.4	614.7	304.0	269.3	 1019	 5939	9999.9	 2741	56.90	1.385	0.622	-0.711	-2.647	-3.750	-2.264	-3.226	-3.849	-2.924	-3.367	-4.237	-3.446	-4.043	-3.209	-2.909	-2.412	-3.519	-2.334	-2.504	-2.500	-2.455	-3.000	-1.966	-2.908	-2.024	-1.727	-1.857	-1.897	-1.822	-1.632	-1.313	-1.249	-1.298	-1.728	-1.718	-2.007	-1.657	-1.634	-1.938	-1.815	-2.065	-1.302	-0.540	-1.298	-0.765	0.208	0.943	-0.653	-1.337	-1.433	-1.774	-1.647	-1.255	-0.781	3.626	11.46	35.43
310.0	-71.63	-47.40	12.88	13.73	24.44	39.75	69.99	107.1	168.3	248.3	358.2	569.5	794.5	526.0	199.7	296.3	 1439	 5687	9999.9	 5951	162.8	3.905	0.528	-1.443	-2.765	-2.267	-3.072	-2.667	-3.383	-2.614	-4.011	-3.039	-3.007	-2.874	-2.740	-2.262	-3.095	-2.559	-2.259	-2.629	-2.632	-2.232	-2.085	-2.312	-1.732	-2.353	-1.882	-1.731	-1.520	-1.371	-1.320	-1.437	-1.552	-1.692	-1.620	-2.053	-1.711	-1.877	-1.636	-1.726	-1.557	-1.465	-1.130	-1.365	-0.963	-0.735	-0.583	0.205	0.056	-0.523	-1.462	-1.803	-2.009	-1.512	-0.835	0.894	6.621
315.0	-22.71	25.60	77.86	57.21	60.08	67.55	106.6	148.8	226.8	302.8	421.5	532.6	627.1	814.4	439.5	195.7	397.8	 1327	 3403	9999.9	 8892	218.8	4.768	2.095	-1.204	-2.011	-2.308	-3.113	-2.541	-2.103	-2.999	-2.573	-2.477	-1.981	-2.731	-3.438	-2.739	-2.484	-2.674	-2.946	-2.480	-2.392	-2.082	-2.046	-1.947	-1.821	-1.490	-1.410	-1.514	-0.891	-1.207	-1.461	-1.476	-1.464	-1.533	-1.980	-1.562	-1.891	-1.192	-1.428	-1.315	-0.830	-1.190	-0.981	-0.848	-0.565	-1.153	-0.501	-1.013	0.047	0.161	-0.903	-0.980	-1.868	-1.788	-0.800	-0.327
320.0	-38.61	123.9	134.7	114.4	93.54	110.5	170.5	231.4	285.0	404.8	518.2	593.5	636.7	742.6	760.2	317.8	213.9	382.6	834.7	 4670	9999.9	 2551	137.2	3.417	-0.316	-0.243	-1.737	-3.184	-3.008	-2.048	-3.806	-2.648	-2.810	-2.411	-2.895	-2.628	-2.938	-1.942	-2.795	-2.675	-2.153	-2.180	-2.298	-1.992	-1.955	-0.973	-1.348	-1.320	-1.173	-1.146	-1.308	-1.162	-1.380	-1.214	-1.642	-1.643	-1.280	-1.473	-1.418	-1.369	-1.082	-1.160	-1.257	-0.437	-0.307	-0.348	-1.030	-0.755	-1.165	0.074	0.003	0.567	-0.323	-1.562	-1.518	-1.789	-1.558
325.0	28.84	142.5	219.3	187.1	130.6	157.6	226.6	261.8	371.2	469.1	560.5	641.6	658.0	635.8	749.7	550.9	208.9	190.3	257.6	 1154	 6539	9999.9	 2101	60.16	2.977	0.654	0.268	-2.403	-2.091	-2.544	-2.714	-3.225	-2.716	-2.248	-2.562	-2.076	-2.313	-2.471	-2.494	-2.222	-2.467	-2.720	-2.278	-2.422	-2.038	-1.336	-1.144	-1.350	-0.661	-0.813	-1.270	-1.268	-1.048	-1.609	-1.406	-1.664	-1.195	-1.428	-1.118	-1.274	-0.547	-0.912	-1.346	-1.058	-0.394	-0.744	-0.131	-0.582	-0.987	-0.379	-0.487	-0.492	-0.223	-0.088	-1.405	-1.473	-2.160
330.0	43.98	199.5	286.4	280.7	296.9	329.6	414.8	442.8	483.2	557.5	629.1	676.2	679.4	607.6	574.9	612.2	432.6	198.5	151.0	323.8	 1620	 6002	9999.9	 6067	134.2	4.515	1.468	-0.380	-1.983	-1.956	-2.618	-2.257	-2.505	-2.195	-2.260	-2.155	-2.073	-2.300	-2.995	-2.417	-2.333	-2.602	-2.172	-2.283	-1.940	-1.457	-1.243	-1.129	-1.094	-0.961	-0.877	-1.043	-0.839	-1.007	-0.874	-0.812	-0.957	-0.675	-0.819	-0.756	-0.463	-0.593	-0.934	-0.781	-0.369	-0.679	-0.323	-0.728	-0.817	-0.854	-0.765	-0.749	-0.688	-0.624	-0.589	-0.599	-1.573
335.0	48.42	272.6	402.9	457.0	541.7	628.5	737.1	699.7	680.7	717.7	714.5	732.5	718.5	670.8	564.5	472.1	538.3	413.6	178.8	166.0	440.2	 1394	 3543	9999.9	 8538	187.6	5.197	0.890	0.807	-1.439	-2.061	-1.309	-1.892	-2.254	-2.048	-2.497	-2.044	-2.062	-2.207	-2.325	-2.784	-2.341	-2.181	-1.651	-1.673	-1.917	-1.083	-1.403	-0.724	-0.569	-0.469	-0.642	-0.345	-0.531	-0.396	0.328	-0.001	-0.045	-0.286	-0.126	0.144	-0.314	-0.148	-0.392	-0.494	-0.345	-0.082	-0.390	-0.319	-0.134	-1.112	-0.664	-0.820	-0.989	-0.952	-0.734	-0.647
340.0	92.25	308.1	474.9	606.3	745.3	924.6	955.7	937.2	851.2	848.5	786.8	732.8	702.0	667.8	557.0	423.4	431.0	529.0	291.5	150.1	188.5	377.6	856.1	 4952	9999.9	 6060	124.8	3.289	1.305	-0.233	-1.106	-1.245	-1.868	-2.013	-1.997	-1.562	-2.226	-1.761	-1.628	-3.230	-1.804	-1.938	-1.497	-1.901	-1.534	-1.718	-0.865	-0.655	-0.308	-0.246	-0.152	0.216	0.108	0.564	0.547	1.379	1.220	0.631	0.859	0.312	0.741	-0.061	0.496	-0.549	0.392	-0.052	-0.542	-0.240	-0.453	-0.428	-0.809	-0.526	-1.045	-0.971	-1.412	-1.231	-1.302
345.0	101.4	323.9	536.2	754.9	947.8	 1135	 1177	 1113	 1031	926.6	807.8	740.4	690.9	659.3	530.6	424.1	346.8	444.3	444.1	204.3	146.9	164.1	260.2	 1225	 6729	9999.9	 1772	66.14	3.153	0.600	-0.042	-1.174	-2.038	-1.444	-1.070	-1.449	-2.078	-1.155	-2.029	-1.609	-2.090	-1.632	-2.366	-2.270	-1.303	-1.037	-0.238	-0.602	-0.420	-0.335	0.490	0.995	0.714	0.600	0.912	1.368	1.284	1.515	1.172	0.763	0.217	0.686	0.270	0.064	-0.389	-0.326	-0.680	-0.033	-0.434	-1.048	-0.747	-0.544	-1.226	-1.487	-1.420	-1.632	-1.449
350.0	80.24	354.4	590.4	928.8	 1181	 1416	 1447	 1368	 1194	 1025	850.0	698.8	672.0	618.8	532.6	436.0	347.9	340.0	402.0	374.9	206.5	136.6	141.2	333.8	 1666	 5983	9999.9	 5638	121.1	5.046	1.594	0.360	-0.852	-0.702	-1.024	-1.924	-1.518	-1.736	-2.174	-1.832	-2.319	-2.123	-1.971	-1.878	-1.739	-1.007	-0.504	-0.734	-0.053	-0.002	0.479	1.324	1.171	1.914	1.803	1.902	1.729	1.867	2.134	1.052	0.678	0.681	0.782	0.186	-0.194	-0.372	-0.561	-0.728	-0.621	-0.837	-0.861	-1.036	-1.339	-1.089	-1.143	-1.393	-1.486
355.0	88.32	384.3	615.5	999.3	 1321	 1627	 1654	 1521	 1319	 1128	875.2	678.0	651.6	598.5	526.8	428.2	374.0	325.7	311.7	370.8	362.1	190.8	134.0	151.5	423.7	 1375	 3645	9999.9	 7995	168.6	4.809	1.756	0.775	-0.972	-1.387	-0.991	-1.660	-1.641	-1.641	-1.676	-2.390	-1.995	-2.447	-1.326	-1.638	-0.647	-0.755	-0.682	-0.009	-0.002	0.516	1.419	1.659	3.040	2.672	3.021	2.668	2.775	2.175	1.598	1.619	1.068	1.399	0.087	0.204	-0.156	-0.562	-0.283	-0.029	-0.619	-0.739	-1.112	-0.966	-1.318	-0.777	-1.381	-1.384
360.0	47.42	324.6	650.4	 1075	 1357	 1705	 1735	 1587	 1338	 1150	873.1	661.3	622.1	579.4	526.0	442.3	382.8	342.7	303.1	310.6	405.4	291.5	152.4	125.7	159.6	349.3	867.8	 4860	9999.9	 5669	114.2	3.168	2.150	-0.793	-1.097	-0.561	-1.915	-1.144	-1.859	-1.570	-2.378	-2.109	-2.010	-1.479	-2.067	-1.007	-0.724	-0.349	-0.291	0.321	0.983	1.933	1.983	2.356	2.838	2.984	2.873	2.759	2.574	1.152	2.179	1.624	0.653	0.522	0.216	-0.004	-0.406	-0.322	-0.709	-0.521	-0.979	-1.259	-0.963	-1.082	-1.032	-1.161	-1.351
365.0	114.5	291.9	672.7	 1006	 1389	 1698	 1797	 1600	 1372	 1189	857.3	668.9	589.5	543.8	525.8	456.1	392.5	352.4	308.2	289.2	343.8	384.6	217.5	131.5	107.5	129.4	230.6	 1191	 6425	9999.9	 1612	57.00	2.672	0.149	0.205	-0.210	-1.346	-0.967	-1.398	-2.018	-2.226	-2.251	-1.659	-2.076	-1.422	-1.160	-0.592	-0.705	-0.079	0.489	1.375	1.462	1.835	2.743	2.682	3.556	3.235	3.116	2.898	0.941	1.484	1.599	0.569	0.340	-0.288	-0.348	-0.775	-0.448	-0.597	-0.974	-1.060	-1.187	-1.238	-1.102	-1.465	-1.280	-1.155
370.0	102.4	291.2	617.3	 1010	 1391	 1687	 1765	 1601	 1358	 1149	850.2	640.6	588.6	560.8	510.8	448.1	404.4	369.1	330.1	298.8	289.5	340.6	331.0	196.7	121.4	97.23	102.4	303.4	 1575	 5708	9999.9	 5559	100.8	4.712	1.566	0.238	-0.236	-0.662	-1.499	-1.890	-1.507	-1.566	-1.595	-2.052	-1.608	-0.784	-0.768	-0.604	0.281	0.510	1.266	1.320	2.447	2.879	3.051	3.080	3.288	2.045	2.066	1.533	2.018	1.302	0.830	0.282	0.061	-0.238	-0.745	-0.935	-0.604	-0.806	-0.900	-0.968	-0.688	-1.251	-1.217	-0.879	-1.348
375.0	46.13	235.6	531.7	 1019	 1274	 1632	 1636	 1511	 1292	 1090	810.8	627.2	568.6	541.5	497.2	453.1	411.7	396.5	357.1	314.2	290.7	288.0	322.7	320.6	184.8	113.6	90.95	119.7	386.1	 1299	 3618	9999.9	 7811	138.5	3.539	2.403	0.824	-0.014	-0.809	-1.164	-1.090	-1.522	-1.171	-1.417	-1.170	-0.654	-0.683	-0.887	0.418	0.654	1.042	1.207	1.712	2.254	2.843	2.974	2.595	2.140	2.096	1.492	1.481	1.084	0.572	-0.277	-0.221	-0.961	-1.150	-0.919	-0.548	-0.478	-0.596	-0.822	-1.194	-1.267	-1.045	-0.600	-0.810
380.0	15.38	202.8	523.2	885.9	 1238	 1542	 1583	 1460	 1237	 1043	763.8	617.2	560.4	528.7	476.0	448.1	410.6	398.7	373.8	340.8	310.7	288.0	276.5	334.9	275.6	148.1	100.1	87.23	130.8	321.1	852.3	 4894	9999.9	 5527	91.24	4.529	1.246	0.844	-0.360	-0.871	-0.750	-1.571	-1.771	-1.249	-1.075	-0.750	-0.840	-0.528	-0.271	0.488	0.673	1.226	2.018	2.837	1.993	3.110	2.466	2.973	1.931	1.361	1.003	0.955	0.339	-0.273	-0.322	-0.782	-0.960	-0.762	-0.600	-0.152	-0.621	-0.595	-0.726	-1.352	-1.511	-1.145	-1.253
385.0	12.70	194.4	449.4	886.7	 1145	 1415	 1475	 1334	 1130	993.6	754.8	607.5	550.3	507.5	472.0	442.1	423.3	401.9	376.8	344.3	322.3	286.9	269.5	288.7	330.3	205.1	120.9	93.81	81.17	109.7	220.5	 1197	 6540	9999.9	 1275	44.40	3.902	1.071	-0.476	-0.630	-1.294	-1.225	-1.581	-0.967	-1.019	-1.368	-0.992	-0.392	0.201	0.283	0.563	0.814	1.658	2.320	1.382	1.904	1.748	2.209	1.886	1.228	0.400	0.418	0.375	-0.378	-0.478	-0.697	-0.584	-1.051	-0.807	-0.743	-0.631	-0.483	-0.465	-1.132	-1.611	-1.367	-1.572
390.0	-11.57	183.7	407.9	764.9	988.4	 1256	 1333	 1172	 1019	908.9	719.4	559.2	526.3	500.5	467.1	437.3	417.2	397.8	382.2	355.9	326.9	302.0	278.8	257.6	275.1	279.4	184.4	108.4	82.42	73.89	85.65	293.4	 1606	 5678	 9281	 4626	79.61	3.703	1.124	-0.244	-0.522	-1.203	-1.156	-1.212	-1.007	-1.391	-0.892	-0.879	0.077	0.206	0.320	0.866	1.478	1.832	1.247	2.283	1.612	1.147	1.818	0.825	0.496	0.528	0.090	-0.521	-0.819	-0.541	-0.461	-0.732	-0.811	-0.837	-0.474	-0.868	-1.104	-0.990	-1.201	-1.254	-1.045
