Sample:	'1
File name:	武安市北安乐乡点位.FD3
Run date:	'11:04:50, 08/19/2024
Operator:	horiz
Comment:	'

Instrument
Model:	F-2700 FL Spectrophotometer
Serial number:	23B8-004
ROM Version:	4J14000 07

Instrument parameters
Measurement type:	3-D scan
Data mode:	Fluorescence
EX  Start WL:	220.0 nm
EX  End WL:	600.0 nm
EX Sampling interval:	5.0 nm
EM  Start WL:	230.0 nm
EM  End WL:	650.0 nm
EM Sampling interval:	5.0 nm
Scan speed:	12000 nm/min
EX Slit:	5.0 nm
EM Slit:	5.0 nm
PMT Voltage:	700 V
Response:	Auto 
Corrected spectra:	Off
Contour interval:	50.000

Peak integration
Integration method:	Rectangular
Sensitivity:	1
Threshold:	1.000

Peaks
No.	ApexEX/EM(nm)	Height(Data)
1	225.0/305.0	959.7
2	225.0/565.0	94.12
3	225.0/585.0	104.5
4	230.0/340.0	1245
5	235.0/510.0	263.9
6	240.0/380.0	958.4
7	240.0/525.0	227.3
8	245.0/535.0	191.3
9	250.0/550.0	161.9
10	255.0/280.0	573.2
11	255.0/560.0	141.6
12	260.0/575.0	122.1
13	265.0/385.0	913.4
14	265.0/585.0	120.7
15	270.0/300.0	1246
16	270.0/375.0	902.5
17	270.0/600.0	115.3
18	275.0/305.0	1420
19	275.0/610.0	104.5
20	280.0/310.0	1220
21	280.0/625.0	83.84
22	285.0/635.0	56.08
23	300.0/335.0	607.1
24	305.0/345.0	559.0
25	310.0/350.0	497.1
26	315.0/355.0	497.4
27	320.0/365.0	486.1
28	325.0/370.0	462.4
29	330.0/375.0	451.3
30	335.0/380.0	432.0
31	350.0/400.0	363.7
32	410.0/480.0	69.30
33	425.0/500.0	43.12
34	455.0/540.0	15.50
35	460.0/340.0	3.870
36	505.0/275.0	2.944
37	515.0/280.0	3.192
38	520.0/285.0	3.695
39	530.0/290.0	3.788
40	540.0/295.0	5.329
41	545.0/300.0	6.206
42	555.0/305.0	6.368
43	560.0/310.0	5.638
44	570.0/315.0	5.202
45	580.0/320.0	4.793
46	585.0/325.0	4.567

Wavelength data
No.	EX/EM(nm)	Height(Data)	

Data points
	220.0	225.0	230.0	235.0	240.0	245.0	250.0	255.0	260.0	265.0	270.0	275.0	280.0	285.0	290.0	295.0	300.0	305.0	310.0	315.0	320.0	325.0	330.0	335.0	340.0	345.0	350.0	355.0	360.0	365.0	370.0	375.0	380.0	385.0	390.0	395.0	400.0	405.0	410.0	415.0	420.0	425.0	430.0	435.0	440.0	445.0	450.0	455.0	460.0	465.0	470.0	475.0	480.0	485.0	490.0	495.0	500.0	505.0	510.0	515.0	520.0	525.0	530.0	535.0	540.0	545.0	550.0	555.0	560.0	565.0	570.0	575.0	580.0	585.0	590.0	595.0	600.0
230.0	86.18	1525	3168	768.6	36.39	10.55	8.179	7.827	5.525	5.391	5.317	4.381	3.921	3.483	2.956	2.464	2.151	1.985	1.971	1.652	1.573	1.408	1.276	1.244	1.215	1.095	1.088	1.044	1.003	0.936	1.029	0.849	0.823	0.773	0.802	0.769	0.744	0.687	0.674	0.659	0.699	0.781	0.751	0.713	0.578	0.628	1.979	7.790	12.63	8.324	2.911	0.785	0.489	0.458	0.428	0.469	0.464	0.479	0.459	0.451	0.453	0.451	0.429	0.467	0.465	0.431	0.428	0.441	0.445	0.451	0.474	0.432	0.445	0.432	0.440	0.454	0.461
235.0	117.8	442.5	2106	3266	627.0	56.52	9.283	7.524	6.005	5.812	5.400	4.589	3.705	3.541	2.885	2.689	2.181	2.103	1.753	1.783	1.577	1.580	1.424	1.319	1.304	1.066	1.138	1.127	0.862	1.200	0.972	0.938	0.839	0.753	0.724	0.716	0.791	0.741	0.597	0.753	0.641	0.742	0.702	0.819	0.690	0.606	0.874	2.308	5.186	9.053	12.81	12.69	5.532	1.272	0.460	0.568	0.558	0.469	0.531	0.480	0.410	0.461	0.472	0.416	0.445	0.487	0.445	0.526	0.448	0.461	0.449	0.445	0.464	0.415	0.516	0.471	0.454
240.0	147.8	192.2	657.0	2970	3582	502.6	29.00	9.474	7.436	6.470	5.816	4.544	4.377	3.983	2.968	2.637	2.099	2.093	1.839	1.751	1.469	1.487	1.416	1.370	1.128	1.154	1.077	1.131	0.938	1.088	0.938	0.926	0.789	0.854	0.727	0.750	0.761	0.810	0.617	0.686	0.622	0.685	0.679	0.725	0.891	0.929	0.809	0.986	1.574	2.942	7.126	16.18	19.72	13.00	4.639	0.955	0.443	0.436	0.447	0.487	0.435	0.416	0.429	0.415	0.507	0.478	0.426	0.453	0.443	0.425	0.461	0.445	0.426	0.423	0.394	0.491	0.495
245.0	124.3	211.2	214.0	1042	3952	3509	373.8	15.80	8.442	7.567	5.777	4.852	4.561	3.819	3.254	2.796	2.202	2.369	1.838	1.956	1.774	1.350	1.457	1.476	1.169	1.251	0.956	1.002	1.016	0.937	1.057	0.961	0.833	0.756	0.783	0.690	0.692	0.786	0.678	0.662	0.703	0.753	0.614	0.639	0.769	0.870	1.048	0.840	0.816	1.071	2.045	5.677	13.91	22.58	22.38	11.67	3.148	0.595	0.514	0.470	0.426	0.538	0.418	0.454	0.423	0.496	0.443	0.432	0.476	0.421	0.416	0.547	0.458	0.418	0.451	0.449	0.503
250.0	65.78	148.3	242.8	324.8	1278	3514	4306	1384	79.74	9.881	8.175	7.230	4.747	4.539	3.401	3.136	2.491	2.490	2.148	1.875	1.784	1.559	1.503	1.402	1.407	1.323	1.184	1.125	1.142	0.982	1.025	0.968	0.912	0.777	0.796	0.754	0.804	0.686	0.703	0.658	0.671	0.723	0.658	0.665	0.646	0.607	0.755	0.977	1.098	1.054	1.004	1.770	3.656	7.479	13.30	19.71	25.11	20.71	11.59	3.640	0.718	0.530	0.450	0.467	0.529	0.486	0.430	0.497	0.464	0.452	0.425	0.495	0.498	0.461	0.466	0.470	0.493
255.0	40.87	59.59	173.3	322.4	376.5	896.0	3358	6592	1932	82.05	10.83	8.482	6.297	5.443	4.236	3.458	2.888	2.312	2.226	1.936	1.937	1.625	1.498	1.551	1.302	1.377	1.239	1.227	1.319	1.037	1.091	0.963	0.823	0.861	0.816	0.743	0.714	0.640	0.745	0.660	0.695	0.717	0.751	0.742	0.649	0.571	0.656	0.713	0.727	1.039	1.432	1.632	1.453	2.060	3.409	5.029	9.278	20.37	36.42	31.54	18.16	3.565	0.645	0.497	0.551	0.545	0.483	0.454	0.529	0.492	0.573	0.431	0.485	0.469	0.448	0.474	0.465
260.0	46.13	33.62	73.68	260.5	325.6	257.3	1008	5270	7219	1488	42.02	10.56	7.827	6.064	4.823	3.627	2.925	2.495	2.607	2.153	1.992	1.680	1.691	1.434	1.491	1.426	1.429	1.347	1.324	1.188	0.971	1.040	1.027	0.977	0.827	0.746	0.695	0.684	0.733	0.743	0.720	0.600	0.732	0.772	0.644	0.676	0.620	0.621	0.591	0.614	1.024	1.742	1.859	1.391	1.301	1.624	2.518	5.676	15.05	32.95	46.59	29.31	14.42	2.029	0.520	0.551	0.593	0.596	0.464	0.549	0.543	0.427	0.478	0.501	0.407	0.498	0.523
265.0	48.61	33.97	39.06	119.4	357.9	245.2	271.5	1737	7249	7274	269.2	21.53	9.596	7.633	5.673	4.316	3.827	2.682	2.609	2.166	2.012	1.794	1.538	1.506	1.412	1.273	1.312	1.114	1.245	1.064	1.206	1.163	0.943	0.961	0.794	0.787	0.746	0.722	0.774	0.733	0.642	0.723	0.689	0.710	0.647	0.700	0.541	0.625	0.569	0.483	0.553	0.996	1.650	2.147	1.699	1.057	1.104	1.827	3.954	9.658	24.41	43.52	55.33	26.17	8.510	0.998	0.705	0.586	0.490	0.573	0.554	0.473	0.472	0.493	0.383	0.563	0.508
270.0	59.31	52.61	44.49	57.73	177.9	354.9	295.0	450.5	2243	6663	8510	1032	70.52	11.02	7.606	5.174	4.291	3.217	2.848	2.548	2.225	1.913	1.933	1.658	1.607	1.430	1.489	1.381	1.333	1.234	1.275	1.139	1.109	0.964	0.950	0.837	0.791	0.795	0.758	0.802	0.711	0.687	0.693	0.701	0.664	0.711	0.613	0.629	0.607	0.558	0.495	0.654	0.846	1.340	1.943	2.142	2.069	1.397	1.555	2.668	6.091	12.51	24.92	37.32	38.06	42.60	18.23	7.723	1.215	0.584	0.538	0.531	0.527	0.488	0.461	0.534	0.511
275.0	123.4	127.7	130.1	91.57	88.03	168.5	454.0	373.3	565.7	1647	5631	9999.9	1529	80.65	11.01	6.305	5.181	4.605	3.447	3.062	2.401	2.080	1.999	1.875	1.784	1.650	1.604	1.452	1.285	1.343	1.358	1.237	1.034	1.132	1.014	0.937	0.789	0.904	0.782	0.801	0.746	0.783	0.723	0.825	0.828	0.854	0.886	0.932	0.721	0.706	0.678	0.692	0.696	0.909	0.959	1.213	2.193	2.944	2.306	1.598	1.983	3.377	6.183	9.121	11.63	28.02	56.58	70.70	28.56	9.298	1.021	0.582	0.603	0.535	0.509	0.580	0.476
280.0	244.7	266.0	258.4	178.6	104.4	98.60	286.8	573.2	320.8	460.4	1616	8242	9999.9	1141	41.29	9.851	7.024	4.924	3.962	3.051	3.019	2.353	2.160	2.091	1.873	1.703	1.646	1.495	1.445	1.356	1.408	1.209	1.102	1.175	1.157	1.148	1.003	1.005	0.938	0.900	0.867	0.935	0.895	1.006	1.117	1.104	1.132	1.306	1.149	1.154	0.961	0.957	0.779	0.902	0.758	0.854	1.158	2.099	2.995	3.192	1.994	1.667	2.157	2.784	3.296	7.373	18.95	46.19	71.38	37.06	23.60	4.579	0.779	0.591	0.524	0.540	0.576
285.0	384.1	446.0	427.5	287.8	145.6	100.8	149.3	482.7	571.8	288.2	518.8	2565	9999.9	9841	784.8	20.30	8.949	6.525	4.691	3.607	3.432	2.792	2.506	2.169	1.679	1.971	1.702	1.455	1.430	1.531	1.386	1.316	1.151	1.356	1.151	1.276	1.243	1.209	1.161	1.077	1.068	1.079	1.014	1.092	1.350	1.485	1.475	1.519	1.616	1.442	1.272	1.322	1.020	0.927	0.865	0.811	0.870	1.173	1.885	2.848	3.695	2.788	1.628	1.588	1.637	2.626	5.337	12.20	27.79	52.66	79.64	34.73	17.28	2.147	0.612	0.563	0.605
290.0	556.4	671.9	647.6	436.6	227.7	138.1	143.4	275.2	607.7	693.9	490.0	886.3	3073	8597	9885	2736	48.58	9.442	6.384	4.631	3.866	3.198	2.773	2.396	2.087	2.008	1.681	1.653	1.520	1.603	1.386	1.380	1.400	1.439	1.389	1.400	1.365	1.415	1.217	1.221	1.271	1.281	1.232	1.369	1.693	1.878	1.943	2.235	2.253	1.792	1.717	1.705	1.292	1.131	0.989	0.910	0.957	1.052	1.352	1.634	2.468	3.273	3.788	3.385	2.499	2.146	2.737	4.236	7.631	14.34	29.16	41.13	59.17	51.09	41.18	12.84	2.900
295.0	698.1	829.1	842.5	530.1	294.8	185.6	179.0	253.0	420.7	819.8	1015	734.5	1083	2203	5683	9999.9	3570	54.14	9.201	6.230	4.436	4.107	3.325	2.910	2.337	2.362	1.950	1.793	1.879	1.766	1.350	1.465	1.331	1.315	1.535	1.632	1.650	1.524	1.432	1.327	1.398	1.385	1.333	1.587	1.987	2.028	2.395	2.752	2.700	2.099	1.966	1.844	1.448	1.298	1.179	1.164	1.349	1.284	1.441	1.467	1.789	2.233	2.766	4.065	5.329	4.278	3.093	3.298	3.624	5.247	8.030	10.43	15.13	23.64	56.11	84.95	36.87
300.0	733.3	936.0	898.0	575.3	329.0	219.3	214.7	282.0	405.9	674.8	1246	1032	750.9	772.5	1565	7580	9999.9	720.1	30.56	8.749	5.968	4.504	4.004	2.988	2.862	2.407	2.005	1.939	1.942	1.805	1.546	1.497	1.331	1.540	1.724	1.605	1.651	1.551	1.462	1.498	1.492	1.519	1.568	1.695	2.101	2.468	2.417	2.967	2.757	2.313	2.235	2.021	1.530	1.552	1.296	1.221	1.343	1.364	1.688	1.710	1.918	2.047	2.381	3.168	4.578	6.206	5.546	3.842	3.190	3.250	3.639	3.849	4.708	6.440	16.02	40.78	70.83
305.0	735.3	959.7	887.5	594.8	348.7	242.3	246.5	328.0	448.0	640.6	1048	1420	853.1	514.0	515.1	2184	9630	6305	529.7	15.23	8.023	5.866	4.210	3.484	3.020	2.641	2.419	2.445	1.985	1.650	1.605	1.592	1.434	1.654	1.642	1.760	1.734	1.682	1.412	1.316	1.541	1.536	1.667	1.714	1.937	2.581	2.507	2.906	2.806	2.322	2.124	2.081	1.695	1.578	1.389	1.375	1.489	1.509	1.806	2.137	2.409	2.457	2.574	2.961	3.643	4.981	6.241	6.368	4.596	3.524	2.956	2.341	2.380	2.600	4.597	10.26	22.54
310.0	710.1	904.4	855.1	575.2	351.5	268.6	284.6	361.5	485.3	655.0	897.4	1204	1220	638.6	327.4	600.0	2675	6971	7981	2052	34.20	8.417	5.670	4.376	3.592	3.099	2.598	2.469	2.141	1.970	1.855	1.709	1.491	1.593	1.662	1.732	1.670	1.708	1.529	1.528	1.447	1.622	1.646	1.672	1.958	2.351	2.487	2.808	2.680	2.420	2.159	2.095	1.734	1.661	1.500	1.375	1.641	1.645	1.784	2.074	2.331	2.550	2.779	3.403	3.666	3.990	4.580	5.336	5.638	5.317	4.313	2.661	2.109	1.975	2.096	3.240	5.915
315.0	668.5	848.7	790.8	551.8	355.5	298.4	309.8	392.4	504.3	660.5	858.3	983.6	1070	997.4	418.9	283.0	693.7	1671	4840	9999.9	2793	37.38	8.435	5.857	4.811	3.662	2.994	2.878	2.554	2.082	1.944	1.869	1.721	1.614	1.532	1.767	1.748	1.667	1.494	1.589	1.588	1.475	1.670	1.702	1.891	2.237	2.519	2.619	2.689	2.161	1.920	2.053	1.778	1.790	1.636	1.463	1.679	1.735	1.925	2.218	2.238	2.650	2.819	3.199	3.869	3.902	4.044	4.353	4.517	4.454	5.202	4.934	3.297	2.197	1.872	1.873	2.248
320.0	692.4	897.9	831.1	557.7	374.1	312.7	330.6	415.3	530.8	676.3	835.1	922.1	911.4	968.3	684.1	280.0	284.1	464.1	1282	6850	9999.9	524.9	21.56	7.749	5.479	4.095	3.416	2.942	2.667	2.350	1.990	1.822	1.960	1.850	1.578	1.763	1.703	1.610	1.568	1.464	1.647	1.427	1.652	1.799	1.939	2.252	2.416	2.749	2.662	2.387	1.964	2.119	1.730	1.705	1.633	1.607	1.799	2.017	2.027	2.201	2.349	2.833	2.781	3.222	3.663	3.848	3.883	3.757	3.946	3.775	3.724	4.478	4.793	3.915	2.292	1.775	1.717
325.0	743.6	951.7	951.2	661.0	438.4	349.3	357.9	442.8	547.2	697.4	838.4	917.9	871.0	789.2	833.9	446.5	231.1	218.2	367.1	1950	8660	8211	395.0	13.43	7.121	4.949	4.224	3.362	2.958	2.427	2.154	2.027	2.072	1.922	1.659	1.653	1.598	1.651	1.560	1.576	1.420	1.606	1.745	1.744	1.930	2.503	2.500	3.164	3.074	2.585	2.307	2.160	1.985	1.736	1.856	1.668	1.919	2.088	2.133	2.315	2.607	2.710	2.849	3.180	3.574	3.814	3.936	3.708	4.059	3.668	3.307	3.517	4.320	4.567	3.864	2.455	1.876
330.0	773.1	1021	1091	825.3	568.5	430.1	410.8	466.6	569.8	703.2	838.1	915.2	866.6	732.7	671.5	646.5	390.6	209.3	192.2	515.3	2411	6675	6648	1640	27.58	7.561	5.536	4.049	3.357	2.848	2.554	2.264	2.002	1.975	1.777	1.647	1.809	1.606	1.505	1.492	1.482	1.688	1.701	1.861	2.171	2.528	2.749	3.310	3.356	3.030	2.817	2.886	2.471	2.202	2.041	1.965	2.258	2.155	2.216	2.344	2.659	2.799	3.080	3.208	3.579	3.829	3.792	3.785	4.084	3.834	3.612	3.515	3.444	3.510	3.583	3.765	3.306
335.0	778.5	1098	1200	956.8	679.7	533.0	472.7	500.3	593.9	721.5	835.8	907.8	866.1	729.8	608.0	547.0	607.1	342.1	189.3	221.2	608.7	1591	4464	9822	2316	31.08	7.480	5.425	4.016	3.367	3.233	2.624	2.415	2.083	1.948	1.641	1.753	1.511	1.543	1.653	1.626	1.794	1.836	2.036	2.237	2.644	2.724	3.514	3.600	3.295	3.107	3.385	2.823	2.779	2.522	2.242	2.572	2.397	2.318	2.756	2.767	2.927	3.280	3.259	3.347	3.450	3.623	4.039	4.019	4.189	3.640	3.707	3.269	3.298	3.052	2.932	3.558
340.0	769.3	1090	1245	1016	763.1	594.4	516.2	529.9	617.6	725.2	832.9	891.8	859.3	750.0	606.8	497.2	552.6	525.5	252.2	179.4	230.7	422.2	1200	6756	9049	432.4	18.18	7.301	5.075	3.919	3.437	2.624	2.292	2.299	2.047	1.757	1.847	1.710	1.514	1.579	1.547	1.810	1.890	2.111	2.243	2.647	3.070	3.637	3.870	3.528	3.217	3.396	3.132	3.034	2.544	2.408	2.601	2.519	2.427	2.640	2.541	2.997	3.014	3.279	3.493	3.650	3.787	3.762	3.944	3.973	3.685	3.416	3.451	2.980	2.953	2.827	2.868
345.0	775.1	1072	1199	1055	821.4	644.7	564.2	566.6	631.9	718.8	809.8	865.9	843.3	749.0	627.7	502.0	461.8	559.0	396.0	206.1	168.8	186.3	334.5	1949	8130	7144	336.7	10.72	6.085	4.629	3.709	3.039	2.577	2.215	2.144	1.832	1.839	1.629	1.615	1.587	1.501	1.753	1.762	1.765	2.209	2.668	3.026	3.438	3.830	3.497	3.280	3.588	3.410	3.182	2.801	2.686	2.700	2.526	2.706	2.839	2.695	3.186	3.233	3.210	3.647	3.662	3.625	3.809	3.776	3.951	3.664	3.429	3.482	3.252	3.045	3.083	2.960
350.0	737.5	1012	1131	1060	878.5	711.7	626.0	618.3	669.2	739.6	802.6	846.5	829.3	751.1	645.5	533.1	462.6	460.7	497.1	360.7	210.0	168.5	170.0	505.0	2347	6181	5720	1374	23.59	6.224	4.885	3.455	2.672	2.484	2.198	2.035	1.853	1.682	1.678	1.658	1.495	1.546	1.716	1.798	2.121	2.540	2.700	3.278	3.544	3.427	3.304	3.780	3.591	3.247	3.128	2.791	2.922	2.854	2.801	2.970	3.116	3.285	3.500	3.378	3.630	3.643	3.726	3.820	3.697	3.754	3.654	3.437	3.492	3.335	3.226	3.101	2.976
355.0	700.8	941.1	1097	1043	902.9	784.9	701.3	695.6	736.8	785.7	823.3	837.8	809.3	759.0	668.9	576.8	500.6	448.9	431.3	497.4	349.7	212.5	170.9	211.5	589.8	1482	4226	8362	439.6	24.41	6.511	4.388	3.307	2.812	2.124	1.960	1.883	1.743	1.697	1.506	1.510	1.810	1.708	1.640	2.124	2.455	2.674	3.299	3.395	3.094	3.272	3.894	3.660	3.322	3.401	3.055	3.183	3.064	3.119	3.052	3.291	3.254	3.796	3.628	3.741	3.521	3.775	3.906	3.559	3.740	3.702	3.573	3.526	3.385	3.251	3.308	2.843
360.0	662.7	894.3	1065	1014	919.1	829.8	761.5	761.3	796.3	830.7	844.0	841.0	814.4	756.3	685.1	604.4	538.6	474.9	430.8	465.0	471.8	283.3	197.2	166.2	219.9	390.5	1167	6340	7406	385.8	13.76	5.654	4.106	3.404	2.423	2.158	1.924	1.758	1.666	1.594	1.405	1.731	1.841	1.728	2.083	2.451	2.656	3.010	3.127	3.051	3.288	3.870	3.685	3.512	3.451	3.343	3.367	3.352	3.202	3.440	3.475	3.629	3.559	3.787	3.770	3.730	3.617	3.704	3.574	3.745	3.906	3.653	3.428	3.590	3.277	3.348	3.105
365.0	604.1	880.9	1020	1019	929.6	877.4	814.5	794.1	831.4	855.1	871.2	846.4	821.1	771.4	700.9	623.0	570.9	507.0	450.4	429.7	486.1	406.6	244.6	180.3	157.4	163.9	316.7	1919	7624	3495	55.36	8.411	5.114	3.679	2.913	2.251	2.224	1.879	1.737	1.485	1.499	1.639	1.732	1.809	1.972	2.236	2.683	2.934	3.264	3.063	3.096	3.780	3.662	3.601	3.499	3.649	3.312	3.655	3.510	3.512	3.827	3.582	3.803	4.049	3.709	3.787	3.449	3.701	3.543	3.884	3.502	3.764	3.511	3.500	3.770	3.464	3.356
370.0	602.8	832.6	970.3	984.9	941.4	904.4	853.5	845.9	878.8	888.1	894.3	863.6	822.2	773.5	716.9	644.9	593.1	542.2	488.4	448.9	438.3	462.4	371.6	235.6	174.9	141.4	146.9	485.0	2279	5415	5412	1201	19.38	5.260	3.832	2.849	2.378	2.018	2.001	1.696	1.590	1.744	1.697	1.851	1.933	2.252	2.478	2.801	3.055	3.000	3.013	3.811	3.513	3.718	3.558	3.669	3.597	3.524	3.702	3.693	4.010	3.603	3.813	3.857	3.939	3.789	3.857	3.631	3.601	3.977	3.682	3.745	3.603	3.777	3.631	3.646	3.531
375.0	591.2	769.4	929.8	964.6	939.8	916.4	882.5	871.3	895.9	899.3	902.5	879.3	819.2	774.3	716.3	655.8	614.3	571.8	524.9	483.4	441.6	422.5	451.3	352.0	221.5	166.5	136.2	181.7	559.2	1325	4362	7663	377.3	20.40	5.294	3.606	2.806	2.322	1.922	1.856	1.869	1.700	1.630	1.898	2.001	2.221	2.293	2.677	2.967	3.052	3.047	3.615	3.491	3.900	3.660	3.622	3.812	3.672	3.810	3.719	3.989	3.942	3.698	3.915	4.059	3.945	3.783	3.652	3.783	3.812	3.702	3.612	3.634	3.523	3.520	3.242	3.479
380.0	578.1	770.2	905.4	946.6	958.4	920.7	899.0	898.6	905.0	905.1	899.0	874.1	823.4	761.7	702.6	652.3	616.9	580.6	537.5	503.1	457.6	418.9	424.6	432.0	290.0	197.1	155.5	134.2	192.4	343.5	1219	6081	6454	318.0	10.57	4.663	3.536	2.814	2.259	2.045	1.799	1.976	1.774	1.890	1.961	2.158	2.335	2.562	2.810	2.840	2.751	3.617	3.669	3.931	3.540	3.753	3.773	3.959	3.726	3.762	4.051	4.068	3.829	4.042	4.099	4.082	3.956	3.768	3.970	3.669	3.625	3.655	3.644	3.566	3.421	3.496	3.555
385.0	549.2	735.8	874.2	933.8	947.4	906.2	909.6	892.6	898.5	913.4	901.7	866.0	815.4	755.5	694.2	652.5	612.6	581.1	555.8	513.4	473.0	429.1	405.4	429.3	379.3	240.5	179.1	141.8	127.3	135.5	314.4	1871	6765	2923	44.50	7.071	4.468	3.298	2.534	2.117	1.977	2.068	1.785	1.826	1.985	2.238	2.274	2.836	2.817	2.760	2.744	3.711	3.590	3.799	3.748	3.602	3.895	3.853	3.849	3.625	3.831	4.057	3.983	4.002	3.867	3.951	3.748	3.486	3.727	4.147	3.890	3.476	3.589	3.660	3.537	3.377	3.722
390.0	529.4	704.1	831.4	881.9	924.2	919.5	892.1	878.8	875.9	882.7	875.6	842.1	794.2	739.1	683.7	644.3	607.0	576.5	548.6	517.6	485.8	441.1	409.4	390.0	399.6	336.0	229.2	167.9	134.3	109.1	125.5	458.2	2016	4467	4292	952.7	16.36	4.538	3.408	2.558	2.292	2.115	2.092	1.825	2.068	2.121	2.476	2.662	2.736	2.644	2.867	3.404	3.382	3.662	3.743	3.597	3.863	3.849	3.703	3.799	3.890	4.001	3.923	3.873	3.919	3.705	3.767	3.554	3.614	3.706	3.666	3.505	3.517	3.526	3.286	3.527	3.595
395.0	508.7	690.5	795.5	855.1	888.3	898.8	887.7	867.6	847.3	857.8	849.7	798.8	761.3	712.9	665.3	620.4	594.2	569.5	541.1	519.7	487.9	454.0	419.7	388.0	367.2	374.6	315.8	210.7	160.6	124.2	102.9	150.7	484.3	1091	3498	5999	316.4	17.40	4.514	3.393	2.772	2.399	2.097	2.097	2.078	2.306	2.341	2.531	2.720	2.621	2.692	3.479	3.462	3.605	3.688	3.776	3.841	3.864	3.703	3.669	3.940	3.965	3.880	3.790	3.832	3.618	3.805	3.376	3.576	3.536	3.644	3.323	3.370	3.344	3.519	3.500	3.377
400.0	477.8	663.8	765.1	842.8	859.2	859.0	859.2	854.3	835.2	833.9	815.4	785.8	739.1	690.8	645.4	602.5	582.7	553.0	531.0	509.2	484.3	456.1	425.4	397.6	362.1	351.0	363.7	265.4	184.5	142.5	109.2	96.25	151.4	274.7	981.4	4745	5145	273.8	9.362	4.175	2.923	2.407	2.353	2.280	2.205	2.206	2.281	2.303	2.742	2.498	2.654	3.226	3.563	3.744	3.422	3.277	3.823	3.798	3.695	3.824	3.568	3.775	3.803	3.802	3.683	3.378	3.636	3.374	3.518	3.244	3.401	3.199	3.623	3.407	3.381	3.304	3.320
405.0	505.6	627.2	734.6	791.8	853.5	854.6	847.0	841.5	817.9	800.9	799.1	755.0	719.5	674.3	630.1	590.3	559.0	545.0	520.9	501.8	478.5	454.5	423.9	396.4	365.4	337.7	350.4	324.3	219.2	164.7	125.2	94.85	86.14	97.58	246.1	1446	5285	2521	39.93	5.804	3.593	2.709	2.686	2.183	2.229	2.275	2.326	2.596	2.448	2.453	2.725	3.081	3.349	3.474	3.454	3.261	3.715	3.767	3.632	3.872	3.641	3.549	3.804	3.670	3.484	3.310	3.515	3.480	3.319	3.174	3.075	3.263	3.287	3.383	3.310	2.983	3.367
410.0	479.0	612.2	708.0	765.2	815.8	823.5	815.9	799.7	792.3	769.6	753.5	720.9	688.1	646.2	604.3	561.7	534.1	518.9	500.3	483.3	464.2	444.1	423.6	398.6	371.5	341.8	320.4	328.9	286.9	202.2	145.8	109.4	85.22	68.05	87.22	347.9	1559	3597	3583	880.4	14.32	3.625	2.974	2.526	2.426	2.287	2.345	2.581	2.628	2.396	2.713	2.985	3.197	3.315	3.335	3.356	3.704	3.507	3.578	3.577	3.540	3.565	3.485	3.356	3.330	3.307	3.371	3.160	3.309	3.097	3.090	3.063	3.071	3.194	3.099	3.081	3.130
415.0	441.7	601.0	693.1	731.1	768.6	785.1	778.4	774.9	763.3	735.9	726.0	689.7	660.2	611.7	569.3	529.8	508.3	492.8	473.4	457.5	448.9	430.9	416.3	397.7	371.9	340.4	313.0	298.0	304.1	262.0	174.1	126.0	96.15	71.11	59.44	106.3	367.9	873.8	2784	4866	288.1	15.65	3.915	3.007	2.572	2.495	2.299	2.579	2.467	2.492	2.549	3.161	3.026	2.992	3.050	3.228	3.360	3.426	3.302	3.445	3.410	3.466	3.229	3.228	3.241	3.310	3.186	2.874	3.022	3.051	2.998	2.866	3.339	2.869	3.034	3.075	3.123
