Sample:	'1
File name:	H2025091103ÇåÈªÁÖÇÅ.FD3
Run date:	'14:33:20, 09/11/2025
Operator:	Administrator
Comment:	'

Instrument
Model:	F-2700 FL Spectrophotometer
Serial number:	23C7-003
ROM Version:	4J14000 07

Instrument parameters
Measurement type:	3-D scan
Data mode:	Fluorescence
EX  Start WL:	220.0 nm
EX  End WL:	600.0 nm
EX Sampling interval:	5.0 nm
EM  Start WL:	230.0 nm
EM  End WL:	650.0 nm
EM Sampling interval:	5.0 nm
Scan speed:	12000 nm/min
EX Slit:	5.0 nm
EM Slit:	5.0 nm
PMT Voltage:	700 V
Response:	Auto 
Corrected spectra:	Off
Contour interval:	50.000

Peak integration
Integration method:	Rectangular
Sensitivity:	1
Threshold:	1.000

Peaks
No.	ApexEX/EM(nm)	Height(Data)
1	225.0/310.0	440.0
2	225.0/555.0	54.84
3	225.0/580.0	45.64
4	225.0/595.0	41.96
5	225.0/610.0	44.26
6	225.0/625.0	37.78
7	230.0/340.0	501.4
8	230.0/355.0	501.1
9	230.0/365.0	492.9
10	230.0/495.0	244.3
11	235.0/395.0	524.3
12	235.0/505.0	208.3
13	240.0/260.0	228.0
14	240.0/400.0	527.9
15	240.0/415.0	520.5
16	240.0/520.0	177.3
17	245.0/270.0	219.8
18	245.0/535.0	141.7
19	250.0/275.0	273.4
20	250.0/405.0	529.2
21	250.0/545.0	118.6
22	255.0/280.0	364.9
23	255.0/430.0	505.1
24	255.0/560.0	104.0
25	260.0/570.0	85.97
26	265.0/585.0	87.05
27	270.0/300.0	967.5
28	270.0/400.0	510.2
29	270.0/595.0	84.55
30	275.0/305.0	1129
31	275.0/610.0	81.44
32	280.0/310.0	1010
33	280.0/375.0	520.1
34	280.0/620.0	67.52
35	285.0/635.0	44.26
36	300.0/335.0	408.5
37	305.0/345.0	382.7
38	310.0/350.0	355.7
39	315.0/355.0	364.4
40	320.0/360.0	376.3
41	325.0/370.0	364.5
42	330.0/375.0	349.7
43	335.0/380.0	344.0
44	440.0/515.0	22.22
45	445.0/525.0	18.16
46	510.0/280.0	2.281
47	515.0/285.0	2.386
48	530.0/290.0	2.942
49	550.0/305.0	5.821
50	560.0/310.0	5.402
51	565.0/315.0	4.936
52	575.0/290.0	44.37
53	575.0/320.0	4.540
54	580.0/325.0	3.893

Data points
	220.0	225.0	230.0	235.0	240.0	245.0	250.0	255.0	260.0	265.0	270.0	275.0	280.0	285.0	290.0	295.0	300.0	305.0	310.0	315.0	320.0	325.0	330.0	335.0	340.0	345.0	350.0	355.0	360.0	365.0	370.0	375.0	380.0	385.0	390.0	395.0	400.0	405.0	410.0	415.0	420.0	425.0	430.0	435.0	440.0	445.0	450.0	455.0	460.0	465.0	470.0	475.0	480.0	485.0	490.0	495.0	500.0	505.0	510.0	515.0	520.0	525.0	530.0	535.0	540.0	545.0	550.0	555.0	560.0	565.0	570.0	575.0	580.0	585.0	590.0	595.0	600.0
230.0	33.83	575.4	2041	902.9	42.15	6.211	5.534	4.384	3.864	3.829	3.201	3.087	2.757	2.439	2.122	1.916	1.565	1.563	1.373	1.242	1.115	0.999	0.892	0.981	0.844	0.784	0.707	0.686	0.741	0.626	0.596	0.603	0.569	0.487	0.505	0.453	0.436	0.424	0.411	0.417	0.399	0.494	0.586	0.463	0.375	0.380	0.844	3.958	8.431	7.590	3.116	0.738	0.322	0.322	0.258	0.259	0.262	0.285	0.242	0.292	0.264	0.246	0.270	0.278	0.274	0.277	0.276	0.291	0.290	0.280	0.313	0.271	0.277	0.254	0.263	0.266	0.305
235.0	91.53	162.0	982.5	2171	468.2	76.07	6.393	5.516	5.085	3.535	3.328	3.327	3.077	2.667	1.995	1.827	1.686	1.648	1.426	1.313	1.265	1.155	0.918	0.871	0.714	0.796	0.762	0.694	0.615	0.652	0.678	0.505	0.525	0.444	0.426	0.371	0.464	0.426	0.371	0.345	0.374	0.406	0.459	0.592	0.545	0.480	0.436	1.178	3.025	5.433	8.090	9.725	5.302	1.342	0.308	0.249	0.286	0.262	0.227	0.294	0.239	0.316	0.302	0.292	0.266	0.245	0.318	0.302	0.347	0.319	0.311	0.303	0.314	0.257	0.287	0.294	0.269
240.0	108.9	117.1	265.1	1390	2511	397.2	35.47	6.274	4.821	3.451	3.570	3.596	2.778	2.661	2.231	1.952	1.507	1.452	1.380	1.352	1.409	1.096	1.007	0.832	0.815	0.802	0.776	0.640	0.669	0.643	0.647	0.551	0.464	0.413	0.498	0.450	0.417	0.505	0.459	0.345	0.412	0.363	0.408	0.459	0.611	0.722	0.463	0.568	0.921	1.641	3.907	9.702	13.89	10.43	3.865	0.659	0.315	0.268	0.282	0.286	0.274	0.282	0.265	0.313	0.260	0.319	0.266	0.232	0.316	0.358	0.276	0.248	0.280	0.265	0.307	0.272	0.319
245.0	71.11	153.7	120.8	396.6	2028	2843	306.0	16.25	6.126	4.437	4.016	3.737	3.272	2.622	2.497	2.058	1.801	1.473	1.550	1.354	1.393	1.159	1.111	1.031	0.866	0.889	0.801	0.740	0.646	0.757	0.706	0.615	0.486	0.465	0.498	0.462	0.425	0.448	0.444	0.329	0.433	0.434	0.419	0.326	0.420	0.587	0.675	0.742	0.577	0.616	1.121	3.275	8.404	14.90	15.63	9.314	2.432	0.346	0.304	0.341	0.312	0.240	0.359	0.295	0.295	0.344	0.342	0.274	0.235	0.296	0.353	0.302	0.331	0.247	0.397	0.246	0.303
250.0	31.08	91.06	155.6	162.7	574.6	2025	2891	1128	84.46	6.679	5.517	4.556	3.950	3.069	2.578	2.123	1.842	1.519	1.580	1.353	1.197	1.183	1.098	1.079	0.958	0.850	0.777	0.784	0.732	0.774	0.649	0.628	0.558	0.570	0.467	0.484	0.432	0.445	0.390	0.419	0.404	0.452	0.353	0.339	0.367	0.426	0.478	0.683	0.843	0.773	0.696	1.045	2.249	4.793	8.893	13.60	16.52	14.58	8.162	2.605	0.474	0.282	0.303	0.262	0.317	0.310	0.294	0.311	0.310	0.320	0.291	0.305	0.347	0.252	0.312	0.286	0.332
255.0	22.01	33.31	93.16	211.2	206.3	479.1	1656	4410	1656	98.20	7.029	5.971	4.133	3.190	2.478	2.594	1.778	1.803	1.643	1.461	1.476	1.229	1.112	1.097	0.884	1.000	0.778	0.754	0.824	0.691	0.735	0.567	0.498	0.619	0.448	0.488	0.414	0.416	0.373	0.466	0.454	0.346	0.368	0.326	0.342	0.368	0.355	0.432	0.431	0.637	1.009	1.098	1.008	1.309	2.238	3.495	6.235	15.11	25.87	22.51	12.18	2.579	0.435	0.307	0.339	0.275	0.339	0.310	0.332	0.354	0.286	0.362	0.318	0.249	0.336	0.283	0.278
260.0	22.21	21.14	33.77	152.0	228.0	158.0	430.9	2771	5237	1300	57.69	7.831	5.438	4.223	3.123	2.677	2.066	1.948	1.651	1.524	1.385	1.176	1.284	1.019	0.932	0.873	0.835	0.871	0.781	0.776	0.705	0.617	0.545	0.555	0.473	0.461	0.387	0.458	0.416	0.382	0.419	0.348	0.438	0.403	0.286	0.357	0.314	0.341	0.300	0.390	0.645	1.149	1.479	0.962	0.820	1.024	1.699	4.273	11.63	24.15	32.78	21.73	8.458	1.224	0.398	0.264	0.360	0.400	0.299	0.420	0.294	0.316	0.338	0.270	0.363	0.295	0.310
265.0	24.22	17.53	19.10	61.54	215.7	190.5	125.5	779.8	4088	5705	978.8	20.45	6.898	4.709	3.567	3.031	2.697	1.924	1.801	1.684	1.387	1.435	1.172	1.112	0.974	0.990	0.861	0.902	0.842	0.844	0.700	0.708	0.657	0.558	0.490	0.491	0.437	0.571	0.410	0.401	0.458	0.464	0.428	0.419	0.339	0.386	0.339	0.313	0.254	0.278	0.359	0.615	1.210	1.493	1.146	0.630	0.701	1.246	2.949	7.513	19.23	34.85	28.11	17.63	4.269	0.479	0.358	0.339	0.348	0.334	0.290	0.270	0.352	0.293	0.345	0.313	0.350
270.0	29.81	21.68	18.16	24.56	85.60	219.8	196.3	215.2	1136	4144	6230	2273	60.55	6.924	4.817	3.521	2.898	2.268	1.917	1.733	1.487	1.676	1.180	1.225	1.099	1.019	1.010	0.855	0.826	0.836	0.756	0.690	0.690	0.569	0.487	0.570	0.511	0.512	0.452	0.447	0.416	0.399	0.453	0.447	0.393	0.373	0.357	0.372	0.288	0.322	0.309	0.392	0.574	0.819	1.237	1.354	1.249	0.880	1.027	2.008	4.909	10.77	18.66	30.24	30.43	28.55	11.16	3.475	0.561	0.343	0.344	0.295	0.321	0.329	0.353	0.303	0.335
275.0	44.67	34.68	24.24	20.36	30.88	86.52	273.4	233.8	300.1	998.8	3467	8633	1097	68.83	7.079	4.207	3.916	2.685	2.459	2.014	1.656	1.662	1.407	1.081	1.163	1.084	0.985	0.917	0.747	0.915	0.789	0.775	0.698	0.654	0.565	0.605	0.502	0.471	0.444	0.446	0.394	0.479	0.570	0.461	0.451	0.431	0.363	0.399	0.375	0.294	0.336	0.362	0.409	0.454	0.588	0.806	1.552	1.933	1.400	1.040	1.537	2.795	4.558	7.457	11.62	29.00	48.87	27.63	16.38	3.053	0.508	0.394	0.333	0.334	0.332	0.384	0.314
280.0	73.26	54.35	41.82	29.44	25.08	42.38	161.1	364.9	210.3	287.1	947.8	5650	8435	845.1	34.31	6.133	4.203	3.298	2.606	2.112	1.784	1.756	1.433	1.279	1.216	1.044	1.144	0.940	0.895	0.967	0.818	0.834	0.738	0.671	0.656	0.571	0.570	0.538	0.549	0.558	0.475	0.560	0.585	0.491	0.579	0.496	0.478	0.523	0.337	0.376	0.307	0.352	0.347	0.377	0.450	0.499	0.875	1.608	2.281	1.865	1.133	1.126	1.516	2.210	3.174	8.014	21.43	43.05	59.55	25.18	9.586	1.042	0.353	0.362	0.406	0.386	0.385
285.0	118.9	94.86	75.05	46.39	31.18	39.65	80.32	290.1	373.2	191.3	328.0	1655	7477	6864	554.0	14.63	5.922	3.940	2.901	2.324	2.185	1.899	1.541	1.326	1.215	1.107	1.110	0.910	0.941	0.852	0.919	0.886	0.657	0.748	0.640	0.609	0.624	0.587	0.644	0.580	0.587	0.646	0.636	0.580	0.526	0.559	0.596	0.699	0.521	0.460	0.395	0.426	0.416	0.414	0.433	0.440	0.591	0.730	1.531	2.386	2.367	1.566	1.028	1.204	1.455	2.575	5.737	13.14	33.71	57.45	58.21	20.16	4.489	0.476	0.438	0.442	0.384
290.0	185.3	192.8	157.4	93.70	59.95	57.89	77.79	159.8	385.4	479.3	348.5	629.4	2214	6096	6937	1800	34.17	6.069	3.887	3.149	2.467	2.052	1.828	1.462	1.521	1.229	1.159	1.053	1.009	0.995	0.855	0.799	0.728	0.767	0.666	0.810	0.728	0.771	0.734	0.633	0.673	0.723	0.652	0.648	0.719	0.765	0.738	0.874	0.803	0.669	0.533	0.533	0.481	0.442	0.496	0.537	0.562	0.656	0.896	1.334	2.068	2.740	2.942	2.185	1.766	1.894	2.693	4.357	9.055	17.46	32.05	44.37	39.36	40.35	12.71	3.931	0.669
295.0	282.7	310.4	247.7	155.8	94.41	81.28	95.70	149.1	272.3	581.7	755.2	594.3	861.9	1605	4130	9251	605.1	39.52	5.849	4.045	3.299	2.484	2.168	1.785	1.777	1.427	1.323	1.201	1.060	1.044	1.011	0.919	0.828	0.790	0.820	0.890	0.853	0.968	0.833	0.833	0.690	0.804	0.738	0.858	0.915	1.060	1.046	1.063	1.141	0.978	0.713	0.634	0.638	0.539	0.664	0.616	0.675	0.858	0.875	1.186	1.469	1.799	2.840	3.922	4.096	3.139	2.856	3.197	3.972	5.707	8.495	11.15	13.93	38.05	65.59	63.88	19.46
300.0	324.0	381.2	324.9	202.1	119.3	101.5	120.6	175.0	268.5	492.6	967.5	831.5	666.7	629.1	1122	6054	8461	490.3	21.48	5.501	4.185	2.985	2.502	1.996	1.715	1.607	1.355	1.365	1.095	1.091	0.982	0.833	0.861	0.884	0.843	1.012	0.979	1.013	0.930	0.778	0.882	0.808	1.036	1.021	0.973	1.179	1.180	1.284	1.306	1.059	0.765	0.801	0.761	0.719	0.764	0.704	0.710	0.881	0.958	1.228	1.434	1.803	2.299	3.289	4.724	5.030	4.135	3.574	3.455	3.441	3.547	3.545	4.105	9.994	25.36	59.78	81.23
305.0	368.3	404.3	363.4	225.5	130.9	113.3	140.5	194.7	295.8	469.0	840.9	1129	743.4	448.9	379.6	1646	7437	4394	341.4	10.59	5.142	3.445	2.974	2.319	1.782	1.522	1.389	1.311	1.284	1.232	0.960	0.911	0.816	0.873	0.919	1.070	1.107	1.004	0.954	0.922	0.925	0.893	0.935	1.124	1.014	1.326	1.339	1.549	1.322	1.159	0.886	0.872	0.797	0.779	0.746	0.826	0.855	1.039	1.173	1.475	1.562	1.760	2.259	2.714	3.711	5.052	5.821	4.948	3.976	3.223	2.804	2.172	1.943	3.012	6.428	16.15	39.98
310.0	375.8	440.0	386.3	239.3	138.2	125.9	155.3	210.5	315.4	471.6	707.9	1002	1010	524.4	243.0	442.4	1978	5064	5721	1398	24.18	5.210	3.796	2.510	2.139	1.871	1.674	1.381	1.364	1.172	1.051	1.032	0.915	0.953	1.057	1.064	1.153	1.043	0.998	0.948	0.919	0.955	0.972	1.066	1.129	1.314	1.391	1.632	1.426	1.188	0.934	0.918	0.815	0.782	0.751	0.844	0.967	1.028	1.252	1.498	1.497	1.976	2.311	2.681	3.149	3.769	4.541	5.287	5.402	4.648	3.376	2.130	1.625	1.701	2.220	4.182	9.663
315.0	376.7	432.3	388.5	243.4	151.3	135.7	161.5	220.2	311.2	455.7	639.5	798.3	886.3	770.3	285.8	193.6	498.8	1191	3468	7809	435.4	27.36	5.191	3.544	2.756	2.318	1.800	1.573	1.250	1.180	1.208	1.112	0.860	1.006	0.885	1.014	0.987	1.029	0.935	0.866	0.941	0.898	1.011	0.998	1.145	1.289	1.337	1.530	1.430	1.186	0.899	1.011	0.859	0.945	0.787	0.939	0.943	1.033	1.214	1.610	1.629	1.910	2.237	2.650	2.886	3.311	3.780	3.811	4.138	4.936	4.842	3.429	2.060	1.459	1.455	1.707	2.905
320.0	364.6	437.7	391.4	248.5	161.1	144.3	166.2	219.2	304.6	440.8	603.9	713.1	716.2	741.5	464.3	170.7	181.9	312.8	876.7	4961	6889	363.3	15.06	4.639	3.009	2.516	1.933	1.902	1.534	1.379	1.211	1.067	0.922	0.972	1.037	1.119	1.063	1.071	0.960	0.857	0.814	0.957	0.815	1.112	1.168	1.257	1.356	1.519	1.628	1.266	0.958	0.985	0.890	0.985	0.792	0.982	1.022	1.064	1.288	1.474	1.805	1.997	2.071	2.484	2.767	3.024	3.521	3.451	3.507	3.960	4.222	4.540	3.417	2.096	1.407	1.254	1.463
325.0	363.0	451.4	439.0	268.6	167.5	151.3	167.7	220.7	302.3	418.7	570.2	669.8	645.8	571.7	585.6	271.9	132.7	128.4	235.3	1319	5889	3332	270.2	8.109	4.334	3.141	2.388	1.878	1.671	1.370	1.287	1.051	1.120	0.909	0.897	0.995	1.057	1.072	1.005	0.887	0.798	0.844	0.863	1.066	1.069	1.270	1.413	1.672	1.558	1.266	1.015	0.947	0.964	0.913	0.953	0.943	1.108	1.129	1.211	1.453	1.556	1.833	2.058	2.305	2.785	2.997	3.117	3.432	3.363	3.569	3.202	3.339	3.893	3.489	2.261	1.421	1.235
330.0	372.1	464.7	449.3	307.0	203.8	167.1	176.2	222.5	298.0	405.6	533.6	618.6	604.3	494.3	444.0	431.1	245.3	118.7	112.5	338.5	1556	3972	4609	1205	20.44	4.148	2.838	2.177	2.021	1.615	1.413	1.103	1.105	0.947	1.028	1.026	1.045	1.021	0.940	0.879	0.865	0.837	0.992	1.100	1.178	1.279	1.492	1.726	1.600	1.446	1.138	1.146	1.099	0.992	0.992	0.957	1.176	1.124	1.212	1.421	1.607	1.796	2.063	2.324	2.577	2.811	3.004	3.212	3.054	3.266	2.989	2.654	2.747	2.894	3.102	3.020	2.319
335.0	352.8	477.4	482.2	346.4	235.3	198.2	189.2	231.2	294.1	391.2	503.4	585.7	579.8	479.1	381.6	342.0	408.5	218.5	114.6	142.9	397.3	942.2	2692	6611	1817	25.36	3.996	3.290	2.259	1.913	1.557	1.420	1.228	1.129	1.034	0.934	1.059	0.989	0.873	0.785	0.827	0.924	0.959	1.085	1.293	1.571	1.669	1.704	1.819	1.521	1.246	1.374	1.277	1.034	1.141	1.074	1.162	1.209	1.244	1.436	1.572	1.810	1.820	2.264	2.547	2.659	2.832	3.111	2.993	3.174	2.838	2.559	2.529	2.329	2.305	2.531	3.073
340.0	354.8	484.7	501.4	380.2	270.4	220.6	210.5	244.0	300.0	382.7	490.5	557.3	553.0	481.4	379.0	308.5	361.9	361.1	168.7	119.9	157.1	264.4	692.4	4038	6330	332.6	15.66	3.848	2.744	2.186	1.684	1.427	1.249	1.174	1.059	1.090	0.905	0.921	0.931	0.791	0.911	0.860	1.048	1.068	1.223	1.492	1.595	1.861	1.887	1.526	1.300	1.435	1.451	1.146	1.236	1.134	1.343	1.259	1.171	1.343	1.557	1.712	1.878	2.170	2.228	2.514	2.736	2.982	2.989	2.982	2.808	2.562	2.573	2.280	2.195	2.309	2.507
345.0	367.7	489.5	498.7	403.6	297.0	247.0	231.4	255.1	301.8	378.3	467.7	538.8	537.6	482.2	393.0	318.9	298.6	382.7	286.8	147.9	127.6	132.3	208.7	1075	4819	5114	265.6	7.790	3.474	2.508	1.891	1.617	1.521	1.149	1.075	1.021	1.061	0.940	0.823	0.809	0.767	0.946	0.954	1.159	1.340	1.510	1.709	1.809	1.918	1.603	1.454	1.534	1.505	1.371	1.279	1.186	1.338	1.377	1.301	1.356	1.684	1.701	1.869	2.140	2.278	2.384	2.517	2.687	3.003	2.865	2.726	2.708	2.571	2.371	2.364	2.263	2.325
350.0	367.3	475.9	493.8	424.3	329.0	283.6	267.0	280.6	318.7	378.3	453.2	515.2	522.3	477.8	414.4	346.6	304.1	312.1	355.7	277.5	167.2	134.1	126.0	294.9	1260	3564	3748	1141	19.62	3.961	2.448	1.942	1.564	1.226	1.243	1.095	0.955	0.964	0.874	0.880	0.751	0.941	1.004	1.050	1.305	1.407	1.530	1.789	1.879	1.653	1.588	1.670	1.655	1.520	1.366	1.337	1.404	1.401	1.391	1.498	1.665	1.796	1.887	2.158	2.265	2.272	2.527	2.590	2.851	2.906	2.704	2.665	2.663	2.557	2.517	2.431	2.280
355.0	358.4	479.5	501.1	433.8	375.4	335.7	318.3	313.8	340.1	392.2	452.2	504.1	515.9	482.4	435.5	377.4	341.5	315.9	315.8	364.4	288.8	176.9	138.1	146.5	335.1	838.5	1929	5219	1803	25.13	3.961	2.882	1.994	1.559	1.419	1.159	1.022	1.013	0.861	0.877	0.800	0.890	1.015	1.027	1.317	1.439	1.487	1.811	1.788	1.644	1.674	1.531	1.716	1.720	1.523	1.687	1.478	1.573	1.746	1.676	1.697	1.971	2.001	2.155	2.338	2.353	2.542	2.546	2.806	2.698	2.668	2.625	2.784	2.642	2.542	2.599	2.648
360.0	340.4	453.5	483.4	465.5	397.5	368.9	349.1	344.1	366.1	410.9	453.1	502.5	513.4	488.7	448.8	404.4	369.5	341.3	316.9	337.8	376.3	247.0	167.7	133.4	144.0	233.7	489.0	2877	5336	327.1	15.85	3.429	2.411	1.860	1.370	1.165	1.072	1.051	1.066	0.883	0.886	0.878	0.979	1.110	1.222	1.369	1.564	1.705	1.693	1.727	1.544	1.802	1.814	1.769	1.720	1.740	1.668	1.724	1.777	1.801	1.913	2.010	2.165	2.211	2.411	2.259	2.517	2.622	2.606	2.806	2.843	2.694	2.753	2.667	2.863	2.687	2.872
365.0	329.2	442.6	492.9	466.4	424.8	389.7	388.1	374.6	391.5	423.9	469.2	504.1	509.4	493.7	465.6	423.8	396.9	370.7	339.8	326.5	371.6	347.0	210.1	150.4	119.2	111.7	149.6	746.2	3638	4618	273.2	8.192	2.906	2.178	1.754	1.430	1.179	1.029	1.126	0.921	0.843	0.944	1.138	1.114	1.183	1.419	1.546	1.656	1.848	1.712	1.562	1.930	1.853	1.815	1.789	1.728	1.860	1.898	1.813	1.914	2.102	2.219	2.359	2.115	2.361	2.494	2.563	2.636	2.746	2.777	2.808	2.639	2.761	2.933	2.823	3.031	3.096
370.0	334.9	438.8	490.0	486.9	453.9	419.9	416.3	412.9	423.1	448.4	483.5	509.5	512.6	499.9	473.1	445.9	420.3	399.8	376.3	351.8	344.3	364.5	316.0	203.7	141.1	108.1	93.02	208.1	927.9	2896	3291	1123	18.81	3.134	2.138	1.625	1.414	1.158	1.116	1.030	1.010	1.041	1.069	1.147	1.204	1.437	1.575	1.714	1.818	1.744	1.660	1.963	1.966	2.009	1.852	1.971	2.136	1.953	2.050	2.139	2.181	2.200	2.272	2.345	2.354	2.455	2.580	2.665	2.710	2.637	2.794	2.665	2.885	3.069	2.878	2.941	3.297
375.0	340.0	439.2	491.5	498.6	475.3	458.5	448.5	440.0	448.3	468.0	498.0	509.4	520.1	505.9	482.3	458.9	441.2	423.6	407.1	379.4	359.2	338.8	349.7	303.9	183.6	132.2	101.3	104.4	246.6	677.0	1464	4415	1778	23.85	3.036	2.118	1.563	1.296	1.143	1.049	0.966	1.050	1.132	1.206	1.164	1.511	1.467	1.734	1.890	1.664	1.711	1.967	2.079	2.148	2.130	2.204	2.215	2.158	2.111	2.193	2.385	2.400	2.297	2.575	2.497	2.393	2.689	2.594	2.705	2.759	2.911	2.768	3.118	3.101	3.045	3.004	3.189
380.0	350.0	430.0	489.4	505.1	493.0	483.2	474.0	457.0	462.4	482.8	498.2	510.4	510.6	503.5	483.4	461.4	448.9	435.0	421.5	396.3	371.4	342.4	326.1	344.0	247.4	157.6	119.2	95.94	108.0	187.1	364.9	2138	4456	285.7	15.93	2.637	1.856	1.480	1.341	1.184	1.069	1.137	1.194	1.220	1.273	1.467	1.642	1.726	1.844	1.887	1.714	1.920	2.195	1.981	2.192	2.170	2.218	2.186	2.201	2.376	2.403	2.435	2.307	2.467	2.438	2.392	2.500	2.729	2.576	2.666	2.781	2.852	2.997	3.030	3.299	3.031	3.196
385.0	365.5	428.4	492.7	512.2	503.6	493.3	486.3	472.5	473.3	494.6	503.5	506.8	507.3	496.4	483.6	461.1	452.7	439.8	426.0	410.8	383.4	353.2	325.2	323.5	305.5	200.3	140.3	106.5	88.62	87.53	112.8	538.9	2604	3658	245.0	8.684	2.288	1.852	1.420	1.221	1.121	1.232	1.198	1.227	1.213	1.617	1.531	1.738	1.862	1.780	1.667	2.047	2.139	2.123	2.135	2.305	2.280	2.244	2.309	2.328	2.386	2.624	2.510	2.593	2.514	2.361	2.501	2.617	2.619	2.529	2.713	2.901	3.005	2.904	3.231	3.059	3.243
390.0	357.5	431.8	493.1	514.5	510.5	507.6	507.3	499.2	491.0	496.1	505.6	506.0	507.8	490.7	476.8	456.6	450.9	442.4	430.1	413.6	391.8	364.1	333.3	307.5	298.2	269.5	189.3	132.9	104.4	82.11	70.10	150.8	644.6	1967	2366	1015	16.57	2.790	1.727	1.508	1.249	1.228	1.227	1.289	1.284	1.572	1.522	1.727	1.781	1.775	1.695	2.126	2.160	2.313	2.312	2.261	2.323	2.334	2.333	2.531	2.407	2.366	2.446	2.549	2.441	2.379	2.498	2.557	2.633	2.639	2.698	2.724	2.830	2.962	3.037	3.099	3.189
395.0	350.5	415.3	498.8	524.3	519.3	519.9	510.3	508.4	503.7	504.7	507.5	504.9	501.9	484.4	468.2	447.3	441.0	438.3	427.1	412.6	394.3	372.5	342.1	312.1	282.6	274.0	258.1	174.5	127.9	98.97	76.69	75.94	172.0	459.0	891.6	2971	1546	22.84	2.908	2.175	1.420	1.310	1.337	1.253	1.358	1.497	1.576	1.700	1.942	1.929	1.846	2.069	2.231	2.279	2.281	2.419	2.338	2.344	2.352	2.391	2.373	2.383	2.491	2.706	2.467	2.469	2.405	2.610	2.665	2.566	2.557	2.693	2.831	2.860	3.007	3.158	3.275
400.0	339.6	440.5	491.5	513.9	527.9	527.0	520.8	511.5	501.2	508.0	510.2	500.2	497.4	476.6	459.4	441.6	434.5	430.8	420.7	406.5	392.0	373.5	348.5	318.8	284.9	261.0	270.8	223.4	150.1	115.0	88.03	69.07	74.02	126.3	220.4	1255	3166	1172	16.03	2.589	1.803	1.413	1.180	1.299	1.322	1.581	1.596	1.788	1.951	1.906	1.802	2.098	2.047	2.390	2.278	2.332	2.445	2.293	2.447	2.399	2.344	2.332	2.590	2.620	2.533	2.431	2.503	2.581	2.608	2.462	2.612	2.945	2.665	2.744	2.811	3.180	3.212
405.0	337.7	436.3	491.3	512.7	517.0	523.1	529.2	518.7	506.5	504.3	504.2	497.3	491.6	466.6	453.4	435.3	422.1	417.4	413.6	402.9	386.6	370.5	348.7	323.3	289.0	260.4	251.5	254.9	186.0	134.0	103.0	75.83	59.88	58.04	70.12	307.7	1588	3106	227.9	10.03	2.124	1.643	1.388	1.350	1.315	1.495	1.616	1.776	1.932	1.860	1.602	2.092	2.255	2.319	2.316	2.471	2.361	2.447	2.409	2.481	2.465	2.408	2.656	2.514	2.513	2.536	2.349	2.581	2.513	2.728	2.653	2.708	2.764	2.847	2.900	2.942	3.199
410.0	348.5	429.2	484.4	498.6	515.2	523.6	520.2	518.2	502.9	504.3	500.6	489.2	476.8	457.4	438.2	420.7	406.0	402.0	400.1	387.3	376.3	361.0	345.1	322.6	293.6	265.5	242.8	237.4	228.4	174.6	122.3	91.08	67.61	51.60	42.87	87.15	384.7	1429	1817	938.0	16.38	2.459	1.772	1.616	1.486	1.561	1.577	1.834	1.887	1.741	1.633	2.063	2.228	2.246	2.282	2.349	2.444	2.396	2.520	2.569	2.456	2.435	2.446	2.508	2.430	2.352	2.245	2.451	2.475	2.596	2.462	2.481	2.743	2.733	2.858	2.816	3.086
