Sample:	'1
File name:	G2025070405铭兴化工应急 20倍.FD3
Run date:	'16:25:42, 07/08/2025
Operator:	Administrator
Comment:	'

Instrument
Model:	F-2700 FL Spectrophotometer
Serial number:	23B8-004
ROM Version:	4J14000 07

Instrument parameters
Measurement type:	3-D scan
Data mode:	Fluorescence
EX  Start WL:	220.0 nm
EX  End WL:	600.0 nm
EX Sampling interval:	5.0 nm
EM  Start WL:	230.0 nm
EM  End WL:	650.0 nm
EM Sampling interval:	5.0 nm
Scan speed:	12000 nm/min
EX Slit:	5.0 nm
EM Slit:	5.0 nm
PMT Voltage:	700 V
Response:	Auto 
Corrected spectra:	Off
Contour interval:	50.000

Peak integration
Integration method:	Rectangular
Sensitivity:	1
Threshold:	1.000

Peaks
No.	ApexEX/EM(nm)	Height(Data)
1	225.0/640.0	76.20
2	235.0/350.0	6203
3	240.0/265.0	138.4
4	240.0/405.0	4607
5	245.0/270.0	167.3
6	245.0/410.0	4605
7	250.0/275.0	232.1
8	255.0/285.0	310.0
9	260.0/290.0	374.3
10	275.0/610.0	108.6
11	280.0/630.0	113.2
12	285.0/345.0	4178
13	285.0/640.0	116.5
14	310.0/400.0	2897
15	480.0/345.0	23.13
16	500.0/405.0	19.10

Data points
	220.0	225.0	230.0	235.0	240.0	245.0	250.0	255.0	260.0	265.0	270.0	275.0	280.0	285.0	290.0	295.0	300.0	305.0	310.0	315.0	320.0	325.0	330.0	335.0	340.0	345.0	350.0	355.0	360.0	365.0	370.0	375.0	380.0	385.0	390.0	395.0	400.0	405.0	410.0	415.0	420.0	425.0	430.0	435.0	440.0	445.0	450.0	455.0	460.0	465.0	470.0	475.0	480.0	485.0	490.0	495.0	500.0	505.0	510.0	515.0	520.0	525.0	530.0	535.0	540.0	545.0	550.0	555.0	560.0	565.0	570.0	575.0	580.0	585.0	590.0	595.0	600.0
230.0	34.93	371.7	719.2	209.4	13.76	6.765	5.913	5.129	4.319	3.710	3.849	3.632	3.411	3.006	2.850	2.612	2.397	2.205	2.087	2.029	2.089	2.010	1.990	1.823	1.659	1.372	1.117	1.061	0.996	1.026	0.965	0.898	0.804	0.817	0.714	0.739	0.659	0.620	0.592	0.599	0.600	0.592	0.569	0.543	0.488	0.463	0.725	1.872	2.824	1.944	0.833	0.408	0.339	0.295	0.329	0.312	0.323	0.320	0.319	0.304	0.294	0.320	0.292	0.330	0.309	0.305	0.335	0.317	0.293	0.322	0.315	0.301	0.312	0.342	0.330	0.308	0.368
235.0	43.86	115.6	532.1	724.3	243.6	18.45	6.706	4.942	5.105	4.255	4.065	3.563	3.622	3.227	3.016	2.688	2.320	2.327	2.157	2.087	1.896	1.910	1.949	1.754	1.668	1.489	1.203	1.132	1.029	0.957	0.907	0.882	0.744	0.732	0.687	0.658	0.690	0.594	0.637	0.573	0.557	0.623	0.504	0.551	0.534	0.460	0.473	0.767	1.433	2.267	2.809	2.877	1.342	0.551	0.321	0.304	0.334	0.331	0.328	0.319	0.354	0.286	0.312	0.361	0.320	0.307	0.354	0.304	0.311	0.361	0.284	0.347	0.315	0.336	0.355	0.263	0.362
240.0	50.26	51.91	179.5	760.4	620.7	204.7	12.06	5.496	5.444	4.473	4.642	4.170	3.533	3.596	2.945	3.017	2.343	2.158	2.118	2.184	2.202	1.813	2.093	1.993	1.609	1.522	1.238	1.199	1.040	1.091	0.974	0.767	0.783	0.776	0.781	0.672	0.650	0.615	0.618	0.688	0.580	0.522	0.463	0.604	0.541	0.494	0.470	0.479	0.589	0.951	1.845	4.015	4.815	3.044	1.102	0.408	0.347	0.427	0.420	0.288	0.350	0.364	0.359	0.354	0.290	0.313	0.346	0.291	0.309	0.322	0.273	0.350	0.316	0.341	0.282	0.277	0.381
245.0	45.82	65.15	62.04	297.8	1068	885.0	125.6	6.790	5.114	4.514	4.932	4.506	3.728	3.756	3.342	2.996	2.437	2.556	2.147	2.350	2.256	2.083	2.031	1.942	1.563	1.636	1.238	1.110	1.117	1.052	0.943	0.963	0.877	0.743	0.711	0.717	0.646	0.619	0.647	0.631	0.740	0.525	0.527	0.468	0.485	0.560	0.586	0.577	0.388	0.474	0.650	1.708	3.669	5.640	5.447	3.062	0.889	0.357	0.347	0.346	0.309	0.312	0.358	0.316	0.306	0.279	0.312	0.296	0.319	0.335	0.312	0.267	0.325	0.302	0.298	0.385	0.431
250.0	31.93	63.95	76.42	95.48	401.7	1099	981.3	199.4	18.19	5.638	5.144	4.741	4.293	3.945	3.369	2.902	2.504	2.556	2.441	2.244	2.234	2.338	2.026	2.081	1.688	1.498	1.246	1.169	1.102	1.092	0.938	0.981	0.818	0.814	0.786	0.737	0.688	0.568	0.605	0.624	0.609	0.616	0.557	0.523	0.531	0.452	0.482	0.608	0.568	0.504	0.461	0.676	1.148	2.144	3.886	6.086	7.471	5.922	3.638	1.021	0.371	0.307	0.317	0.334	0.358	0.303	0.296	0.259	0.306	0.314	0.305	0.302	0.382	0.376	0.324	0.332	0.349
255.0	26.55	35.24	66.91	100.0	119.5	309.9	1153	2018	240.9	15.21	6.199	5.412	4.325	4.200	3.501	3.329	2.814	2.698	2.556	2.382	2.296	2.388	2.229	2.066	1.772	1.492	1.195	1.108	1.163	1.136	0.908	0.994	0.894	0.831	0.825	0.723	0.668	0.695	0.559	0.660	0.571	0.590	0.503	0.537	0.580	0.404	0.435	0.427	0.464	0.527	0.628	0.654	0.585	0.858	1.120	1.767	3.399	7.404	13.62	11.52	4.658	0.953	0.356	0.297	0.295	0.314	0.380	0.312	0.277	0.310	0.341	0.349	0.368	0.363	0.361	0.321	0.424
260.0	30.33	24.24	39.45	99.86	103.9	96.57	411.7	2068	1747	184.0	10.45	6.242	5.211	4.403	3.508	3.273	3.055	2.787	2.307	2.433	2.680	2.540	2.510	1.909	1.754	1.662	1.210	1.071	1.120	1.037	0.898	0.979	0.899	0.852	0.747	0.690	0.723	0.628	0.555	0.652	0.668	0.620	0.528	0.609	0.570	0.423	0.378	0.430	0.422	0.397	0.535	0.897	0.802	0.608	0.573	0.704	1.044	2.388	6.861	13.20	15.54	10.57	3.283	0.659	0.346	0.314	0.357	0.335	0.293	0.310	0.359	0.323	0.370	0.355	0.366	0.356	0.324
265.0	34.21	21.90	21.61	65.18	138.4	86.30	120.5	809.6	2265	1614	135.1	8.672	5.278	4.516	3.766	3.803	3.066	3.030	2.607	2.392	2.521	2.560	2.683	2.012	1.841	1.540	1.305	1.049	1.238	1.128	0.975	0.906	0.823	0.805	0.780	0.904	0.714	0.802	0.638	0.610	0.648	0.640	0.601	0.610	0.559	0.473	0.372	0.418	0.402	0.324	0.364	0.654	0.863	1.007	0.749	0.534	0.568	0.802	1.967	4.339	9.848	16.98	17.62	10.46	2.077	0.417	0.332	0.348	0.298	0.289	0.439	0.315	0.380	0.357	0.369	0.363	0.378
270.0	56.01	40.97	29.68	39.58	100.9	167.3	121.9	222.8	824.7	2245	2596	606.9	19.60	5.327	4.550	3.776	3.261	2.916	2.762	2.772	2.511	2.475	2.689	2.261	1.878	1.585	1.373	1.256	1.235	1.222	1.084	0.966	0.865	0.845	0.800	0.809	0.752	0.776	0.709	0.613	0.661	0.580	0.620	0.649	0.573	0.474	0.471	0.483	0.474	0.353	0.364	0.451	0.587	0.876	1.033	1.107	0.952	0.722	0.905	1.332	2.684	5.478	10.26	17.11	17.57	13.83	7.592	1.836	0.411	0.345	0.353	0.329	0.360	0.347	0.414	0.363	0.393
275.0	120.7	101.5	60.41	36.87	69.32	136.7	232.1	155.7	235.1	637.0	2527	6086	162.9	15.30	5.993	4.492	3.697	3.182	2.957	2.863	2.874	2.672	2.729	2.323	1.930	1.672	1.429	1.248	1.199	1.090	1.256	1.015	0.963	0.911	0.876	0.947	0.793	0.822	0.762	0.745	0.786	0.788	0.716	0.776	0.666	0.634	0.615	0.585	0.503	0.448	0.358	0.489	0.472	0.638	0.735	0.885	1.456	1.793	1.318	0.875	1.079	1.664	2.816	4.427	6.237	12.61	23.03	21.45	10.89	2.071	0.422	0.369	0.403	0.413	0.390	0.388	0.402
280.0	198.6	167.6	103.4	49.14	62.49	99.20	210.3	259.9	154.0	223.0	844.9	5690	3999	123.8	8.829	5.095	4.229	3.751	3.100	3.113	3.054	2.857	2.869	2.406	2.061	1.811	1.459	1.304	1.152	1.174	1.198	1.101	1.039	1.031	0.865	0.915	0.843	0.868	0.797	0.862	0.760	0.794	0.868	0.874	0.894	0.886	0.761	0.784	0.729	0.518	0.385	0.434	0.519	0.595	0.612	0.795	0.995	1.561	1.781	1.579	1.029	1.038	1.216	1.797	2.049	3.742	9.302	18.84	28.32	24.32	6.954	0.928	0.403	0.418	0.312	0.395	0.347
285.0	284.2	257.4	145.4	63.84	66.13	96.78	147.0	310.0	257.6	176.1	309.3	1944	5136	3023	83.39	7.064	4.757	4.148	3.386	3.512	3.133	3.086	3.078	2.635	2.120	1.860	1.325	1.178	1.371	1.154	1.200	1.101	0.990	1.073	1.043	0.927	0.828	0.971	0.889	1.058	0.920	0.908	0.931	0.999	1.039	1.142	1.053	0.993	0.812	0.559	0.417	0.544	0.499	0.581	0.621	0.738	0.784	1.086	1.391	2.108	2.170	1.549	1.104	1.291	1.309	1.648	2.867	5.862	14.26	29.46	29.15	16.67	3.951	0.522	0.390	0.467	0.420
290.0	355.5	345.8	220.8	104.2	81.10	104.4	138.7	224.5	374.3	358.2	292.9	633.4	1773	3778	2958	352.1	14.24	5.303	4.092	3.453	3.489	3.291	3.051	2.782	2.317	1.856	1.465	1.225	1.295	1.232	1.151	1.087	0.942	1.037	1.044	1.036	0.930	1.024	0.957	1.002	1.007	1.040	1.036	1.158	1.329	1.321	1.278	1.283	1.018	0.734	0.598	0.626	0.584	0.647	0.747	0.696	0.854	0.995	1.154	1.447	1.985	2.459	2.457	2.177	1.817	1.636	1.824	2.529	4.311	8.756	13.60	20.13	24.39	23.14	12.29	3.922	0.661
295.0	421.0	446.5	305.4	152.8	105.9	120.4	158.9	217.0	328.4	552.0	541.6	477.5	647.7	1085	3203	4196	94.17	13.41	5.752	4.040	3.965	3.686	3.594	3.019	2.570	1.973	1.675	1.331	1.275	1.213	1.353	1.056	1.096	1.009	1.039	1.145	1.027	1.164	0.973	0.975	1.182	1.147	1.212	1.311	1.382	1.541	1.425	1.567	1.328	0.860	0.714	0.786	0.662	0.756	0.847	0.845	0.947	1.051	1.330	1.386	1.619	1.946	2.484	3.639	3.404	2.792	2.361	2.436	2.632	3.697	4.300	5.657	7.575	15.00	26.71	33.04	16.55
300.0	469.5	507.7	387.6	202.3	142.8	150.5	188.4	258.0	340.4	536.9	787.2	638.4	551.2	542.1	1124	4023	3438	79.06	9.047	4.852	4.831	4.250	4.147	3.431	2.647	2.300	1.639	1.445	1.409	1.445	1.346	1.136	1.149	1.140	1.272	1.219	1.135	1.361	1.219	1.265	1.242	1.141	1.212	1.354	1.401	1.639	1.604	1.785	1.581	1.065	0.994	0.901	0.865	0.896	0.968	0.953	1.015	1.231	1.499	1.563	1.857	1.975	2.457	3.028	4.022	4.670	4.079	3.214	3.034	3.084	3.128	3.302	3.211	4.923	9.670	22.69	32.46
305.0	547.0	581.3	467.7	274.5	196.6	192.8	236.7	306.4	422.8	579.8	884.8	1014	783.6	648.6	636.2	1556	4361	2768	56.53	7.190	5.566	4.400	4.735	3.664	2.968	2.258	1.707	1.627	1.493	1.773	1.448	1.184	1.150	0.967	1.124	1.297	1.228	1.344	1.286	1.399	1.306	1.356	1.447	1.408	1.526	1.824	1.884	2.131	1.794	1.332	1.130	1.255	1.030	1.100	1.056	0.994	1.278	1.439	1.625	1.928	2.202	2.367	2.757	3.313	3.967	4.854	5.559	5.645	4.643	4.406	3.983	3.710	3.742	3.669	4.129	7.285	14.06
310.0	696.3	788.8	636.9	401.1	292.9	285.8	340.4	430.8	586.0	783.1	1051	1380	1451	1205	935.9	943.1	1681	3398	2317	256.7	16.30	6.119	5.457	4.269	3.091	2.780	1.886	1.777	1.607	1.567	1.477	1.429	1.247	1.065	1.223	1.243	1.334	1.430	1.362	1.456	1.454	1.575	1.662	1.716	1.914	2.146	2.324	2.534	2.289	1.723	1.482	1.710	1.421	1.372	1.408	1.410	1.649	2.001	2.257	2.381	2.806	3.161	3.503	4.209	4.646	5.444	5.994	6.764	7.519	7.428	7.056	6.569	5.854	5.765	5.331	5.318	6.339
315.0	905.2	964.3	836.4	548.8	416.5	414.3	480.8	611.9	796.9	1049	1352	1702	1991	1982	1556	1211	1021	1161	2466	3534	388.4	13.56	8.241	5.810	4.064	3.381	2.211	1.977	1.706	1.449	1.670	1.518	1.574	1.373	1.214	1.471	1.436	1.768	1.636	1.666	1.634	1.757	1.883	2.152	2.294	2.498	2.875	3.203	2.792	2.191	1.920	2.037	1.848	1.881	1.893	1.941	2.374	2.615	2.906	2.980	3.593	4.204	4.677	5.206	5.960	6.723	7.555	8.130	8.928	9.685	10.48	10.78	9.435	9.052	7.938	7.073	6.637
320.0	995.5	1158	1007	669.4	519.4	506.5	582.1	759.2	971.4	1243	1607	1974	2262	2444	2078	1547	1093	778.2	947.6	3213	3517	62.10	17.96	10.19	6.032	3.819	2.492	2.478	1.912	1.722	1.747	1.556	1.431	1.250	1.172	1.650	1.587	1.806	1.743	1.803	1.862	2.011	2.032	2.255	2.557	2.964	3.259	3.464	3.135	2.547	2.241	2.328	2.252	2.344	2.150	2.271	2.681	2.974	3.611	3.245	4.093	5.031	5.613	5.811	6.747	7.390	8.268	9.095	10.65	10.80	11.62	13.06	12.02	11.74	10.17	9.262	8.655
325.0	1106	1310	1180	821.9	634.1	607.0	696.9	879.7	1093	1404	1791	2201	2495	2651	2485	1890	1313	819.4	622.4	1212	4166	2276	59.13	33.66	10.86	4.592	2.806	2.368	2.233	1.979	1.703	1.684	1.560	1.270	1.487	1.552	1.697	1.970	1.876	1.843	2.012	2.064	2.244	2.326	2.898	3.219	3.470	3.855	3.771	3.066	2.656	2.930	2.589	2.623	2.684	2.596	3.017	3.494	3.880	4.070	4.892	5.474	6.168	6.851	7.504	8.046	9.203	10.33	11.50	11.74	12.93	13.87	13.71	14.04	12.92	11.35	10.27
330.0	1653	1911	1979	1757	1503	1200	1020	1105	1359	1682	2120	2562	2891	3009	2852	2479	1901	1432	1123	1243	2112	3374	3703	1161	129.2	21.64	5.885	3.732	2.785	2.772	2.077	1.997	1.756	1.582	1.618	1.735	1.919	2.329	2.246	2.319	2.594	2.826	3.196	3.395	4.219	4.599	4.751	5.630	5.740	5.237	5.238	6.200	5.903	5.613	5.142	4.649	4.718	4.553	4.909	5.095	6.006	6.558	7.407	8.118	8.975	9.919	10.71	11.87	13.39	13.74	14.76	15.59	15.38	15.77	15.53	14.93	13.92
335.0	3198	3449	4134	4500	4170	3020	1857	1533	1775	2196	2726	3236	3622	3749	3605	3270	2983	2715	2623	3165	3453	3612	6206	6571	1407	123.0	22.14	7.767	4.534	4.061	3.092	2.743	2.339	2.078	2.176	2.238	2.727	3.055	3.159	3.507	3.878	4.712	5.696	6.733	7.592	8.467	8.853	9.880	11.13	11.61	12.84	16.52	16.22	15.32	13.31	11.42	9.109	7.650	6.930	7.222	7.859	8.550	9.450	10.79	12.07	12.70	13.56	15.21	16.29	18.25	18.19	19.09	19.54	20.06	19.88	19.26	19.10
340.0	3964	4296	5136	5824	5523	3973	2333	1773	1982	2396	2954	3490	3913	4069	3959	3618	3400	3365	3320	4029	4356	4257	6016	7403	3728	415.6	53.99	16.59	6.684	4.949	3.686	3.097	2.834	2.335	2.498	2.462	3.061	3.407	3.783	4.269	4.654	5.525	6.850	8.245	9.408	10.71	10.31	12.57	13.58	14.93	16.32	21.96	21.81	21.16	18.13	15.23	12.16	9.020	8.159	7.881	8.781	9.678	10.78	11.99	12.53	13.74	15.24	16.19	17.53	19.48	19.76	20.60	20.92	22.28	22.12	21.17	21.71
345.0	4214	4616	5450	6161	5733	4127	2483	1866	2005	2424	2972	3545	3973	4178	4072	3761	3484	3536	3567	4225	4544	4716	5956	5773	6411	3144	314.7	37.54	11.37	5.860	4.069	3.571	2.987	2.588	2.510	2.741	3.026	3.833	3.998	4.593	4.954	6.034	7.393	8.503	9.999	11.14	10.91	13.43	15.10	15.33	17.58	22.88	23.13	21.61	18.50	15.29	12.53	9.682	8.771	8.368	8.939	9.604	10.65	12.30	13.01	14.15	15.27	16.66	17.48	19.32	20.32	21.44	21.84	22.71	22.39	22.84	22.76
350.0	4301	4620	5436	6203	5722	4134	2542	1922	2017	2385	2881	3436	3851	4041	3979	3736	3498	3500	3701	4359	4639	4917	6010	5204	4462	4093	2723	826.6	25.26	7.848	5.047	4.060	3.325	2.701	2.549	2.830	3.112	3.939	3.865	4.447	4.870	6.115	7.232	8.386	10.23	11.08	10.86	13.32	14.86	15.65	17.80	22.61	22.98	22.07	18.55	14.96	12.44	10.21	9.247	8.791	8.907	9.456	10.46	11.42	12.75	13.49	14.48	16.30	17.09	18.94	19.66	20.79	22.06	22.57	22.15	22.46	22.09
355.0	3830	4299	5047	5771	5407	3948	2512	1938	1964	2250	2667	3163	3551	3731	3706	3517	3335	3330	3507	4191	4441	4622	5537	4743	3527	2323	1958	4075	365.8	21.47	6.976	4.627	3.497	2.871	2.416	2.651	2.990	3.436	3.736	4.225	4.990	5.505	6.844	8.018	9.451	9.974	10.21	12.13	14.00	14.70	16.44	21.61	21.19	20.08	17.15	13.99	12.47	10.24	9.400	8.956	8.976	9.143	10.02	10.83	11.96	12.61	13.40	15.36	16.64	17.12	18.64	19.23	20.52	21.54	20.76	21.12	21.58
360.0	3532	4001	4642	5208	4895	3634	2471	1956	1925	2149	2510	2935	3282	3457	3454	3319	3157	3135	3270	3785	4074	4273	4900	4239	3380	2012	841.4	2966	3005	301.5	12.98	6.027	3.684	2.938	2.783	2.781	2.905	3.624	3.840	3.825	4.454	5.282	6.107	7.322	8.752	9.466	9.357	11.28	12.78	12.92	14.68	19.20	19.69	18.16	16.06	13.55	12.39	10.38	9.096	9.104	9.022	9.055	9.693	10.46	11.18	12.10	13.05	13.99	15.06	15.78	17.30	18.33	19.00	19.38	19.46	19.80	20.91
365.0	3206	3607	4259	4687	4414	3403	2434	1999	1938	2057	2365	2707	3035	3193	3228	3123	2991	2966	3065	3439	3676	3923	4301	3720	3175	1903	589.5	964.8	2957	2797	48.99	9.707	5.024	3.361	3.075	2.785	2.620	3.504	3.447	3.689	4.436	5.201	5.786	6.536	7.913	8.747	8.562	10.67	11.37	12.19	13.43	17.27	17.41	16.31	14.40	12.58	11.71	10.07	9.442	8.933	8.617	9.003	9.520	9.894	10.55	11.11	12.39	13.25	14.00	14.58	15.79	16.75	17.25	18.56	18.20	18.89	19.78
370.0	3016	3381	3936	4258	4021	3284	2558	2167	2029	2043	2230	2493	2779	2919	2973	2927	2855	2840	2899	3139	3265	3447	3706	3170	2703	1686	591.9	445.3	947.6	2644	2525	723.7	19.14	5.364	3.783	3.044	2.878	3.570	3.256	3.820	4.064	4.579	5.236	6.070	7.164	7.911	8.120	10.06	10.75	11.01	12.15	15.66	15.56	15.27	13.73	12.20	11.82	10.84	10.14	9.473	9.532	9.429	9.426	9.704	10.09	10.60	11.56	12.07	12.67	13.48	14.74	15.36	16.21	16.87	17.02	17.80	17.99
375.0	2877	3337	3794	4018	3840	3352	2810	2447	2221	2113	2168	2349	2573	2703	2783	2783	2783	2771	2818	2955	2987	3065	3231	2799	2380	1568	696.5	441.5	436.9	752.1	1573	3008	339.3	20.41	5.826	3.950	3.067	3.588	3.450	3.819	4.087	4.359	5.260	5.619	6.925	7.692	8.092	9.927	10.34	10.28	11.80	14.73	14.96	14.60	13.58	12.77	13.04	11.78	11.39	11.17	10.62	10.59	10.08	9.992	10.25	10.39	10.58	11.24	11.96	12.66	13.54	13.89	15.22	15.86	16.37	17.26	17.71
380.0	2873	3404	3789	3963	3855	3482	3068	2722	2411	2209	2169	2268	2466	2602	2705	2729	2751	2763	2798	2879	2865	2883	2932	2608	2273	1551	810.3	533.4	400.8	375.4	523.8	2126	2758	268.6	15.27	5.773	3.937	4.245	3.889	3.874	4.145	4.451	5.321	5.842	6.745	8.055	8.154	9.994	10.55	10.31	11.36	14.04	14.77	14.28	14.35	13.36	13.89	13.29	12.38	12.20	11.46	10.88	10.96	10.53	10.11	10.32	10.70	10.82	11.43	12.87	13.17	12.97	14.41	15.11	15.37	16.93	16.96
385.0	2965	3427	3857	4001	3958	3706	3350	2981	2626	2311	2191	2258	2410	2554	2656	2718	2755	2783	2811	2853	2798	2782	2750	2460	2216	1580	930.2	652.3	475.6	364.8	307.4	687.2	2575	2283	227.0	10.42	5.356	5.100	4.173	4.129	4.130	4.879	5.310	5.861	7.075	7.960	8.457	10.33	10.89	10.41	11.17	14.53	14.41	14.95	14.48	14.02	14.33	14.32	13.33	12.58	12.38	11.78	11.05	11.00	10.24	10.35	10.52	10.75	11.58	12.60	12.57	13.29	14.33	15.53	15.41	16.59	17.39
390.0	3129	3769	4145	4189	4171	4059	3768	3365	2917	2489	2277	2259	2381	2525	2630	2716	2796	2842	2860	2861	2786	2729	2640	2368	2149	1676	1120	840.7	646.5	490.6	365.5	352.7	812.4	1853	2740	849.4	19.17	8.010	5.554	4.831	4.862	5.204	5.541	6.390	7.368	8.391	9.245	10.62	11.34	10.94	11.78	14.47	15.31	15.88	15.22	15.33	16.12	15.88	15.20	14.24	13.86	13.18	12.27	11.61	11.10	10.71	10.17	10.91	11.22	12.05	12.65	13.42	14.20	15.29	15.60	16.47	17.50
395.0	3340	4009	4338	4369	4431	4364	4088	3714	3176	2686	2366	2294	2376	2503	2610	2728	2814	2877	2892	2881	2790	2710	2590	2343	2111	1756	1346	1050	842.7	664.3	505.4	377.5	385.2	552.4	1597	3744	287.0	24.30	8.094	5.998	5.865	5.643	5.713	6.666	7.853	8.938	9.368	11.45	11.87	11.08	12.13	15.16	15.57	16.60	16.36	16.34	17.49	17.29	16.79	15.11	14.87	14.40	13.07	12.27	11.66	11.25	10.90	11.21	11.35	12.27	12.63	13.36	13.73	14.78	15.67	16.66	17.25
400.0	3466	4097	4514	4498	4542	4509	4299	3924	3336	2789	2415	2294	2358	2494	2591	2716	2819	2879	2897	2878	2787	2693	2573	2347	2120	1799	1484	1217	990.0	805.3	629.2	462.6	354.9	304.3	510.7	2465	2312	267.5	16.99	8.290	6.631	6.266	6.114	6.871	7.987	9.382	9.752	11.47	11.73	11.66	12.23	15.59	15.49	16.81	16.32	17.09	18.25	18.47	17.81	16.61	15.71	14.90	13.93	12.44	11.90	11.57	10.85	11.08	11.02	12.25	12.85	13.29	14.24	14.96	15.44	16.61	17.80
405.0	3505	4185	4490	4521	4607	4593	4436	4067	3439	2847	2465	2316	2341	2470	2572	2683	2789	2858	2877	2837	2768	2660	2556	2341	2133	1841	1566	1362	1124	931.5	747.1	565.4	412.9	308.9	279.0	766.3	2082	2283	184.4	13.56	8.840	7.214	6.583	6.915	8.125	9.145	9.882	11.75	12.21	11.91	12.53	15.45	16.11	17.22	16.77	17.44	19.10	19.06	18.08	17.07	16.48	15.85	14.33	13.10	11.97	11.59	11.17	11.46	10.75	12.03	12.42	12.76	14.21	14.70	15.45	16.26	17.47
410.0	3494	4178	4497	4489	4600	4605	4492	4106	3505	2902	2490	2320	2319	2407	2515	2618	2718	2784	2807	2765	2695	2602	2500	2322	2127	1888	1647	1476	1312	1104	901.1	715.7	548.5	406.7	309.4	344.9	665.9	2176	1846	638.5	20.94	10.20	8.443	7.518	8.406	9.540	9.919	11.65	12.35	11.88	12.40	15.52	16.36	16.90	17.28	17.51	18.81	18.88	18.14	17.48	16.93	15.94	14.50	13.80	12.64	11.31	11.03	11.32	11.17	11.87	12.39	12.41	14.03	14.30	15.38	15.99	16.47
415.0	3491	4067	4387	4337	4485	4510	4420	4065	3527	2913	2502	2294	2270	2336	2431	2502	2602	2670	2693	2656	2586	2505	2406	2264	2111	1909	1717	1550	1435	1279	1059	862.0	678.7	529.0	402.8	324.7	326.3	620.5	1070	2375	265.6	24.99	13.21	9.611	9.634	9.901	9.953	11.69	11.75	11.61	12.43	15.34	15.92	16.34	17.03	17.10	18.13	18.51	17.79	17.68	16.97	15.69	14.29	13.63	12.43	11.52	11.53	10.83	10.89	11.29	12.18	12.23	13.24	13.37	14.32	15.18	16.48
420.0	3313	3897	4251	4240	4320	4410	4298	3979	3453	2901	2485	2264	2226	2280	2350	2417	2497	2560	2569	2541	2487	2411	2336	2216	2076	1906	1731	1605	1479	1369	1175	962.1	781.9	619.9	485.2	377.5	298.4	301.9	374.9	1547	2140	227.2	24.21	15.03	11.56	10.81	10.14	11.24	11.58	11.24	11.78	14.80	15.04	15.74	16.27	17.18	17.97	18.03	17.45	17.29	16.89	15.94	14.28	13.12	12.01	11.48	11.56	10.60	10.85	10.91	11.91	12.09	12.79	13.58	14.35	14.91	15.64
425.0	3122	3746	4034	4076	4175	4207	4167	3850	3351	2844	2464	2237	2178	2202	2259	2325	2392	2451	2459	2427	2393	2328	2262	2155	2027	1886	1742	1628	1518	1417	1273	1060	866.5	709.6	569.4	450.1	341.5	279.5	239.3	520.5	2008	1758	183.4	26.49	17.43	12.53	10.36	11.50	11.28	10.77	11.06	14.50	14.61	15.72	15.67	16.04	17.13	17.90	17.02	16.51	16.37	15.47	13.89	13.07	12.17	11.48	11.23	10.73	10.57	11.31	11.35	11.50	12.30	13.27	14.09	14.82	15.03
