Sample:	'1
File name:	G2025090912月河六路东003雨水井.FD3
Run date:	'15:36:46, 09/10/2025
Operator:	Administrator
Comment:	'

Instrument
Model:	F-2700 FL Spectrophotometer
Serial number:	24D1-003
ROM Version:	4J14000 07

Instrument parameters
Measurement type:	3-D scan
Data mode:	Fluorescence
EX  Start WL:	220.0 nm
EX  End WL:	600.0 nm
EX Sampling interval:	5.0 nm
EM  Start WL:	230.0 nm
EM  End WL:	650.0 nm
EM Sampling interval:	5.0 nm
Scan speed:	12000 nm/min
EX Slit:	5.0 nm
EM Slit:	5.0 nm
PMT Voltage:	700 V
Response:	Auto 
Corrected spectra:	Off
Contour interval:	50.000

Peak integration
Integration method:	Rectangular
Sensitivity:	1
Threshold:	1.000

Peaks
No.	ApexEX/EM(nm)	Height(Data)
1	230.0/340.0	846.9
2	230.0/620.0	21.97
3	235.0/515.0	158.7
4	240.0/265.0	372.0
5	240.0/525.0	176.9
6	245.0/270.0	374.8
7	245.0/535.0	159.4
8	250.0/275.0	475.1
9	250.0/550.0	143.7
10	255.0/280.0	608.9
11	255.0/560.0	134.6
12	260.0/285.0	612.1
13	260.0/575.0	114.4
14	265.0/290.0	658.9
15	265.0/585.0	109.1
16	270.0/300.0	976.9
17	270.0/600.0	99.56
18	275.0/305.0	1134
19	275.0/610.0	88.01
20	280.0/310.0	1005
21	280.0/340.0	1094
22	280.0/620.0	76.95
23	285.0/315.0	980.2
24	285.0/635.0	60.10
25	290.0/325.0	977.5
26	315.0/355.0	433.1
27	320.0/360.0	455.7
28	325.0/365.0	427.7
29	335.0/380.0	393.0
30	340.0/385.0	374.1
31	350.0/400.0	318.9
32	355.0/405.0	315.2
33	360.0/410.0	286.8
34	365.0/420.0	277.1
35	370.0/425.0	263.5
36	430.0/505.0	41.95
37	440.0/520.0	29.18
38	455.0/540.0	16.96
39	470.0/560.0	9.248
40	475.0/340.0	3.055
41	515.0/280.0	3.580
42	520.0/285.0	3.869
43	530.0/290.0	3.656
44	540.0/295.0	4.948
45	545.0/300.0	5.036
46	555.0/305.0	5.061
47	560.0/310.0	4.647
48	570.0/340.0	5.026
49	575.0/320.0	5.125
50	585.0/325.0	5.411

Data points
	220.0	225.0	230.0	235.0	240.0	245.0	250.0	255.0	260.0	265.0	270.0	275.0	280.0	285.0	290.0	295.0	300.0	305.0	310.0	315.0	320.0	325.0	330.0	335.0	340.0	345.0	350.0	355.0	360.0	365.0	370.0	375.0	380.0	385.0	390.0	395.0	400.0	405.0	410.0	415.0	420.0	425.0	430.0	435.0	440.0	445.0	450.0	455.0	460.0	465.0	470.0	475.0	480.0	485.0	490.0	495.0	500.0	505.0	510.0	515.0	520.0	525.0	530.0	535.0	540.0	545.0	550.0	555.0	560.0	565.0	570.0	575.0	580.0	585.0	590.0	595.0	600.0
230.0	27.90	195.4	778.5	278.6	17.65	9.264	7.014	6.579	5.794	5.406	4.883	4.441	4.100	3.655	3.023	2.695	2.290	2.057	1.775	1.658	1.547	1.461	1.307	1.243	1.249	1.069	1.018	1.007	1.042	0.958	0.947	0.911	0.839	0.814	0.745	0.742	0.723	0.691	0.684	0.635	0.583	0.602	0.595	0.626	0.557	0.509	0.533	0.993	2.430	2.842	1.533	0.686	0.509	0.488	0.489	0.528	0.488	0.480	0.505	0.471	0.496	0.455	0.516	0.553	0.442	0.487	0.445	0.499	0.500	0.479	0.502	0.548	0.537	0.462	0.524	0.477	0.530
235.0	31.48	73.48	695.9	2079	439.4	36.00	9.600	6.932	7.255	6.421	5.156	4.924	4.353	3.723	3.192	2.748	2.336	2.119	1.583	1.612	1.547	1.688	1.306	1.301	1.327	1.130	1.139	1.145	1.094	0.966	1.009	1.093	0.901	0.846	0.776	0.731	0.648	0.703	0.657	0.625	0.686	0.649	0.584	0.578	0.499	0.480	0.538	0.594	1.270	2.825	5.799	8.617	5.477	1.643	0.534	0.463	0.590	0.536	0.480	0.421	0.428	0.491	0.414	0.524	0.502	0.481	0.478	0.436	0.531	0.487	0.509	0.499	0.500	0.463	0.576	0.482	0.467
240.0	42.85	45.29	233.3	2105	3441	382.0	21.66	8.958	7.505	8.010	5.407	4.751	4.409	3.930	3.082	2.975	1.997	2.256	1.839	1.681	1.582	1.513	1.429	1.554	1.471	1.168	1.135	1.158	1.124	1.029	1.006	1.046	0.946	0.896	0.725	0.769	0.743	0.786	0.721	0.724	0.658	0.522	0.542	0.521	0.601	0.768	0.554	0.595	0.639	1.132	3.083	9.954	15.67	12.52	4.889	0.951	0.571	0.486	0.578	0.578	0.505	0.524	0.560	0.467	0.470	0.555	0.482	0.531	0.480	0.545	0.523	0.502	0.492	0.435	0.607	0.486	0.433
245.0	44.94	59.28	85.47	738.3	3851	3349	307.0	13.70	8.722	7.680	6.013	5.013	4.135	4.176	2.885	2.876	2.555	2.223	2.231	1.925	1.811	1.602	1.507	1.577	1.448	1.182	1.119	0.992	1.138	0.892	1.130	0.930	1.008	0.755	0.705	0.618	0.776	0.797	0.751	0.682	0.637	0.674	0.613	0.602	0.713	0.724	0.652	0.634	0.550	0.578	0.984	3.555	9.274	17.87	20.89	12.01	3.405	0.753	0.516	0.553	0.588	0.503	0.582	0.585	0.422	0.502	0.341	0.558	0.481	0.574	0.508	0.416	0.524	0.628	0.584	0.544	0.527
250.0	36.62	60.30	132.4	230.4	1195	3757	4448	1246	76.24	9.351	7.333	5.650	4.778	4.163	3.838	3.109	2.547	2.364	2.121	1.994	1.895	1.528	1.528	1.433	1.396	1.162	1.372	1.030	1.131	1.026	1.048	0.928	0.959	0.761	0.789	0.691	0.692	0.677	0.569	0.616	0.620	0.683	0.625	0.561	0.664	0.639	0.599	0.673	0.788	0.800	0.789	1.316	2.536	5.427	10.75	16.51	22.11	18.77	11.70	3.772	0.835	0.562	0.591	0.587	0.569	0.516	0.439	0.588	0.553	0.502	0.457	0.472	0.501	0.561	0.522	0.489	0.557
255.0	25.89	35.44	108.8	268.0	345.8	926.4	3238	7233	1829	84.61	9.293	7.224	6.018	5.215	4.192	3.479	2.733	2.327	2.169	1.650	1.887	1.489	1.596	1.387	1.447	1.247	1.131	1.324	1.112	1.189	1.085	0.976	0.861	0.966	0.783	0.706	0.661	0.666	0.616	0.549	0.588	0.691	0.605	0.579	0.659	0.572	0.624	0.534	0.600	0.755	1.245	1.584	1.315	1.656	2.802	4.140	7.252	15.86	30.20	28.53	17.64	4.231	0.683	0.600	0.580	0.425	0.562	0.490	0.541	0.466	0.482	0.513	0.495	0.526	0.466	0.528	0.572
260.0	37.10	22.29	48.61	246.3	318.7	256.6	920.9	5334	8004	1384	39.22	9.270	6.869	5.203	4.453	3.504	3.028	2.673	2.130	1.780	1.949	1.606	1.457	1.430	1.326	1.444	1.187	1.277	1.065	1.115	1.194	1.025	0.924	1.129	0.838	0.641	0.713	0.619	0.564	0.597	0.629	0.626	0.626	0.715	0.621	0.531	0.504	0.539	0.484	0.497	0.940	1.639	2.093	1.484	1.263	1.438	2.099	4.348	12.04	25.94	40.91	27.38	12.47	1.743	0.601	0.499	0.563	0.516	0.661	0.538	0.497	0.517	0.557	0.477	0.509	0.544	0.533
265.0	35.58	21.40	24.73	116.5	372.0	262.9	242.4	1610	7093	8286	233.1	18.00	8.397	7.162	4.569	4.367	3.467	2.767	2.358	2.087	1.842	1.478	1.808	1.712	1.247	1.296	1.271	1.295	1.219	1.033	1.051	1.002	0.863	1.135	0.686	0.668	0.726	0.783	0.679	0.620	0.669	0.543	0.575	0.682	0.825	0.714	0.534	0.506	0.430	0.434	0.519	0.921	1.698	2.125	2.094	1.113	0.934	1.495	3.168	7.312	19.36	36.81	46.98	23.57	7.341	0.920	0.589	0.566	0.607	0.599	0.536	0.485	0.625	0.511	0.683	0.508	0.435
270.0	28.69	25.51	23.58	40.77	168.9	374.8	293.8	410.7	2017	6380	8891	3473	75.95	9.854	6.719	4.914	3.862	3.201	2.677	2.378	2.260	1.888	1.777	1.559	1.470	1.455	1.254	1.262	1.252	1.203	1.053	0.998	0.961	0.919	0.802	0.749	0.632	0.688	0.679	0.730	0.709	0.551	0.655	0.650	0.648	0.670	0.512	0.555	0.479	0.406	0.468	0.550	0.854	1.175	1.963	2.270	2.140	1.480	1.287	2.061	4.858	10.35	19.74	30.56	31.98	35.17	15.67	6.690	0.980	0.597	0.540	0.568	0.564	0.513	0.539	0.560	0.577
275.0	32.11	35.32	35.44	29.04	55.50	151.6	475.1	360.1	501.5	1522	4545	9999.9	5821	93.59	9.599	6.423	4.981	4.153	3.402	2.740	2.045	2.148	2.002	1.589	1.485	1.238	1.290	1.347	1.279	1.155	1.102	0.834	1.102	0.914	0.912	0.790	0.714	0.685	0.614	0.729	0.613	0.622	0.648	0.623	0.827	0.737	0.515	0.590	0.564	0.440	0.494	0.542	0.633	0.710	0.869	1.153	1.927	2.788	2.830	1.595	1.689	2.811	4.911	7.393	9.714	22.76	47.23	59.07	24.52	6.675	0.830	0.536	0.755	0.502	0.492	0.568	0.561
280.0	41.40	44.14	48.48	33.86	32.03	56.98	257.1	608.9	298.7	401.6	1211	6647	9999.9	1168	60.01	8.567	5.470	4.405	3.588	3.131	2.207	2.306	2.198	1.760	1.736	1.450	1.337	1.251	1.281	1.232	1.146	1.121	1.032	0.911	0.795	0.724	0.699	0.642	0.634	0.623	0.612	0.594	0.694	0.587	0.719	0.732	0.507	0.591	0.580	0.547	0.480	0.603	0.667	0.573	0.625	0.638	0.993	1.781	3.405	3.580	2.038	1.452	1.612	2.348	2.822	6.026	15.88	40.24	62.03	32.82	17.99	2.147	0.604	0.569	0.618	0.644	0.557
285.0	43.99	57.95	67.07	49.66	34.66	36.25	100.3	450.0	612.1	233.8	367.2	1867	7702	9999.9	916.9	30.40	7.468	4.763	4.497	3.532	2.885	2.323	2.065	1.748	1.573	1.531	1.537	1.326	1.447	1.404	1.280	1.197	1.034	1.023	0.908	0.789	0.770	0.776	0.651	0.731	0.649	0.656	0.684	0.597	0.615	0.687	0.572	0.651	0.607	0.540	0.618	0.619	0.609	0.679	0.578	0.566	0.715	0.987	1.790	2.913	3.869	2.712	1.501	1.265	1.315	2.164	4.489	10.65	24.41	48.15	69.90	28.39	10.40	1.013	0.703	0.605	0.540
290.0	46.26	68.70	94.26	69.09	49.03	42.36	67.81	188.0	525.9	658.9	350.8	585.1	2063	6430	9233	3592	50.99	7.759	5.832	4.230	3.306	2.788	2.326	2.019	2.117	1.640	1.646	1.319	1.382	1.415	1.319	1.151	1.046	1.077	0.989	0.871	0.867	0.788	0.730	0.707	0.671	0.665	0.737	0.686	0.696	0.683	0.607	0.643	0.722	0.669	0.650	0.666	0.652	0.636	0.662	0.649	0.724	0.781	0.945	1.431	2.336	3.204	3.656	3.073	1.949	1.565	2.101	3.376	6.549	12.88	25.84	38.59	53.39	46.36	17.70	7.922	1.039
295.0	48.77	91.06	116.1	92.98	63.50	58.48	76.78	128.0	253.6	623.7	885.2	444.7	675.0	1591	3451	9999.9	5084	66.41	8.341	5.934	3.985	3.342	2.624	2.142	2.171	1.955	1.622	1.369	1.458	1.176	1.443	1.112	1.061	1.059	1.090	0.916	0.799	0.790	0.723	0.736	0.769	0.760	0.793	0.643	0.732	0.679	0.597	0.769	0.829	0.842	0.719	0.724	0.563	0.613	0.766	0.689	0.702	0.835	1.034	1.123	1.491	1.631	2.358	3.637	4.948	3.401	2.240	1.989	2.732	3.975	6.870	9.598	14.47	27.49	57.57	74.96	28.27
300.0	47.28	89.93	136.4	114.2	76.65	76.84	96.00	129.5	200.1	399.5	976.9	795.8	440.9	537.6	911.6	4680	9999.9	3628	43.31	7.300	4.639	3.736	3.117	2.638	2.121	2.112	1.878	1.458	1.543	1.332	1.418	1.189	1.099	1.237	1.025	0.900	0.833	0.804	0.787	0.690	0.639	0.703	0.753	0.689	0.653	0.677	0.712	0.805	0.910	0.875	0.859	0.764	0.821	0.704	0.791	0.693	0.812	0.887	1.022	1.043	1.324	1.351	1.787	2.213	3.953	5.036	4.390	2.705	2.087	2.278	2.807	3.216	4.212	7.266	18.52	46.88	76.98
305.0	48.18	98.33	140.1	129.0	97.92	89.62	118.2	153.6	215.1	328.3	672.7	1134	644.6	348.4	344.4	1209	6243	9999.9	615.2	25.11	6.359	4.448	3.215	2.868	2.495	2.364	1.899	1.528	1.594	1.499	1.292	1.211	1.216	1.095	1.149	0.940	0.757	0.867	0.842	0.712	0.699	0.701	0.731	0.800	0.705	0.689	0.703	0.894	0.914	0.835	0.853	0.824	0.878	0.925	0.935	0.917	0.969	0.868	1.198	1.178	1.386	1.473	1.621	1.921	2.624	3.607	4.982	5.061	3.328	2.114	1.921	1.883	2.168	2.714	5.073	12.06	29.43
310.0	51.83	103.4	145.9	150.4	117.0	110.5	141.6	187.3	250.5	350.9	504.7	828.3	1005	583.6	276.0	382.4	1557	5457	9228	2544	38.38	6.972	4.319	3.343	2.820	2.489	2.082	1.720	1.826	1.434	1.364	1.235	1.240	1.099	1.121	0.931	0.887	0.778	0.790	0.742	0.767	0.674	0.683	0.734	0.698	0.695	0.656	0.820	0.885	0.882	0.893	0.901	0.952	0.896	0.900	0.975	0.985	1.142	1.262	1.358	1.574	1.601	1.859	1.940	2.211	2.468	3.263	4.077	4.647	4.417	3.283	2.121	1.772	1.740	2.136	3.632	7.407
315.0	67.83	128.4	196.1	170.5	145.2	137.7	170.5	228.1	306.6	409.7	520.3	635.7	776.5	980.2	518.2	247.3	440.6	1289	3075	9764	3888	49.98	6.835	4.737	3.244	2.678	2.416	1.792	1.775	1.533	1.519	1.245	1.101	1.107	1.097	0.913	1.036	0.824	1.013	0.895	1.019	0.741	0.721	0.757	0.668	0.777	0.705	0.730	0.995	0.923	0.924	0.970	1.151	0.967	1.055	0.972	1.301	1.372	1.411	1.573	1.470	1.804	1.998	2.153	2.357	2.499	2.785	3.005	3.522	3.853	4.660	4.548	2.858	2.053	1.689	1.801	2.477
320.0	78.80	174.8	313.8	244.7	179.6	176.6	211.9	286.0	378.4	492.1	601.7	695.5	728.1	907.5	891.0	357.8	238.9	372.4	769.1	4164	9999.9	2950	35.23	6.248	4.596	3.220	2.628	2.105	2.046	1.937	1.566	1.295	1.333	1.160	1.050	0.967	0.990	0.835	0.934	0.771	0.734	0.675	0.761	0.653	0.762	0.718	0.848	1.135	1.273	1.327	1.191	1.121	1.231	1.136	1.171	1.088	1.227	1.355	1.530	1.752	1.695	2.141	2.386	2.477	2.754	3.019	2.848	3.253	3.361	3.294	3.917	5.125	4.965	3.732	2.154	1.678	1.811
325.0	91.35	258.3	533.9	420.7	265.4	227.6	264.5	346.1	463.7	606.3	747.0	845.0	850.8	824.3	977.5	677.2	273.3	215.9	265.5	1052	5574	9999.9	480.1	22.24	5.494	4.336	2.889	2.295	1.951	2.021	1.699	1.391	1.351	1.485	1.153	1.022	0.994	0.879	0.903	0.912	0.828	0.796	0.771	0.604	0.696	0.913	0.973	1.388	1.692	1.971	1.727	1.558	1.557	1.208	1.441	1.402	1.383	1.489	1.785	1.959	2.119	2.441	2.833	3.091	3.020	3.625	3.662	3.511	3.702	3.681	3.892	4.140	5.085	5.411	4.198	2.545	2.135
330.0	97.72	329.1	701.5	610.6	387.3	300.6	320.7	413.9	539.0	699.9	863.2	963.7	979.0	886.8	835.6	832.4	549.9	259.0	189.3	328.8	1392	4993	7745	3673	32.02	6.338	4.097	2.927	2.379	2.283	1.884	1.522	1.414	1.328	1.065	1.115	1.041	0.904	0.975	0.825	0.774	0.792	0.788	0.711	0.889	0.922	1.117	1.741	2.124	2.669	2.373	2.330	2.217	1.631	1.557	1.692	1.725	1.751	1.910	2.258	2.261	2.696	3.115	3.383	3.441	3.803	4.211	4.072	4.343	4.416	4.132	4.166	4.038	4.636	4.627	4.482	3.840
335.0	127.3	391.0	799.6	726.0	472.7	356.2	368.4	462.3	599.1	780.5	930.7	1049	1060	958.3	824.6	675.2	693.9	484.7	219.1	193.4	401.7	1187	2668	8875	3232	43.77	5.775	4.357	3.018	2.381	2.102	1.802	1.771	1.343	1.135	1.279	1.154	0.869	0.853	0.870	0.814	0.800	0.781	0.781	0.912	0.951	1.087	1.773	2.568	2.884	2.646	2.815	2.478	2.180	1.796	1.939	1.910	2.106	2.352	2.284	2.667	3.055	3.426	3.506	3.774	4.174	4.390	4.860	4.874	4.823	4.609	4.569	4.231	3.919	3.935	3.865	4.248
340.0	120.7	399.7	846.9	797.5	538.3	398.6	393.2	495.3	631.6	810.1	973.3	1071	1094	998.2	841.4	642.4	577.7	634.5	333.2	186.4	197.5	350.4	663.8	3895	9292	2567	31.46	5.514	3.559	2.834	2.267	1.984	1.694	1.364	1.294	1.176	0.900	0.896	0.810	0.889	0.932	0.885	0.766	0.709	0.861	0.943	1.159	1.958	2.688	3.051	2.674	3.055	2.688	2.366	2.075	1.839	2.014	2.231	2.411	2.563	2.900	3.127	3.420	3.639	4.058	4.151	4.397	4.613	4.947	4.651	5.026	4.448	4.205	3.903	3.750	3.593	3.526
345.0	113.3	390.8	822.6	800.6	558.1	419.3	413.9	490.5	634.9	798.2	955.6	1052	1064	982.3	833.1	631.4	491.9	546.9	503.2	235.2	165.5	176.3	213.9	972.8	5152	8630	409.5	20.03	4.473	3.222	2.544	2.051	1.787	1.470	1.492	1.362	1.146	0.926	1.000	0.817	0.915	0.936	0.757	0.696	0.812	0.864	1.178	1.788	2.637	2.874	2.850	3.040	2.716	2.310	2.242	1.975	2.036	2.363	2.242	2.607	2.708	3.004	3.333	3.444	3.782	4.072	4.274	4.496	4.770	4.490	4.702	4.650	4.285	3.926	3.487	3.466	3.214
350.0	98.53	333.4	728.4	751.2	563.2	437.1	433.5	492.9	617.5	757.2	900.3	985.3	996.8	921.9	793.6	607.2	461.7	413.5	474.2	411.1	222.7	160.8	137.3	278.0	1277	4363	6451	1752	28.39	4.762	3.375	2.502	1.988	1.627	1.513	1.134	1.127	0.996	0.979	0.956	0.783	0.853	0.807	0.718	0.855	0.892	1.107	1.617	2.457	2.784	2.565	2.812	2.642	2.416	2.207	1.877	1.994	2.171	2.419	2.450	2.794	2.856	3.262	3.326	3.661	3.895	4.059	4.284	4.360	4.229	4.306	4.041	4.165	3.693	3.367	3.274	3.107
355.0	97.63	305.5	632.4	685.4	544.9	445.8	449.7	506.0	601.2	724.7	849.1	917.5	921.6	854.5	748.2	587.7	456.3	384.7	361.5	433.1	391.5	208.9	144.7	146.9	345.0	1020	2300	7039	2878	35.25	5.040	3.194	2.312	2.005	1.583	1.119	1.168	1.051	1.005	1.001	0.883	0.880	0.808	0.779	0.899	0.948	0.930	1.476	2.153	2.391	2.212	2.566	2.540	2.284	2.235	2.037	1.951	2.305	2.338	2.261	2.810	2.836	3.109	3.198	3.547	3.504	3.685	4.097	4.113	4.028	4.124	3.961	4.066	3.649	3.331	3.079	3.189
360.0	85.04	260.6	568.6	653.9	535.3	465.7	462.3	491.3	597.8	694.7	798.0	857.8	857.6	799.0	706.9	567.3	451.5	383.1	338.8	357.1	455.7	314.8	175.2	134.2	152.4	282.0	567.1	3197	7900	2056	25.77	4.622	2.910	2.046	1.511	1.378	1.270	1.080	1.030	1.016	0.987	0.777	0.718	0.857	0.887	0.937	0.857	1.299	1.959	2.128	2.207	2.511	2.297	2.291	2.322	1.902	2.175	2.432	2.467	2.455	2.769	3.000	3.077	3.192	3.499	3.495	3.542	3.951	3.757	3.727	3.837	3.715	3.749	3.662	3.111	2.874	3.036
365.0	83.59	232.6	513.0	594.4	511.5	475.4	455.5	498.9	578.3	670.8	752.0	791.5	806.6	741.9	668.3	545.3	448.3	387.6	344.2	327.2	388.8	427.7	242.3	153.6	127.7	130.3	173.4	799.5	4449	7504	367.1	9.549	3.733	2.631	2.095	1.651	1.311	1.064	1.291	1.022	0.987	0.830	0.872	0.918	0.905	0.856	0.764	1.354	1.659	1.996	2.075	2.440	2.204	2.256	2.210	2.094	2.132	2.302	2.220	2.481	2.624	2.755	2.993	2.911	3.076	3.463	3.587	3.686	3.358	3.471	3.427	3.407	3.474	3.399	3.057	3.019	2.877
370.0	77.32	205.8	435.0	533.1	503.1	460.6	457.8	482.7	555.1	633.1	703.9	734.8	729.8	683.0	616.4	520.2	437.6	388.8	357.1	335.2	331.3	393.9	378.5	228.4	150.7	119.9	105.0	223.9	1103	4311	5898	1352	21.06	3.866	2.681	1.773	1.534	1.246	1.225	1.085	1.016	0.919	0.868	0.797	0.920	0.823	0.853	1.220	1.536	1.848	1.852	2.222	2.273	2.215	2.198	1.993	2.185	2.237	2.428	2.489	2.491	2.868	2.941	2.986	3.097	3.139	3.180	3.281	3.203	3.326	3.374	3.141	3.224	3.063	2.884	2.933	2.785
375.0	64.28	185.7	365.3	482.8	479.1	457.1	459.7	486.3	541.0	599.7	656.3	679.2	670.4	618.8	569.3	486.0	424.6	388.2	371.1	348.6	337.5	334.2	372.1	368.2	213.9	144.1	111.8	113.4	290.0	997.4	2300	6578	2144	26.53	3.798	2.460	2.032	1.335	1.369	1.113	0.919	0.868	0.863	0.773	1.096	0.885	0.877	1.185	1.546	1.581	1.626	2.040	2.199	2.072	1.972	2.363	2.252	2.061	2.433	2.402	2.470	2.575	2.771	2.738	2.774	3.004	2.940	3.158	2.980	2.928	3.012	3.086	3.084	2.817	2.769	2.779	2.571
380.0	62.68	168.3	328.3	451.1	470.6	469.2	460.7	479.9	524.6	577.7	619.9	637.0	627.3	579.6	536.9	468.3	418.7	388.7	374.6	358.8	345.4	327.6	329.7	393.0	305.8	174.3	129.6	102.8	120.6	260.6	563.5	3649	6431	1472	16.74	3.157	2.410	1.708	1.428	1.297	1.022	0.970	1.019	0.782	0.938	0.936	0.964	1.111	1.329	1.582	1.664	2.059	2.161	2.022	2.095	2.146	2.296	2.169	2.494	2.309	2.386	2.440	2.379	2.782	2.658	2.834	2.580	3.066	2.957	3.030	2.865	2.805	2.891	2.799	2.787	2.865	2.495
385.0	60.98	154.6	312.1	425.8	459.3	465.5	463.2	472.6	517.0	553.2	592.2	597.6	588.2	549.7	512.0	449.3	408.1	385.4	375.9	364.0	353.2	337.4	318.5	346.7	374.1	238.4	155.2	115.4	97.24	105.3	162.5	958.1	4353	5436	280.7	8.181	2.951	2.200	1.541	1.395	0.958	0.896	1.057	0.874	0.883	0.960	0.840	0.916	1.387	1.576	1.509	2.049	2.072	2.119	2.165	2.071	2.279	2.106	2.368	2.134	2.352	2.413	2.308	2.562	2.457	2.642	2.545	2.800	2.839	2.834	2.774	2.817	2.931	2.695	2.663	2.535	2.795
390.0	59.28	135.1	283.6	406.2	453.6	456.7	457.3	469.5	496.3	529.1	555.7	565.9	556.0	521.5	485.6	433.7	400.8	385.4	374.2	368.1	361.4	344.6	328.0	316.0	338.1	326.3	222.2	145.6	114.4	93.92	88.83	251.0	1129	3351	3389	1067	17.18	3.043	2.137	1.553	1.344	1.037	1.060	0.839	1.033	0.891	0.869	1.037	1.188	1.421	1.492	1.882	2.212	2.093	2.064	2.142	2.343	2.238	2.305	2.202	2.382	2.363	2.366	2.571	2.521	2.583	2.529	2.610	2.483	2.564	2.643	2.628	2.703	2.660	2.485	2.529	2.579
395.0	59.17	126.6	260.9	395.5	431.5	453.0	457.3	460.5	489.6	514.5	535.2	530.2	521.4	489.6	459.5	416.4	390.4	379.1	371.8	373.8	363.5	357.0	337.6	320.1	302.1	312.0	316.8	204.5	142.6	112.2	91.22	107.1	288.3	781.2	1697	4737	1708	22.47	2.916	2.139	1.523	1.282	1.154	0.948	1.089	0.906	0.874	1.105	1.199	1.341	1.424	1.885	2.130	2.181	1.951	2.003	2.209	2.117	2.323	2.133	2.337	2.273	2.397	2.398	2.499	2.460	2.382	2.446	2.553	2.468	2.517	2.665	2.562	2.614	2.559	2.554	2.373
400.0	53.42	116.7	246.4	363.8	422.9	445.1	447.0	455.7	476.1	508.5	517.3	515.9	498.2	474.5	443.9	406.8	378.3	367.4	366.3	365.1	361.9	355.3	341.7	324.3	301.5	284.9	318.9	277.2	173.6	131.9	106.0	84.83	108.3	206.3	427.4	2568	4698	1146	14.07	2.605	1.914	1.423	1.143	0.956	0.986	0.912	0.966	1.014	1.127	1.290	1.425	1.721	1.945	2.083	1.978	2.024	2.201	2.151	2.220	2.265	2.366	2.334	2.357	2.564	2.376	2.301	2.292	2.514	2.231	2.418	2.283	2.546	2.531	2.436	2.604	2.616	2.493
405.0	51.00	113.7	228.4	362.5	419.4	448.6	443.3	448.5	462.8	483.4	506.1	503.6	480.8	463.8	427.6	393.0	368.1	362.7	357.4	355.8	357.6	355.2	345.7	329.0	305.8	281.7	283.1	315.2	228.4	152.1	120.5	91.59	78.05	84.60	122.9	666.8	3102	4038	248.1	6.611	2.438	1.756	1.444	1.086	0.982	0.988	0.827	0.962	1.176	1.195	1.232	1.648	2.128	2.032	1.964	1.976	2.105	2.194	2.272	2.209	2.380	2.383	2.249	2.386	2.361	2.128	2.351	2.423	2.202	2.394	2.441	2.615	2.613	2.278	2.295	2.441	2.646
410.0	54.71	115.9	221.9	340.7	407.0	436.4	439.1	447.7	457.8	468.3	489.2	480.2	456.7	434.2	409.5	375.5	354.0	347.8	344.6	344.3	349.1	349.1	341.4	328.2	309.5	285.2	269.7	282.5	286.8	205.5	146.0	108.8	86.52	70.58	64.19	175.0	801.0	2448	2670	935.0	15.37	2.453	1.820	1.275	1.140	1.003	0.941	0.975	1.171	1.229	1.414	1.699	2.026	1.955	2.021	2.082	2.224	2.179	2.265	2.180	2.240	2.261	2.110	2.479	2.438	2.038	2.131	2.249	2.233	2.239	2.379	2.472	2.331	2.222	2.277	2.469	2.602
