Sample:	'1
File name:	C2024121017袁家屋子东南闸口.FD3
Run date:	'10:14:03, 12/11/2024
Operator:	Administrator
Comment:	'

Instrument
Model:	F-2700 FL Spectrophotometer
Serial number:	23B8-004
ROM Version:	4J14000 07

Instrument parameters
Measurement type:	3-D scan
Data mode:	Fluorescence
EX  Start WL:	220.0 nm
EX  End WL:	600.0 nm
EX Sampling interval:	5.0 nm
EM  Start WL:	230.0 nm
EM  End WL:	650.0 nm
EM Sampling interval:	5.0 nm
Scan speed:	12000 nm/min
EX Slit:	5.0 nm
EM Slit:	5.0 nm
PMT Voltage:	700 V
Response:	Auto 
Corrected spectra:	Off
Contour interval:	50.000

Peak integration
Integration method:	Rectangular
Sensitivity:	1
Threshold:	1.000

Peaks
No.	ApexEX/EM(nm)	Height(Data)
1	225.0/310.0	755.9
2	225.0/595.0	53.69
3	225.0/605.0	55.16
4	225.0/625.0	46.35
5	230.0/340.0	955.5
6	230.0/500.0	289.9
7	230.0/565.0	50.69
8	230.0/585.0	56.75
9	230.0/600.0	54.24
10	230.0/635.0	38.02
11	235.0/510.0	254.9
12	240.0/265.0	374.9
13	240.0/395.0	702.1
14	240.0/415.0	675.0
15	240.0/525.0	232.1
16	245.0/270.0	373.2
17	245.0/535.0	189.7
18	250.0/275.0	462.1
19	250.0/545.0	168.3
20	255.0/280.0	608.4
21	255.0/560.0	137.3
22	260.0/285.0	632.1
23	260.0/570.0	115.4
24	265.0/400.0	602.7
25	265.0/585.0	132.9
26	270.0/300.0	1563
27	270.0/600.0	127.3
28	275.0/305.0	1874
29	275.0/610.0	125.4
30	280.0/620.0	99.59
31	300.0/335.0	575.0
32	310.0/350.0	422.3
33	315.0/355.0	398.4
34	320.0/360.0	392.7
35	325.0/370.0	372.3
36	330.0/375.0	364.7
37	335.0/380.0	366.0
38	340.0/390.0	339.3
39	345.0/395.0	325.9
40	350.0/400.0	325.1
41	415.0/485.0	51.93
42	430.0/505.0	31.24
43	445.0/525.0	19.36
44	505.0/275.0	2.865
45	510.0/280.0	3.236
46	520.0/285.0	3.571
47	530.0/290.0	3.808
48	540.0/295.0	6.109
49	545.0/300.0	7.207
50	555.0/305.0	8.168
51	560.0/310.0	7.395
52	570.0/315.0	6.221

Data points
	220.0	225.0	230.0	235.0	240.0	245.0	250.0	255.0	260.0	265.0	270.0	275.0	280.0	285.0	290.0	295.0	300.0	305.0	310.0	315.0	320.0	325.0	330.0	335.0	340.0	345.0	350.0	355.0	360.0	365.0	370.0	375.0	380.0	385.0	390.0	395.0	400.0	405.0	410.0	415.0	420.0	425.0	430.0	435.0	440.0	445.0	450.0	455.0	460.0	465.0	470.0	475.0	480.0	485.0	490.0	495.0	500.0	505.0	510.0	515.0	520.0	525.0	530.0	535.0	540.0	545.0	550.0	555.0	560.0	565.0	570.0	575.0	580.0	585.0	590.0	595.0	600.0
230.0	31.58	625.8	2091	798.5	41.21	3.999	2.819	2.740	2.570	2.059	2.268	2.409	1.574	1.602	1.276	1.080	1.011	0.792	0.851	0.719	0.645	0.620	0.500	0.498	0.482	0.416	0.400	0.374	0.314	0.338	0.294	0.240	0.309	0.246	0.229	0.230	0.223	0.216	0.212	0.187	0.190	0.263	0.285	0.215	0.161	0.153	0.568	3.212	6.907	5.902	2.408	0.460	0.154	0.113	0.111	0.128	0.104	0.105	0.111	0.091	0.088	0.079	0.089	0.085	0.082	0.061	0.090	0.080	0.087	0.079	0.082	0.069	0.068	0.068	0.073	0.069	0.068
235.0	84.99	183.8	1156	2360	657.9	76.31	4.498	3.470	3.090	2.585	2.343	2.386	1.763	1.993	1.366	1.183	0.928	0.901	0.734	0.622	0.543	0.649	0.545	0.468	0.510	0.311	0.373	0.320	0.292	0.342	0.258	0.308	0.261	0.264	0.209	0.259	0.178	0.209	0.214	0.180	0.154	0.183	0.245	0.326	0.321	0.220	0.268	0.899	2.405	4.917	8.309	8.938	4.730	1.134	0.173	0.141	0.128	0.127	0.114	0.092	0.099	0.082	0.081	0.071	0.089	0.071	0.091	0.071	0.087	0.082	0.077	0.062	0.059	0.068	0.073	0.094	0.071
240.0	109.7	139.9	327.7	1715	2888	535.0	37.18	4.996	3.596	3.322	2.647	2.539	2.080	1.953	1.694	1.353	1.100	1.151	0.821	0.746	0.616	0.570	0.605	0.512	0.550	0.424	0.408	0.459	0.359	0.328	0.352	0.294	0.330	0.317	0.258	0.241	0.213	0.188	0.202	0.205	0.199	0.152	0.204	0.242	0.362	0.423	0.339	0.338	0.689	1.409	4.009	10.74	14.14	11.63	4.073	0.530	0.180	0.134	0.161	0.094	0.117	0.075	0.110	0.076	0.097	0.085	0.091	0.076	0.069	0.084	0.061	0.050	0.088	0.066	0.064	0.071	0.115
245.0	69.26	182.7	148.3	533.6	2667	3235	397.6	16.55	4.042	4.427	2.863	2.680	2.091	1.817	1.562	1.224	1.247	1.048	0.930	0.801	0.647	0.583	0.511	0.644	0.507	0.429	0.459	0.375	0.356	0.342	0.364	0.353	0.301	0.333	0.228	0.202	0.192	0.201	0.199	0.181	0.216	0.194	0.180	0.182	0.242	0.396	0.546	0.543	0.395	0.436	1.071	3.188	8.778	17.21	19.06	10.76	3.018	0.263	0.140	0.122	0.113	0.094	0.112	0.121	0.116	0.069	0.082	0.088	0.084	0.081	0.060	0.067	0.097	0.064	0.073	0.090	0.101
250.0	29.78	122.8	226.2	230.5	787.3	2586	3645	1408	90.37	6.683	4.189	3.701	3.336	2.258	1.867	1.342	1.329	1.108	0.934	0.771	0.753	0.623	0.515	0.600	0.554	0.493	0.465	0.419	0.380	0.341	0.346	0.327	0.338	0.320	0.262	0.226	0.201	0.234	0.222	0.218	0.227	0.195	0.193	0.206	0.222	0.245	0.326	0.507	0.756	0.691	0.670	0.920	2.175	5.117	10.19	15.94	21.84	18.83	10.82	3.024	0.341	0.165	0.116	0.138	0.123	0.086	0.118	0.086	0.084	0.090	0.083	0.094	0.104	0.062	0.085	0.086	0.094
255.0	18.50	43.79	135.4	316.6	297.9	630.0	2198	5473	1991	104.4	7.142	5.752	4.198	3.327	2.191	1.954	1.621	1.273	1.016	0.781	0.797	0.722	0.690	0.616	0.475	0.494	0.531	0.487	0.423	0.471	0.491	0.389	0.413	0.285	0.238	0.255	0.249	0.226	0.273	0.191	0.216	0.232	0.244	0.175	0.208	0.206	0.199	0.211	0.341	0.689	1.068	1.159	0.971	1.364	2.452	3.857	7.042	16.73	33.57	29.06	17.53	3.417	0.270	0.205	0.144	0.100	0.161	0.098	0.097	0.117	0.104	0.091	0.091	0.076	0.128	0.066	0.087
260.0	13.44	23.94	51.82	240.1	369.0	218.4	608.8	3616	6410	1548	48.12	7.475	5.212	3.851	3.039	2.133	1.687	1.540	1.045	0.937	0.898	0.654	0.651	0.610	0.561	0.590	0.565	0.537	0.470	0.452	0.485	0.387	0.339	0.312	0.286	0.237	0.226	0.256	0.198	0.255	0.159	0.248	0.237	0.198	0.187	0.184	0.166	0.152	0.183	0.288	0.589	1.342	1.684	0.992	0.755	1.061	1.800	4.343	13.02	28.70	46.46	28.30	13.53	1.890	0.228	0.140	0.150	0.124	0.114	0.097	0.140	0.108	0.126	0.125	0.105	0.103	0.107
265.0	17.31	18.42	22.85	102.3	374.9	296.7	185.5	1088	5358	6727	254.5	17.95	6.974	5.361	3.717	2.421	2.001	1.556	1.144	1.187	0.985	0.896	0.766	0.754	0.637	0.612	0.603	0.527	0.527	0.566	0.438	0.457	0.363	0.373	0.362	0.319	0.307	0.274	0.230	0.193	0.170	0.256	0.175	0.209	0.210	0.188	0.197	0.172	0.195	0.192	0.261	0.639	1.297	1.636	1.366	0.700	0.681	1.252	3.196	7.996	22.49	42.44	55.22	25.41	8.812	0.632	0.238	0.140	0.139	0.121	0.124	0.136	0.124	0.142	0.101	0.103	0.113
270.0	34.71	30.74	27.79	43.75	159.6	373.2	335.8	314.5	1536	5090	7136	2514	62.49	7.944	4.948	3.355	2.825	1.944	1.423	1.371	1.187	1.066	0.896	0.827	0.762	0.733	0.708	0.597	0.536	0.623	0.493	0.489	0.440	0.405	0.421	0.324	0.298	0.261	0.262	0.230	0.244	0.288	0.199	0.267	0.225	0.213	0.239	0.234	0.189	0.229	0.191	0.343	0.512	0.894	1.487	1.813	1.719	1.124	1.139	2.065	5.374	11.69	24.19	37.07	49.56	43.69	17.04	7.496	0.939	0.272	0.207	0.175	0.194	0.131	0.160	0.134	0.121
275.0	65.08	79.77	67.81	49.01	69.06	163.6	462.1	388.6	407.6	1228	3930	9999.9	1367	68.73	7.382	5.225	3.527	2.447	2.152	1.561	1.313	1.223	1.168	1.089	0.792	0.720	0.662	0.640	0.577	0.586	0.459	0.569	0.473	0.522	0.538	0.414	0.357	0.310	0.350	0.287	0.265	0.313	0.293	0.265	0.294	0.357	0.349	0.336	0.341	0.332	0.235	0.280	0.297	0.412	0.656	0.866	1.788	2.865	2.203	1.220	1.520	2.861	5.665	8.771	13.33	26.78	57.55	74.97	27.50	9.828	0.683	0.233	0.228	0.172	0.150	0.145	0.210
280.0	122.5	150.7	119.4	83.56	66.05	89.48	268.7	608.4	311.4	356.9	1082	6209	9803	1007	31.91	7.251	4.256	3.296	2.366	1.944	1.423	1.328	1.022	0.933	0.819	0.868	0.808	0.719	0.530	0.739	0.613	0.604	0.527	0.515	0.622	0.433	0.461	0.429	0.386	0.363	0.301	0.356	0.340	0.363	0.381	0.432	0.498	0.516	0.509	0.373	0.299	0.362	0.361	0.336	0.432	0.499	0.844	1.796	3.236	3.084	1.862	1.167	1.687	2.492	3.435	6.771	18.16	46.18	73.48	75.18	23.59	5.751	0.417	0.253	0.208	0.205	0.230
285.0	187.1	233.7	198.5	124.7	90.72	82.05	139.0	456.1	632.1	279.9	416.5	1863	8035	8300	132.4	15.27	6.154	4.047	2.850	2.147	1.840	1.397	1.209	1.069	0.981	0.908	0.948	0.755	0.614	0.653	0.589	0.576	0.549	0.565	0.683	0.575	0.559	0.499	0.449	0.349	0.417	0.379	0.489	0.481	0.525	0.610	0.653	0.666	0.609	0.579	0.440	0.444	0.455	0.335	0.446	0.486	0.535	0.873	1.532	2.898	3.571	2.423	1.241	1.296	1.625	2.476	4.923	11.99	27.37	60.79	82.46	33.66	18.68	2.625	0.336	0.314	0.296
290.0	315.9	401.1	371.9	227.5	143.0	117.1	136.0	264.1	618.4	811.4	600.3	865.8	2503	6293	7263	2153	36.59	6.001	3.944	3.155	2.260	1.836	1.618	1.272	1.202	1.104	0.994	0.870	0.774	0.791	0.645	0.669	0.664	0.718	0.819	0.812	0.681	0.611	0.526	0.520	0.463	0.486	0.596	0.600	0.710	0.938	0.989	1.089	1.082	0.841	0.715	0.605	0.571	0.564	0.567	0.572	0.643	0.776	1.002	1.436	2.287	3.130	3.808	3.377	2.666	2.627	2.940	4.552	7.977	16.27	28.94	40.10	60.98	52.16	45.78	13.49	3.496
295.0	442.5	577.0	553.9	336.1	206.7	166.3	186.8	275.1	467.4	940.9	1295	983.8	1178	1751	3853	9099	738.9	39.29	6.610	4.465	3.098	2.153	1.823	1.604	1.331	1.182	1.071	1.099	0.777	0.834	0.847	0.687	0.775	0.751	0.931	1.006	0.921	0.770	0.641	0.613	0.581	0.633	0.654	0.809	0.922	1.087	1.267	1.561	1.381	1.144	1.060	0.931	0.766	0.753	0.806	0.687	0.775	0.861	1.097	1.304	1.847	2.410	3.068	4.511	6.109	5.626	4.104	4.127	4.754	6.190	8.625	10.33	15.26	21.96	53.23	86.76	35.95
300.0	479.7	672.0	650.8	415.8	245.3	204.9	229.1	322.3	499.2	853.0	1563	1448	1026	799.4	1090	5516	8247	593.4	18.30	5.955	3.804	2.651	2.260	1.786	1.649	1.044	1.462	1.334	0.938	0.928	0.831	0.787	0.697	0.803	1.076	1.013	1.019	0.932	0.802	0.579	0.698	0.722	0.778	0.881	1.007	1.440	1.539	1.849	1.644	1.464	1.130	1.128	0.855	0.843	0.883	0.823	1.018	1.044	1.488	1.678	1.943	2.403	2.806	3.896	5.491	7.207	6.798	5.524	4.545	4.489	4.535	4.158	4.617	5.956	14.36	37.28	67.66
305.0	514.3	744.6	717.0	450.9	281.0	240.2	278.3	378.1	565.0	861.3	1395	1874	1248	667.7	442.6	1564	6787	5229	79.70	9.965	4.998	3.391	2.740	2.222	1.781	1.493	1.366	1.234	1.146	1.003	0.883	0.744	0.817	0.889	1.046	1.125	0.941	0.966	0.777	0.633	0.749	0.773	0.735	0.902	1.019	1.626	1.623	1.999	1.951	1.622	1.248	1.287	1.039	0.993	0.880	1.033	1.049	1.302	1.598	2.170	2.355	2.647	3.257	3.934	4.711	6.037	7.763	8.168	6.196	4.982	3.912	2.887	2.564	2.556	4.019	9.213	20.47
310.0	549.9	755.9	714.9	487.7	309.8	262.0	308.0	420.0	607.5	887.9	1233	1624	1608	834.1	350.4	479.9	1881	4804	5523	1547	24.70	5.529	3.553	2.809	2.140	1.742	1.385	1.363	1.142	0.989	0.874	0.866	0.855	0.997	1.145	1.218	1.160	1.010	0.753	0.673	0.726	0.748	0.839	0.921	1.054	1.515	1.584	2.021	1.906	1.669	1.344	1.305	1.184	1.135	1.031	1.185	1.168	1.437	1.695	2.092	2.372	2.891	3.594	4.103	4.690	5.337	6.119	7.048	7.395	7.183	5.452	3.513	2.388	1.898	1.938	2.902	5.335
315.0	524.3	703.8	693.8	484.6	318.0	292.7	336.4	435.9	608.0	875.3	1151	1339	1374	1155	474.6	276.0	533.7	1166	3164	7193	515.5	26.98	4.956	3.982	2.709	1.981	1.770	1.723	1.393	1.264	1.007	0.979	0.873	1.071	1.220	1.171	1.061	0.910	0.865	0.748	0.685	0.789	0.854	0.912	1.113	1.469	1.630	1.943	1.876	1.527	1.342	1.295	1.222	1.188	1.084	1.230	1.350	1.754	1.804	2.037	2.371	2.774	3.313	3.896	4.096	5.067	5.315	5.496	5.628	5.864	6.221	5.405	3.888	2.205	1.651	1.640	2.152
320.0	502.2	722.1	730.2	497.6	343.2	312.0	357.6	453.2	614.6	839.3	1091	1240	1175	1075	741.1	294.5	259.8	350.7	830.5	4513	6338	432.1	12.94	4.906	3.305	2.527	2.007	1.860	1.415	1.192	1.174	1.066	1.025	1.044	1.222	1.031	1.040	0.912	0.854	0.719	0.707	0.680	0.803	0.903	1.129	1.501	1.612	1.891	2.057	1.744	1.383	1.281	1.229	1.245	1.261	1.204	1.415	1.689	1.764	2.080	2.413	2.718	3.559	3.882	3.909	4.889	4.899	4.929	5.035	5.219	4.596	4.990	5.100	4.098	2.361	1.672	1.556
325.0	515.0	739.5	810.7	571.1	377.6	337.1	373.3	462.8	605.4	818.8	1054	1177	1081	878.1	846.4	467.5	229.7	183.8	249.1	1256	5378	3873	61.04	7.244	4.100	3.260	2.322	1.997	1.712	1.340	1.200	1.098	0.979	1.069	1.191	0.996	0.971	0.953	0.703	0.673	0.648	0.768	0.703	0.916	1.134	1.518	1.615	1.915	2.188	1.777	1.481	1.536	1.430	1.321	1.441	1.312	1.425	1.742	1.619	2.135	2.353	2.702	3.348	3.642	3.878	4.598	4.557	4.896	4.676	4.772	4.258	3.884	3.987	4.714	4.051	2.488	1.669
330.0	516.5	770.9	869.0	673.1	463.4	367.9	391.8	476.8	597.5	780.4	990.3	1081	1010	782.4	663.4	632.7	394.5	189.1	144.7	340.6	1478	3728	4390	1283	20.67	4.635	3.219	2.383	1.962	1.610	1.461	1.228	1.122	1.089	1.075	1.008	0.958	0.912	0.736	0.717	0.768	0.770	0.743	0.974	1.173	1.499	1.730	2.207	2.318	1.981	1.679	1.794	1.782	1.345	1.563	1.348	1.633	1.794	1.869	2.168	2.392	2.617	3.137	3.440	3.645	4.356	4.191	4.580	4.555	4.312	3.906	3.505	3.056	3.437	3.492	3.558	3.423
335.0	489.2	786.1	903.6	746.4	529.5	425.9	416.5	495.9	589.0	742.7	915.4	1011	952.2	759.5	588.3	517.5	575.0	328.8	155.5	160.4	386.4	892.8	2634	5968	421.5	22.91	4.514	2.987	2.471	1.810	1.567	1.398	1.266	1.199	1.039	1.205	0.963	0.841	0.758	0.670	0.728	0.842	0.860	0.964	1.092	1.420	1.789	2.272	2.309	2.234	1.893	2.170	2.005	1.687	1.651	1.534	1.717	1.673	1.976	2.093	2.373	2.695	2.959	3.115	3.672	4.130	3.925	4.194	4.360	4.041	3.951	3.558	3.247	2.957	2.911	2.726	3.228
340.0	492.8	776.5	955.5	782.6	576.8	461.0	440.8	513.1	589.7	726.1	858.9	949.5	901.0	751.9	582.2	467.9	497.7	491.8	222.1	139.5	158.6	252.0	695.2	3843	5316	370.3	11.00	4.042	3.020	2.376	1.784	1.665	1.405	1.101	1.164	1.098	0.934	0.871	0.747	0.779	0.614	0.815	0.910	0.945	1.184	1.349	1.717	2.118	2.320	2.205	2.091	2.268	2.071	1.825	1.758	1.683	1.680	1.807	2.078	2.064	2.238	2.530	2.895	3.294	3.418	3.562	3.732	4.217	4.160	3.944	3.715	3.472	3.160	2.907	2.783	2.462	2.569
345.0	443.5	728.3	919.5	783.3	606.5	476.8	463.6	505.7	580.0	701.1	809.9	890.1	850.9	721.0	577.4	462.7	412.5	489.7	364.2	166.0	126.7	120.3	202.9	1076	4597	3267	52.97	6.214	3.616	2.481	2.195	1.884	1.471	1.395	1.201	1.008	0.965	0.819	0.765	0.799	0.736	0.763	0.753	0.871	1.162	1.327	1.498	1.973	2.257	2.277	2.080	2.186	2.223	1.881	1.820	1.634	1.931	1.887	1.920	2.046	2.235	2.523	2.797	3.113	3.291	3.472	3.396	3.717	3.648	3.724	3.560	3.146	2.881	3.028	2.622	2.367	2.463
350.0	436.2	692.3	850.8	783.6	635.3	515.9	495.4	514.3	579.8	659.5	749.6	817.1	793.9	695.8	576.3	475.0	397.1	384.2	422.3	306.5	164.0	118.5	111.7	288.6	1290	3201	3634	1083	18.46	3.645	2.571	1.948	1.589	1.401	1.141	1.003	0.912	0.842	0.761	0.761	0.720	0.706	0.747	0.871	1.021	1.277	1.502	1.939	1.995	2.135	2.028	2.128	2.213	2.037	1.954	1.709	1.892	1.943	2.049	2.104	2.191	2.514	2.829	2.953	3.017	3.252	3.225	3.428	3.340	3.373	3.424	3.092	2.983	3.005	2.699	2.498	2.568
355.0	387.4	627.0	794.3	779.4	632.9	555.0	516.8	521.4	561.4	631.8	706.1	758.4	742.3	665.7	577.1	488.3	417.4	364.1	345.5	398.4	290.6	158.1	119.4	135.3	335.9	768.5	2274	4843	391.0	20.67	3.502	2.583	1.846	1.407	1.283	1.095	1.001	0.917	0.851	0.785	0.729	0.613	0.813	0.894	1.066	1.273	1.369	1.785	2.030	2.044	1.883	2.165	2.200	2.197	1.967	1.878	2.022	2.215	2.013	2.023	2.342	2.454	2.745	2.731	2.883	3.056	3.062	3.241	3.180	3.370	3.354	3.076	3.052	3.039	2.490	2.359	2.729
360.0	395.1	595.0	752.3	752.3	652.0	577.0	536.2	521.6	567.7	619.6	684.5	713.7	712.8	650.2	572.2	495.1	431.9	379.6	333.5	363.2	392.7	231.9	144.8	119.3	137.5	214.9	609.4	3283	4442	343.3	10.51	3.336	2.158	1.707	1.462	1.158	1.056	0.926	0.717	0.767	0.723	0.675	0.783	0.879	0.948	1.136	1.320	1.733	1.959	1.994	1.825	2.260	2.069	2.031	2.122	2.036	1.925	2.133	2.181	2.090	2.389	2.541	2.675	2.694	2.778	2.893	3.001	2.944	3.040	3.149	3.150	2.882	3.262	2.980	2.637	2.759	2.703
365.0	382.2	592.1	706.7	739.7	662.9	591.2	549.7	538.4	569.4	621.5	660.4	689.9	682.6	633.0	566.2	504.5	444.3	397.4	353.5	330.2	382.9	342.1	187.9	135.4	110.8	105.4	177.8	943.1	4036	3032	49.33	5.348	2.710	2.107	1.582	1.376	1.078	1.025	0.838	0.839	0.663	0.698	0.745	0.870	0.871	1.054	1.303	1.558	1.864	1.882	1.818	2.244	2.267	2.150	1.954	1.854	2.054	2.020	2.051	2.193	2.216	2.526	2.453	2.651	2.617	2.819	2.637	2.880	3.098	3.023	2.903	2.902	2.864	2.941	2.729	2.858	2.595
370.0	372.6	536.2	682.8	717.6	666.3	618.1	576.2	557.9	570.3	604.0	644.7	655.3	656.1	617.6	561.5	509.5	466.7	422.0	385.1	347.3	337.2	372.3	309.2	190.3	134.6	104.6	98.48	252.7	1149	2953	3340	985.5	16.39	3.132	2.011	1.544	1.277	1.198	0.932	0.853	0.788	0.807	0.728	0.805	0.911	1.016	1.190	1.609	1.875	1.758	1.738	2.231	2.314	2.262	2.183	2.165	2.203	2.289	2.213	2.353	2.320	2.546	2.552	2.528	2.664	2.761	2.722	2.696	2.882	2.883	2.997	2.842	2.766	2.784	2.758	2.772	2.729
375.0	364.0	514.3	644.6	704.9	687.0	647.3	603.0	573.1	577.9	595.7	630.6	638.7	634.6	606.0	563.7	515.0	481.2	445.7	414.1	380.7	348.4	336.6	364.7	303.1	179.7	131.8	106.4	115.8	298.0	709.8	2089	4269	337.1	19.30	3.014	2.103	1.522	1.086	1.118	0.923	0.889	0.753	0.800	0.831	0.963	0.981	1.216	1.523	1.781	1.641	1.829	2.097	2.186	2.267	2.090	2.292	2.307	2.185	2.130	2.113	2.262	2.423	2.484	2.607	2.655	2.618	2.719	2.586	2.854	2.738	2.764	2.960	2.831	2.886	2.785	2.859	2.790
380.0	339.3	535.4	659.1	697.1	683.3	645.7	602.7	583.4	585.7	588.8	620.5	631.2	621.7	588.6	551.3	515.9	489.0	457.7	432.3	401.8	367.3	336.6	343.5	366.0	249.7	161.2	125.7	102.1	120.8	197.7	559.1	2848	3711	293.3	9.760	2.788	1.893	1.433	1.320	1.063	0.857	0.964	0.873	0.779	0.943	0.966	1.180	1.414	1.774	1.629	1.727	2.155	2.072	2.395	2.141	2.224	2.427	2.224	2.328	2.279	2.235	2.486	2.565	2.652	2.675	2.569	2.667	2.386	2.688	2.749	2.593	2.728	2.683	2.769	2.700	2.778	3.015
385.0	345.6	497.2	632.4	695.1	690.6	648.7	616.1	591.1	594.2	589.3	619.0	610.7	606.9	589.9	549.9	517.9	495.1	469.9	448.2	419.7	384.3	350.5	329.0	353.9	327.5	204.9	148.7	115.3	98.26	93.86	162.7	811.1	3236	2539	219.3	5.022	2.410	1.756	1.369	1.177	0.934	0.949	0.827	0.872	0.900	1.062	1.132	1.572	1.686	1.573	1.773	2.320	2.143	2.253	2.177	2.166	2.344	2.432	2.261	2.269	2.508	2.440	2.575	2.576	2.507	2.664	2.774	2.456	2.471	2.768	2.632	2.703	2.773	2.842	2.427	2.868	2.962
390.0	351.0	504.1	637.3	678.5	687.2	657.8	618.9	598.4	589.9	592.1	605.1	609.0	591.4	575.0	543.9	515.2	494.7	478.8	458.5	435.1	403.6	371.1	343.7	328.7	339.3	297.6	200.4	145.7	115.4	93.81	88.48	217.1	904.2	2258	2593	800.8	14.72	2.558	1.717	1.353	1.005	0.911	0.888	0.836	0.952	1.210	1.225	1.489	1.663	1.653	1.691	2.125	2.324	2.459	2.184	2.200	2.472	2.465	2.413	2.352	2.338	2.458	2.535	2.567	2.434	2.474	2.561	2.517	2.530	2.548	2.696	2.803	2.599	2.720	2.515	2.817	2.815
395.0	323.2	478.8	620.1	687.9	702.1	663.2	632.1	599.9	595.6	600.5	601.7	593.9	591.2	570.2	537.2	509.6	497.2	478.9	464.9	445.7	419.5	394.4	364.6	337.6	313.5	325.9	286.7	192.1	145.9	118.3	93.53	98.33	236.5	544.3	1515	3222	1097	17.99	2.621	1.615	1.230	1.134	1.173	0.927	0.923	1.239	1.313	1.330	1.602	1.626	1.631	2.295	2.324	2.322	2.414	2.261	2.335	2.353	2.481	2.522	2.351	2.433	2.511	2.588	2.514	2.451	2.579	2.648	2.582	2.552	2.581	2.551	2.484	2.811	2.634	2.876	2.875
400.0	327.1	490.3	609.9	673.3	669.1	668.1	644.5	612.2	595.8	602.7	602.7	594.9	584.7	561.1	532.2	506.3	492.0	477.5	466.9	445.3	424.4	402.5	378.2	351.0	319.7	308.3	325.1	247.2	171.5	137.8	107.6	83.33	95.26	152.4	401.2	2023	3020	258.7	10.35	2.105	1.466	1.269	1.091	0.905	1.005	1.180	1.191	1.334	1.618	1.595	1.688	2.212	2.364	2.304	2.347	2.327	2.612	2.560	2.485	2.290	2.539	2.349	2.440	2.523	2.408	2.650	2.542	2.548	2.432	2.464	2.741	2.672	2.564	2.653	2.610	2.732	2.850
405.0	331.6	493.2	604.0	668.6	671.7	666.3	653.3	619.0	604.0	596.7	598.4	585.5	579.9	558.0	519.6	503.3	486.2	473.5	460.3	442.4	427.8	404.3	384.2	360.6	331.8	306.9	312.5	299.9	209.8	154.0	121.7	89.80	71.48	70.25	114.5	557.7	2321	2173	204.6	4.575	1.877	1.453	1.165	1.019	1.043	1.298	1.214	1.338	1.669	1.472	1.721	2.123	2.288	2.264	2.436	2.142	2.693	2.406	2.550	2.237	2.420	2.290	2.421	2.488	2.413	2.527	2.418	2.571	2.464	2.576	2.397	2.684	2.559	2.659	2.555	2.610	2.777
410.0	323.6	466.1	572.8	666.5	670.7	666.7	640.7	621.0	602.6	597.3	599.3	583.8	570.3	548.2	514.3	488.7	473.5	461.2	449.5	437.5	422.6	404.5	387.0	368.7	339.4	313.3	294.6	295.7	272.4	197.3	142.1	104.8	76.60	60.79	57.34	145.9	624.9	1666	2089	731.7	13.85	2.087	1.403	1.192	1.108	1.236	1.274	1.442	1.518	1.625	1.630	2.032	2.289	2.340	2.341	2.191	2.639	2.563	2.416	2.417	2.466	2.470	2.523	2.497	2.421	2.271	2.381	2.411	2.490	2.410	2.536	2.487	2.634	2.471	2.451	2.551	2.665
