Sample:	'1
File name:	Default_20230428_122824.FD3
Run date:	'12:22:02, 04/28/2023
Operator:	user
Comment:	'

Instrument
Model:	F-2700 FL Spectrophotometer
Serial number:	2190-003
ROM Version:	4J14000 07

Instrument parameters
Measurement type:	3-D scan
Data mode:	Fluorescence
EX  Start WL:	220.0 nm
EX  End WL:	600.0 nm
EX Sampling interval:	5.0 nm
EM  Start WL:	230.0 nm
EM  End WL:	650.0 nm
EM Sampling interval:	5.0 nm
Scan speed:	12000 nm/min
EX Slit:	5.0 nm
EM Slit:	5.0 nm
PMT Voltage:	700 V
Response:	Auto 
Corrected spectra:	Off
Contour interval:	50.000

Peak integration
Integration method:	Rectangular
Sensitivity:	1
Threshold:	1.000

Peaks
No.	ApexEX/EM(nm)	Height(Data)
1	225.0/605.0	51.59
2	225.0/615.0	62.71
3	230.0/340.0	278.1
4	230.0/595.0	60.53
5	240.0/375.0	276.8
6	240.0/520.0	133.3
7	245.0/530.0	132.9
8	250.0/545.0	127.9
9	250.0/580.0	39.75
10	255.0/280.0	350.0
11	255.0/550.0	116.7
12	255.0/615.0	30.43
13	260.0/285.0	456.8
14	260.0/565.0	99.70
15	260.0/625.0	33.47
16	265.0/240.0	20.86
17	265.0/290.0	502.0
18	265.0/580.0	109.0
19	270.0/295.0	746.4
20	270.0/445.0	466.6
21	270.0/590.0	99.45
22	275.0/305.0	963.8
23	275.0/400.0	449.0
24	275.0/420.0	449.9
25	275.0/600.0	100.4
26	275.0/645.0	43.07
27	280.0/310.0	 1003
28	280.0/335.0	748.0
29	280.0/415.0	452.9
30	280.0/615.0	79.33
31	285.0/315.0	 1012
32	285.0/340.0	729.1
33	285.0/425.0	446.8
34	285.0/625.0	73.91
35	290.0/255.0	12.22
36	290.0/320.0	914.1
37	290.0/410.0	446.8
38	290.0/640.0	59.19
39	305.0/340.0	489.8
40	310.0/345.0	426.5
41	315.0/350.0	364.6
42	320.0/360.0	391.9
43	325.0/365.0	395.5
44	330.0/370.0	363.7
45	335.0/380.0	373.5
46	340.0/385.0	378.1
47	345.0/390.0	336.0
48	350.0/400.0	332.7
49	355.0/405.0	334.8
50	360.0/410.0	302.1
51	365.0/415.0	295.4
52	370.0/425.0	283.9
53	415.0/485.0	74.75
54	425.0/495.0	53.78
55	430.0/505.0	44.75
56	445.0/525.0	28.96
57	450.0/530.0	23.63
58	455.0/535.0	20.62
59	475.0/565.0	8.051
60	505.0/275.0	3.187
61	510.0/280.0	3.326
62	520.0/285.0	3.366
63	530.0/290.0	3.212
64	535.0/295.0	4.406
65	545.0/300.0	4.856
66	545.0/385.0	3.417
67	550.0/305.0	4.924
68	555.0/310.0	4.815
69	570.0/315.0	4.902
70	580.0/325.0	4.021
71	590.0/330.0	3.741

Data points
	220.0	225.0	230.0	235.0	240.0	245.0	250.0	255.0	260.0	265.0	270.0	275.0	280.0	285.0	290.0	295.0	300.0	305.0	310.0	315.0	320.0	325.0	330.0	335.0	340.0	345.0	350.0	355.0	360.0	365.0	370.0	375.0	380.0	385.0	390.0	395.0	400.0	405.0	410.0	415.0	420.0	425.0	430.0	435.0	440.0	445.0	450.0	455.0	460.0	465.0	470.0	475.0	480.0	485.0	490.0	495.0	500.0	505.0	510.0	515.0	520.0	525.0	530.0	535.0	540.0	545.0	550.0	555.0	560.0	565.0	570.0	575.0	580.0	585.0	590.0	595.0	600.0
230.0	53.42	135.7	 1190	 1082	106.3	23.71	18.09	17.75	17.33	14.78	14.93	12.81	11.46	9.780	8.206	7.213	7.000	5.380	5.049	4.250	4.434	4.042	3.533	3.758	3.066	3.108	3.163	3.150	2.916	2.633	2.573	2.481	2.277	2.302	2.104	2.446	2.104	2.192	1.902	1.806	1.814	1.883	1.602	1.590	1.506	1.618	1.477	3.017	5.289	5.858	3.040	1.543	1.297	1.288	1.307	1.210	1.223	1.158	1.434	1.370	1.015	1.280	1.269	1.220	1.198	1.114	1.127	1.242	1.095	0.962	1.296	1.155	1.078	1.025	1.100	1.150	1.172
235.0	49.83	66.89	465.8	 1757	 1360	159.1	24.18	19.93	17.57	18.66	13.98	13.32	12.11	9.367	8.505	8.506	6.540	6.434	5.228	4.696	4.463	4.245	3.990	3.067	3.122	3.461	3.126	3.181	2.926	2.677	2.915	2.387	2.006	2.304	2.449	2.040	1.956	1.789	1.944	1.768	1.371	1.837	1.368	1.726	1.537	1.339	1.304	1.807	2.622	4.099	7.014	7.974	4.650	1.785	1.042	1.373	1.407	1.077	1.041	1.296	1.181	0.960	1.370	1.483	1.222	1.062	1.265	1.139	1.006	1.029	1.505	1.029	1.278	1.079	0.994	1.142	1.209
240.0	58.75	65.33	131.1	865.5	 2630	 1354	99.72	20.10	13.97	20.86	13.50	11.16	11.64	9.712	9.246	8.918	7.427	5.747	5.881	4.782	4.689	4.354	3.783	3.180	3.463	3.338	3.065	3.113	3.313	2.540	2.610	2.238	2.384	2.627	2.286	2.462	2.237	1.548	2.041	1.959	1.816	1.707	1.804	1.763	1.985	1.314	1.247	1.468	1.611	1.872	3.825	9.007	11.52	9.973	3.937	1.259	1.585	1.226	1.053	1.371	1.229	0.948	1.484	1.065	1.316	1.267	1.120	0.995	1.012	1.106	1.227	1.172	1.117	1.014	0.793	1.291	1.165
245.0	44.05	72.78	81.88	248.3	 1616	 3416	 1156	52.34	18.95	17.67	10.96	15.96	11.62	8.722	9.372	7.452	6.947	4.973	6.103	4.599	4.566	4.135	3.454	3.340	3.318	3.312	2.442	2.630	3.108	2.347	2.564	2.640	2.823	2.585	1.696	2.227	2.304	2.043	1.962	2.158	1.599	1.592	1.829	1.728	1.507	1.637	1.465	1.628	1.428	1.369	1.590	3.833	7.920	14.90	14.87	8.382	2.954	1.516	1.248	1.291	1.359	1.137	0.994	0.739	1.072	1.123	1.333	1.428	1.050	1.194	1.138	1.200	0.942	1.136	1.019	1.106	1.012
250.0	54.03	65.61	91.84	113.3	426.8	 1818	 3941	 3001	406.7	23.53	15.35	17.54	13.04	10.20	9.013	7.557	7.638	5.681	6.644	4.688	4.705	4.430	3.899	3.868	3.564	3.276	3.133	3.166	3.221	3.085	2.554	2.818	2.718	2.489	1.756	1.954	1.944	1.841	2.094	1.934	1.747	1.687	1.734	1.990	1.606	1.753	1.410	1.450	1.515	1.429	1.347	1.899	2.701	5.216	9.175	15.38	19.32	16.64	9.086	2.689	1.468	1.129	1.187	1.038	1.017	0.994	1.170	1.145	1.227	1.373	1.164	1.245	0.974	1.330	1.195	1.199	1.159
255.0	56.20	51.52	54.18	137.0	198.4	440.5	 1475	 5940	 5760	519.3	24.98	22.44	12.22	11.02	12.22	8.533	6.612	7.880	5.541	5.659	4.660	4.540	4.081	3.532	4.253	3.935	2.740	3.086	2.878	3.216	3.610	2.788	2.309	2.769	1.642	2.153	1.864	2.021	1.688	1.545	1.695	1.717	1.934	1.715	1.670	1.527	1.557	1.745	1.363	1.198	1.661	2.033	1.588	2.371	3.199	4.552	7.761	18.02	32.27	30.40	13.61	2.571	1.188	0.936	1.264	1.322	0.938	0.975	1.126	1.101	1.235	1.114	1.214	1.413	1.303	1.404	1.567
260.0	46.56	48.66	53.07	91.89	181.9	165.9	369.1	 2650	 8952	 5605	320.5	24.39	16.15	12.84	10.48	8.264	7.290	8.110	5.036	5.757	4.517	4.524	4.560	3.727	3.880	3.066	3.105	2.780	3.325	2.706	2.830	2.880	2.450	2.039	1.402	2.430	1.801	1.571	2.143	1.881	1.976	1.720	2.049	1.631	1.615	1.855	1.513	1.223	1.171	1.260	1.350	1.921	1.899	1.802	1.989	2.170	3.115	5.877	14.90	32.85	42.36	28.20	8.046	1.451	1.316	1.362	1.286	1.246	1.061	1.057	1.077	1.300	1.149	1.043	1.077	1.160	1.156
265.0	56.43	54.39	46.86	55.61	146.3	194.9	132.1	674.9	 4451	9999.9	 4691	146.8	21.19	15.49	13.00	9.337	6.889	7.224	6.867	5.432	4.589	4.792	4.840	3.669	3.945	2.865	3.482	2.959	2.943	2.554	3.259	2.571	2.189	2.067	2.243	2.136	1.484	1.660	2.059	1.997	1.726	1.539	1.861	1.717	1.442	1.947	1.774	1.411	1.167	1.120	1.161	1.436	1.840	2.380	1.944	1.686	1.584	2.500	4.825	10.95	26.10	47.28	47.35	21.73	3.849	1.356	1.057	1.150	1.228	1.157	1.095	1.124	1.259	1.129	0.858	1.392	1.448
270.0	59.88	53.56	52.26	42.50	67.23	165.0	234.3	229.0	 1095	 4672	9999.9	 7409	395.7	24.80	14.84	11.28	8.278	7.432	7.007	6.410	5.421	5.492	4.303	3.681	4.294	3.490	3.490	3.098	2.924	2.698	3.226	2.794	2.443	2.457	2.526	2.270	1.851	2.028	2.266	1.841	1.580	1.786	2.071	1.709	1.551	1.489	1.419	1.561	1.532	1.101	1.107	1.244	1.451	1.780	1.919	2.505	2.080	1.876	1.963	3.552	7.086	15.31	26.49	40.28	47.20	36.99	15.23	2.814	1.190	1.063	1.269	0.975	1.290	1.063	1.090	1.165	1.291
275.0	60.49	57.95	45.73	40.73	32.40	68.88	189.2	326.9	321.6	 1087	 3176	9999.9	9999.9	503.9	20.45	16.14	12.22	9.022	8.481	6.572	6.087	4.658	4.170	3.837	4.506	4.433	3.296	3.000	2.841	2.952	3.622	2.794	2.891	2.349	2.323	2.158	1.963	2.181	1.987	1.838	1.866	1.804	1.813	1.947	1.988	1.781	1.711	1.487	1.563	1.458	1.443	1.368	1.221	1.061	1.409	1.783	2.685	3.187	2.470	1.918	2.492	4.267	6.818	10.34	17.44	41.10	66.73	53.65	16.01	1.991	1.138	1.256	0.951	1.193	0.796	1.282	1.271
280.0	62.18	64.14	65.71	48.62	32.76	41.99	96.68	350.0	328.4	307.7	782.2	 4152	9999.9	 5557	313.7	20.16	13.28	10.41	7.706	7.441	6.342	4.937	4.134	4.144	3.781	4.069	3.746	3.771	2.516	3.066	2.730	3.016	2.384	2.599	2.518	2.012	2.118	2.226	1.703	1.944	1.949	1.510	1.932	1.719	1.772	1.809	1.928	1.547	1.424	1.461	1.190	1.416	1.416	1.333	1.458	1.213	1.818	2.330	3.326	2.698	1.851	1.942	2.460	3.270	4.791	11.64	30.36	63.31	72.57	39.00	7.843	1.437	1.192	1.338	1.224	1.223	1.174
285.0	68.24	79.48	76.86	64.94	45.92	34.93	56.67	188.4	456.8	267.0	258.6	 1061	 5828	9999.9	 4261	145.3	16.64	12.81	11.13	8.488	7.074	5.793	5.430	4.907	5.095	3.553	3.889	3.952	3.154	3.649	2.881	2.587	2.570	2.453	2.616	1.880	2.025	2.451	1.908	1.785	1.980	1.353	1.522	1.579	2.241	1.933	1.660	1.821	1.614	1.325	1.274	1.375	1.539	1.616	1.280	1.589	1.679	1.638	2.191	2.915	3.366	2.367	1.889	2.128	2.432	3.704	8.480	20.55	47.20	78.14	64.49	23.95	3.454	1.706	1.557	1.131	1.164
290.0	74.98	100.8	102.3	80.17	63.76	51.36	58.45	98.89	263.0	502.0	373.2	416.4	 1535	 5655	9999.9	 9901	248.2	20.43	14.11	9.769	8.969	6.072	5.695	5.424	5.382	4.406	3.633	3.712	3.247	2.886	3.108	2.802	2.907	2.599	2.193	2.362	2.030	1.945	2.164	1.836	1.956	1.731	1.655	1.480	1.838	1.762	1.636	2.001	2.135	1.646	1.478	1.664	1.489	1.477	1.352	1.513	1.598	1.566	1.867	2.091	2.421	3.045	3.212	2.625	1.943	2.320	3.386	5.794	12.57	25.18	41.94	58.05	57.23	40.04	16.04	3.250	1.117
295.0	70.31	114.9	136.7	113.5	78.83	72.45	72.47	103.4	162.6	338.7	746.4	507.3	619.5	 1486	 3183	9999.9	9999.9	325.5	20.25	12.69	10.31	7.761	7.115	5.488	4.819	4.667	3.827	3.870	3.377	3.874	3.419	3.218	2.625	2.483	2.230	2.381	1.910	2.691	2.194	1.597	1.758	1.789	1.758	1.426	1.707	1.601	1.876	1.807	1.923	1.721	1.536	2.174	1.374	1.502	1.914	1.762	1.587	1.578	1.663	1.935	1.695	2.092	2.910	4.406	3.549	2.800	2.147	3.160	4.983	7.606	11.29	15.12	23.67	53.36	78.28	55.85	17.96
300.0	95.97	128.6	168.7	136.4	93.58	76.38	91.57	119.2	164.1	255.6	649.5	870.5	562.1	610.4	892.2	 4315	9999.9	9999.9	220.2	17.62	11.91	9.292	6.865	6.152	4.864	4.219	4.432	4.068	3.308	3.653	3.094	3.059	2.814	2.675	2.410	2.492	1.831	2.382	1.941	1.994	1.616	1.574	2.041	1.629	1.571	1.657	1.818	2.219	1.755	1.639	1.618	2.168	1.388	1.539	1.640	1.688	1.987	1.945	1.447	1.810	1.742	1.840	2.286	3.022	3.950	4.856	3.248	3.177	2.949	3.425	3.929	4.560	6.486	15.76	39.53	78.10	86.18
305.0	105.2	141.5	192.2	167.9	106.6	82.63	97.71	143.2	183.0	266.7	473.5	963.8	862.0	499.2	429.7	 1124	 6153	9999.9	 2827	123.8	14.57	10.96	8.792	6.636	5.299	5.256	4.117	4.019	4.078	4.338	3.784	3.061	3.204	3.053	2.594	2.094	2.117	2.672	2.230	2.304	1.869	2.034	1.826	1.629	1.611	1.871	1.786	1.922	1.553	1.588	1.705	1.881	1.681	2.200	1.710	1.799	1.920	1.907	1.679	2.001	1.860	2.029	2.099	2.685	3.031	4.377	4.924	4.305	3.075	2.853	2.639	2.608	2.952	4.852	10.39	26.27	61.71
310.0	102.2	156.6	221.6	172.2	134.2	100.2	118.1	163.8	220.5	316.3	460.0	728.3	 1003	810.2	414.6	410.8	 1529	 5991	9999.9	 8769	181.6	17.90	11.45	9.164	6.752	5.658	5.455	4.604	4.853	3.869	4.085	3.370	3.379	3.180	2.792	2.740	2.355	2.311	2.225	2.041	1.891	1.641	1.628	1.940	1.859	2.159	1.770	1.783	1.780	1.763	1.723	2.021	1.489	2.044	1.933	1.933	1.727	1.922	1.702	2.168	2.129	2.116	2.424	2.750	2.630	3.376	3.865	4.815	4.529	4.027	3.183	2.562	2.475	2.484	3.476	7.262	16.06
315.0	100.7	178.9	218.7	180.8	141.3	116.8	130.4	179.3	250.4	356.1	491.3	654.1	800.8	 1012	670.3	311.6	452.6	 1401	 3227	9999.9	9999.9	248.8	16.15	10.99	8.544	6.787	6.197	5.710	4.791	4.487	4.449	3.182	2.873	3.216	2.705	2.876	2.467	2.466	2.167	2.371	1.632	1.783	1.463	2.030	1.641	2.105	1.821	2.279	1.773	2.048	1.531	1.757	1.722	1.718	1.755	1.791	2.307	2.004	1.938	2.105	2.083	2.240	2.672	2.888	2.691	3.035	3.485	3.452	4.264	4.117	4.902	3.732	2.795	2.642	1.872	2.876	4.949
320.0	114.5	188.6	232.7	204.5	159.0	127.9	144.6	201.0	272.9	378.3	510.0	659.1	729.5	839.3	914.1	434.6	235.4	388.9	774.1	 4393	9999.9	 8761	177.8	13.26	9.783	8.315	6.098	5.431	4.586	4.337	4.414	3.540	2.870	3.059	2.746	2.840	2.524	2.346	2.343	2.042	1.814	2.245	1.999	2.098	1.961	1.802	1.981	2.260	1.769	2.011	1.833	1.673	2.012	1.955	1.640	2.010	2.229	2.158	2.029	2.094	2.506	2.450	2.667	2.957	2.690	2.907	3.485	3.599	3.584	3.551	4.589	4.371	3.962	2.367	2.246	1.849	2.149
325.0	117.4	176.3	249.4	230.6	157.6	140.3	147.0	212.3	285.0	390.1	535.3	682.5	704.5	744.3	820.2	688.4	247.2	171.8	228.2	 1061	 6114	9999.9	 2086	106.3	12.71	9.006	7.910	5.598	4.802	4.679	5.078	3.595	3.257	3.515	3.089	2.800	2.635	2.245	2.480	2.002	1.797	2.014	2.006	1.930	1.999	1.871	1.794	1.975	2.035	1.798	1.840	1.885	1.984	2.227	1.549	2.330	2.232	2.094	2.385	2.573	2.577	2.822	2.791	2.910	3.183	3.233	3.116	3.603	3.481	3.752	3.349	3.369	4.021	3.061	2.582	2.149	1.987
330.0	120.3	192.8	252.0	248.4	162.1	155.4	172.7	222.0	302.7	425.3	558.2	698.9	741.1	730.3	661.5	653.2	487.0	205.5	123.2	289.1	 1472	 5546	9999.9	 7435	144.3	16.14	9.614	7.340	5.961	5.005	5.092	4.116	3.296	3.238	2.997	2.680	2.644	2.645	2.170	2.075	1.909	2.060	1.918	2.029	1.881	2.131	1.854	2.062	2.023	1.882	1.870	1.865	1.949	1.947	1.980	2.272	2.161	2.231	2.295	2.570	2.727	2.841	2.943	3.089	3.221	3.310	3.532	3.697	3.586	3.480	3.216	2.907	3.198	3.377	3.741	3.214	2.267
335.0	114.2	163.2	261.5	244.2	191.4	160.9	188.0	232.8	330.2	434.4	556.7	699.6	748.0	707.3	607.0	508.1	501.2	425.4	155.1	133.6	380.2	 1280	 3289	9999.9	9999.9	200.4	14.41	9.542	8.508	5.773	5.166	5.021	3.961	3.506	3.113	2.925	2.939	2.912	2.065	2.162	2.342	2.042	1.999	2.056	1.849	1.905	2.307	2.263	1.996	2.039	2.048	1.991	1.580	2.102	1.721	2.267	2.143	2.029	2.551	2.825	2.851	2.764	2.980	3.043	3.116	3.208	3.141	3.497	3.422	3.675	3.313	2.659	3.135	3.256	2.850	2.708	2.842
340.0	134.3	166.1	278.1	257.7	198.4	177.7	200.4	242.6	328.0	434.4	554.9	685.6	725.1	729.1	601.8	467.8	380.1	489.8	290.8	124.1	148.4	336.5	787.5	 4531	9999.9	 8189	149.3	13.24	9.864	7.282	5.835	5.363	4.323	4.048	3.268	3.059	2.601	2.929	2.257	2.407	2.773	1.981	1.701	1.995	1.978	1.806	2.533	2.158	2.199	2.038	1.924	1.975	1.580	2.287	1.558	2.154	2.228	2.207	2.605	2.964	2.888	2.833	2.938	2.861	3.055	3.264	3.371	3.411	3.286	3.269	3.460	3.230	3.213	2.658	2.508	2.476	2.598
345.0	113.8	173.7	242.0	248.7	207.7	177.4	210.2	240.9	323.0	417.1	550.4	653.9	701.0	701.2	591.1	445.4	325.3	379.3	426.5	193.3	114.2	137.9	227.8	 1094	 6546	9999.9	 1707	91.84	11.94	9.230	7.656	6.082	4.244	3.686	3.488	3.256	3.094	3.158	2.773	1.777	2.463	1.860	1.992	2.116	2.073	1.951	2.325	2.349	2.152	1.885	1.922	2.208	1.446	2.195	1.470	2.226	2.184	2.285	2.224	2.629	2.641	2.934	2.739	2.915	3.469	3.445	3.659	3.403	3.478	3.402	3.151	3.274	3.048	2.797	2.351	2.462	2.372
350.0	114.5	177.6	226.5	244.7	199.8	194.0	214.5	260.4	312.8	409.5	519.6	611.9	655.8	672.3	579.5	445.2	330.7	289.6	357.2	364.6	190.5	121.2	120.3	300.2	 1602	 6071	9999.9	 6474	123.0	13.26	8.310	6.843	5.436	4.022	3.942	3.262	3.302	3.118	2.559	2.062	2.446	2.307	2.296	2.356	2.237	1.925	2.218	2.122	2.091	2.072	1.914	2.181	1.894	1.960	1.895	2.221	2.290	2.181	2.441	2.534	2.397	2.741	2.928	2.631	3.202	3.228	3.348	3.336	3.372	3.140	3.414	3.316	3.079	2.424	2.650	2.190	2.353
355.0	110.7	154.9	216.4	238.9	216.9	219.3	232.9	278.1	312.5	401.5	482.0	580.0	630.3	623.6	557.3	446.4	345.9	288.1	273.8	344.5	346.7	183.2	125.4	140.7	417.8	 1397	 3515	9999.9	 9202	167.2	12.12	9.149	6.074	5.196	4.223	3.522	2.825	2.930	3.160	2.272	2.269	2.339	2.205	2.275	1.770	2.348	1.976	2.217	2.093	1.851	2.019	2.039	2.240	2.105	1.764	2.165	2.322	2.488	2.858	2.658	2.725	2.491	2.632	2.902	2.779	3.235	3.166	3.084	2.471	2.971	3.102	3.102	2.797	2.445	2.503	2.201	2.358
360.0	113.9	160.6	220.7	237.0	218.0	244.9	246.6	279.3	318.8	375.6	477.3	560.1	593.3	566.2	532.5	452.6	349.8	306.7	276.1	287.8	391.9	296.0	156.9	123.4	166.3	368.8	843.8	 4874	9999.9	 6517	118.5	10.51	7.418	6.560	4.480	3.626	3.215	3.142	2.981	2.571	2.072	2.597	2.297	2.256	2.015	1.957	2.162	2.662	2.095	1.939	2.008	2.183	2.070	2.415	2.041	2.112	2.602	2.361	2.550	2.385	2.595	2.930	3.107	2.550	2.754	3.401	2.907	2.693	2.843	3.056	2.896	2.863	2.896	2.675	2.587	1.979	2.345
365.0	97.10	145.8	209.3	227.7	235.9	224.9	246.5	285.9	330.0	381.4	455.9	520.6	551.0	548.4	512.7	438.6	364.4	320.4	291.5	279.7	320.7	395.5	237.5	142.9	131.7	150.9	241.5	 1189	 6524	9999.9	 1501	66.45	9.722	6.951	5.013	4.424	3.247	3.369	2.873	2.333	2.327	2.487	2.084	2.957	2.253	2.168	2.280	2.370	1.987	2.065	1.594	2.018	1.735	2.270	1.975	2.224	2.263	2.488	2.291	2.387	2.658	2.551	2.983	2.529	2.987	2.933	2.965	2.597	2.629	3.392	2.768	2.604	2.498	2.787	2.357	2.408	2.332
370.0	115.0	150.6	211.1	228.2	237.2	245.1	270.0	287.4	327.3	399.2	440.6	508.1	529.5	544.6	504.0	444.3	382.4	349.4	327.1	301.3	297.7	345.4	363.7	232.2	152.4	125.5	124.6	316.6	 1608	 6072	9999.9	 5550	95.56	9.994	6.777	5.226	4.090	3.397	3.197	2.664	2.423	2.517	2.310	2.304	2.185	2.288	2.312	2.001	1.984	1.843	1.805	1.960	2.097	2.210	2.109	2.639	2.627	2.426	2.314	2.961	2.535	2.559	2.485	2.658	2.756	2.964	3.041	2.753	3.014	2.929	2.755	2.830	2.583	2.829	2.576	2.665	2.515
375.0	112.0	144.5	205.3	237.1	276.8	259.2	275.0	310.4	346.0	395.8	445.6	487.4	515.6	511.4	495.7	449.3	405.5	368.8	351.4	334.2	319.3	312.9	332.8	364.2	221.6	145.4	122.7	142.3	409.3	 1395	 3798	9999.9	 7618	125.4	8.584	7.159	4.883	4.390	3.536	3.281	2.434	2.504	2.788	2.161	2.385	2.175	2.275	2.180	2.075	2.104	1.659	2.227	2.094	2.132	2.393	2.508	2.303	2.306	2.506	2.689	2.586	2.638	2.786	2.567	2.651	2.269	3.189	2.596	3.368	2.658	2.488	2.717	2.643	2.222	2.366	2.428	2.833
380.0	102.4	140.6	202.6	250.6	253.8	293.3	281.8	322.0	346.1	388.7	416.4	467.4	499.2	486.1	478.1	457.9	405.4	390.4	371.5	354.2	335.3	316.3	305.4	373.5	323.2	179.4	135.3	118.5	157.4	357.1	904.9	 5341	9999.9	 5028	79.95	8.412	5.346	5.474	4.327	3.283	2.752	2.962	2.799	2.882	2.483	2.342	2.156	2.210	2.292	2.019	1.892	2.475	2.213	2.251	2.406	2.617	2.361	2.282	2.450	2.568	2.464	2.814	2.689	2.477	2.783	2.549	3.011	2.485	3.415	3.103	2.737	2.747	2.573	2.605	2.460	2.860	3.375
385.0	99.78	134.6	204.1	241.9	264.4	285.9	305.9	333.6	347.3	393.3	438.4	467.9	493.7	477.0	480.3	455.6	418.8	393.7	392.6	373.6	349.7	331.7	302.8	324.6	378.1	251.8	155.3	122.7	111.1	138.8	244.4	 1331	 7165	9999.9	 1151	34.09	6.839	6.227	4.378	3.506	3.125	2.869	2.827	2.669	2.528	2.098	2.182	2.116	2.245	2.138	2.012	2.284	2.463	2.395	2.412	2.320	2.521	2.411	2.472	2.999	2.503	2.705	2.422	2.687	2.886	3.417	2.958	2.536	3.056	2.701	2.371	2.307	2.870	2.654	2.534	3.000	3.129
390.0	101.1	139.0	217.5	253.1	270.2	310.4	315.5	353.3	358.0	394.3	431.7	443.7	460.2	469.0	460.7	447.6	429.2	406.5	403.8	394.8	367.3	351.9	322.5	313.5	325.5	336.0	237.9	155.1	124.8	109.0	113.8	339.1	 1805	 6154	 9095	 4012	69.26	8.177	5.322	4.077	3.697	3.379	3.277	2.516	2.409	2.098	2.274	2.112	2.221	1.863	1.857	2.195	2.405	2.262	2.472	2.655	2.547	2.430	2.661	2.612	2.554	2.538	2.757	2.656	2.578	3.112	2.920	2.535	2.982	2.613	2.584	2.960	2.769	2.522	2.654	2.717	2.857
395.0	90.34	140.0	220.7	241.5	302.3	314.7	319.6	379.1	376.9	403.7	418.6	431.3	462.9	464.2	456.5	441.2	438.0	408.4	406.5	396.4	375.6	367.1	339.5	312.4	304.3	316.7	331.1	221.6	150.7	125.3	103.1	134.8	443.1	 1408	 3870	9999.9	 5423	89.76	7.240	4.936	4.460	3.785	2.911	3.260	2.593	2.169	2.210	2.044	2.513	1.752	2.085	2.614	2.017	2.213	2.433	2.396	2.870	2.430	2.652	2.651	2.538	2.349	2.684	2.531	2.694	2.814	2.850	2.882	2.572	2.483	2.430	2.744	2.976	2.779	2.631	2.352	2.683
400.0	96.94	139.8	202.9	239.3	292.6	323.4	320.5	377.3	379.2	404.5	417.4	449.0	436.5	461.0	444.0	439.4	432.6	414.4	414.3	401.5	389.3	367.1	342.5	333.1	301.4	290.9	332.7	298.5	192.2	144.2	110.2	97.11	148.2	348.6	927.6	 5377	9999.9	 1083	56.04	6.726	4.682	4.722	3.556	2.967	2.862	2.434	2.193	2.085	2.586	2.121	1.935	2.424	2.174	2.083	2.138	1.937	2.899	2.751	2.502	2.932	2.447	2.378	2.562	2.505	2.392	2.513	2.984	2.660	2.664	2.858	2.504	2.679	2.697	2.745	2.727	2.778	3.118
405.0	99.07	134.6	205.8	245.1	287.5	333.0	328.0	379.1	376.1	404.9	415.6	443.7	438.6	458.3	446.2	422.3	418.7	408.7	410.8	399.8	391.3	368.9	350.9	336.4	312.1	292.2	301.5	334.8	241.5	162.0	127.3	98.84	92.06	119.4	237.2	 1368	 6753	 8518	924.9	22.84	6.075	4.888	3.799	3.171	2.679	2.543	2.335	2.253	2.134	2.232	2.323	2.547	2.184	2.626	2.477	2.184	3.034	2.533	2.715	3.053	2.978	2.635	2.704	2.429	2.718	2.798	2.725	2.716	2.860	2.697	2.941	2.895	2.585	2.414	2.808	2.876	2.576
