Sample:	'1
File name:	W2025090901-共青团水库.FD3
Run date:	'09:37:58, 09/11/2025
Operator:	Administrator
Comment:	'

Instrument
Model:	F-2700 FL Spectrophotometer
Serial number:	23C7-004
ROM Version:	4J14000 07

Instrument parameters
Measurement type:	3-D scan
Data mode:	Fluorescence
EX  Start WL:	220.0 nm
EX  End WL:	600.0 nm
EX Sampling interval:	5.0 nm
EM  Start WL:	230.0 nm
EM  End WL:	650.0 nm
EM Sampling interval:	5.0 nm
Scan speed:	12000 nm/min
EX Slit:	5.0 nm
EM Slit:	5.0 nm
PMT Voltage:	700 V
Response:	Auto 
Corrected spectra:	Off
Contour interval:	50.000

Peak integration
Integration method:	Rectangular
Sensitivity:	1
Threshold:	1.000

Peaks
No.	ApexEX/EM(nm)	Height(Data)
1	225.0/335.0	677.2
2	225.0/355.0	685.6
3	225.0/375.0	676.0
4	225.0/395.0	679.7
5	225.0/405.0	669.0
6	225.0/600.0	43.79
7	230.0/500.0	328.9
8	240.0/265.0	393.9
9	240.0/525.0	202.2
10	245.0/270.0	359.7
11	245.0/445.0	531.7
12	245.0/540.0	177.3
13	250.0/275.0	487.5
14	250.0/550.0	152.2
15	255.0/285.0	550.7
16	255.0/415.0	574.6
17	255.0/435.0	564.3
18	255.0/565.0	129.6
19	260.0/290.0	553.1
20	260.0/575.0	113.0
21	265.0/295.0	773.2
22	265.0/590.0	99.11
23	270.0/300.0	1092
24	270.0/600.0	98.67
25	275.0/305.0	1140
26	275.0/615.0	80.61
27	280.0/625.0	69.22
28	285.0/320.0	928.6
29	285.0/635.0	50.09
30	290.0/325.0	781.4
31	300.0/335.0	520.3
32	305.0/345.0	476.6
33	310.0/350.0	415.2
34	315.0/355.0	417.8
35	320.0/360.0	417.5
36	325.0/370.0	394.7
37	330.0/375.0	386.6
38	335.0/380.0	384.9
39	345.0/395.0	304.9
40	350.0/400.0	299.0
41	360.0/415.0	249.4
42	365.0/420.0	249.2
43	440.0/520.0	23.78
44	455.0/540.0	13.05
45	465.0/555.0	7.594
46	505.0/275.0	2.509
47	510.0/280.0	2.748
48	515.0/285.0	3.050
49	525.0/290.0	3.217
50	535.0/295.0	4.444
51	545.0/300.0	4.927
52	550.0/305.0	6.068
53	560.0/310.0	5.280
54	570.0/315.0	5.379
55	575.0/320.0	5.009
56	580.0/325.0	4.832
57	590.0/330.0	3.729

Data points
	220.0	225.0	230.0	235.0	240.0	245.0	250.0	255.0	260.0	265.0	270.0	275.0	280.0	285.0	290.0	295.0	300.0	305.0	310.0	315.0	320.0	325.0	330.0	335.0	340.0	345.0	350.0	355.0	360.0	365.0	370.0	375.0	380.0	385.0	390.0	395.0	400.0	405.0	410.0	415.0	420.0	425.0	430.0	435.0	440.0	445.0	450.0	455.0	460.0	465.0	470.0	475.0	480.0	485.0	490.0	495.0	500.0	505.0	510.0	515.0	520.0	525.0	530.0	535.0	540.0	545.0	550.0	555.0	560.0	565.0	570.0	575.0	580.0	585.0	590.0	595.0	600.0
230.0	245.9	3676	3903	429.5	10.78	4.239	3.704	2.827	2.036	2.274	2.459	2.246	2.072	1.642	1.637	1.464	1.168	1.168	0.973	0.917	0.776	0.814	0.703	0.602	0.521	0.465	0.478	0.383	0.401	0.418	0.343	0.352	0.329	0.274	0.254	0.210	0.191	0.195	0.174	0.240	0.434	0.659	0.470	0.243	0.150	0.458	4.473	13.88	15.50	7.184	1.375	0.190	0.112	0.084	0.092	0.075	0.067	0.062	0.074	0.064	0.053	0.048	0.055	0.064	0.053	0.080	0.050	0.072	0.033	0.057	0.044	0.036	0.042	0.050	0.023	0.057	0.040
235.0	149.1	1061	3634	3674	410.5	11.83	5.515	4.208	3.563	2.650	2.599	2.906	2.704	1.993	1.615	1.477	1.320	1.189	1.010	1.009	0.900	0.851	0.758	0.617	0.520	0.575	0.481	0.451	0.382	0.462	0.254	0.366	0.295	0.307	0.288	0.183	0.221	0.167	0.214	0.172	0.202	0.379	0.395	0.536	0.463	0.282	1.093	3.808	7.941	11.81	13.42	10.70	3.013	0.462	0.084	0.117	0.078	0.100	0.066	0.085	0.049	0.090	0.103	0.074	0.037	0.068	0.047	0.069	0.044	0.052	0.024	0.011	0.077	0.048	0.106	0.045	0.029
240.0	250.6	300.4	1267	4472	3432	316.7	6.530	4.649	4.495	3.234	3.241	2.976	2.648	2.023	1.793	1.569	1.273	1.184	1.131	1.036	0.921	0.776	0.788	0.662	0.539	0.565	0.393	0.430	0.362	0.403	0.378	0.332	0.288	0.213	0.269	0.208	0.277	0.183	0.164	0.142	0.216	0.221	0.236	0.412	0.663	0.784	0.526	0.974	1.983	4.061	9.833	19.87	18.52	8.974	2.060	0.144	0.150	0.103	0.092	0.066	0.079	0.046	0.104	0.053	0.029	0.057	0.040	0.072	0.069	0.054	0.048	0.039	0.067	0.047	0.054	0.066	0.119
245.0	233.2	252.1	327.6	1854	5280	2936	209.5	6.669	4.417	5.200	3.813	3.050	2.730	2.114	1.815	1.442	1.475	1.369	1.115	1.040	0.917	0.822	0.802	0.609	0.692	0.494	0.464	0.444	0.415	0.443	0.424	0.459	0.255	0.286	0.241	0.242	0.340	0.202	0.145	0.172	0.178	0.146	0.169	0.230	0.385	0.775	0.876	0.650	0.604	1.020	2.561	8.248	17.79	24.40	18.42	7.084	1.040	0.140	0.067	0.086	0.068	0.073	0.104	0.066	0.067	0.083	0.108	0.043	0.060	0.076	0.001	0.054	0.083	0.030	0.034	0.052	0.137
250.0	86.81	235.4	287.5	481.1	2002	4701	4415	926.0	35.85	6.497	5.125	3.948	3.735	2.847	2.470	1.938	1.706	1.462	1.386	1.020	0.954	0.904	0.796	0.676	0.707	0.597	0.487	0.503	0.478	0.428	0.411	0.328	0.292	0.267	0.221	0.243	0.287	0.144	0.186	0.193	0.220	0.184	0.157	0.181	0.219	0.321	0.565	0.781	0.868	0.733	0.813	2.014	4.634	9.846	16.63	21.36	24.63	14.72	6.852	1.291	0.145	0.101	0.141	0.084	0.084	0.073	0.054	0.055	0.108	0.062	0.047	0.060	0.073	0.069	0.062	0.059	0.078
255.0	31.70	79.08	257.0	353.5	498.1	1265	5149	7440	1301	29.52	7.933	5.756	4.900	3.607	3.045	2.271	2.296	1.392	1.412	1.106	1.038	1.073	0.880	0.873	0.741	0.764	0.562	0.575	0.477	0.484	0.465	0.370	0.349	0.263	0.276	0.288	0.245	0.211	0.216	0.205	0.193	0.185	0.096	0.130	0.178	0.162	0.230	0.332	0.548	0.837	1.255	1.173	1.318	2.405	3.855	5.522	13.48	30.16	43.24	23.79	9.312	0.976	0.175	0.078	0.104	0.117	0.085	0.080	0.071	0.088	0.095	0.044	0.072	0.051	0.066	0.048	0.033
260.0	21.03	27.89	101.7	352.2	304.0	318.0	1679	8031	7636	230.2	14.98	7.990	5.455	4.504	3.441	2.657	2.300	1.582	1.599	1.357	1.088	1.029	0.707	1.050	0.815	0.691	0.606	0.612	0.569	0.411	0.399	0.501	0.363	0.263	0.333	0.328	0.373	0.216	0.192	0.262	0.153	0.183	0.184	0.113	0.174	0.152	0.195	0.211	0.223	0.414	0.944	1.611	1.459	0.864	1.006	1.377	3.296	9.131	25.39	47.69	51.68	20.76	5.145	0.273	0.153	0.092	0.146	0.099	0.058	0.093	0.056	0.105	0.050	0.062	0.048	0.040	0.046
265.0	16.78	15.74	34.55	185.2	393.9	190.8	407.2	3041	9999.9	7085	174.1	11.24	8.900	5.526	4.205	2.783	2.478	2.073	1.717	1.492	1.354	1.061	0.902	0.960	0.848	0.783	0.570	0.666	0.648	0.457	0.480	0.511	0.466	0.358	0.288	0.298	0.247	0.241	0.178	0.249	0.181	0.135	0.177	0.126	0.187	0.158	0.148	0.124	0.133	0.199	0.350	0.992	1.823	1.636	0.880	0.499	0.962	2.309	6.233	17.25	42.78	64.04	28.64	15.45	1.936	0.271	0.181	0.143	0.133	0.090	0.085	0.141	0.083	0.061	0.043	0.102	0.058
270.0	30.06	26.76	24.26	58.78	218.1	359.7	247.6	730.7	3542	9887	9424	740.2	43.08	8.841	6.038	4.323	3.636	2.487	1.969	1.719	1.470	1.263	1.132	1.148	0.903	0.748	0.689	0.671	0.605	0.514	0.440	0.585	0.496	0.403	0.331	0.325	0.321	0.289	0.247	0.271	0.243	0.188	0.224	0.198	0.228	0.250	0.190	0.191	0.158	0.171	0.201	0.374	0.664	1.089	1.548	1.606	1.177	0.894	1.618	4.099	10.64	22.87	36.63	56.04	49.18	41.29	10.05	1.931	0.208	0.160	0.137	0.124	0.115	0.086	0.085	0.100	0.084
275.0	69.15	47.78	40.45	35.41	63.42	199.4	487.5	326.5	831.4	2516	9629	9999.9	1052	38.60	10.01	6.375	4.909	3.937	2.604	2.232	1.847	1.664	1.148	1.244	0.899	0.844	0.757	0.755	0.614	0.650	0.557	0.576	0.606	0.444	0.487	0.440	0.438	0.368	0.258	0.243	0.347	0.300	0.212	0.297	0.263	0.353	0.293	0.287	0.175	0.201	0.148	0.206	0.310	0.393	0.564	1.104	2.124	2.509	1.448	1.192	2.532	5.370	8.491	13.84	24.42	64.52	91.21	28.82	14.04	1.526	0.194	0.214	0.140	0.108	0.149	0.161	0.175
280.0	115.5	85.10	63.36	32.59	30.18	73.54	361.0	503.7	283.2	611.7	2809	9999.9	9686	743.5	18.74	8.349	6.086	4.594	3.408	2.492	2.455	1.754	1.452	1.354	1.219	1.098	0.974	0.706	0.687	0.645	0.695	0.630	0.529	0.551	0.625	0.514	0.450	0.443	0.341	0.302	0.336	0.277	0.321	0.388	0.319	0.355	0.384	0.339	0.357	0.234	0.172	0.192	0.222	0.243	0.286	0.448	0.952	2.311	2.748	1.699	1.064	1.430	2.138	3.373	5.947	17.76	47.74	88.51	98.29	25.60	7.754	0.529	0.256	0.230	0.138	0.198	0.136
285.0	170.9	149.5	91.49	44.23	30.90	42.05	150.9	550.7	316.1	226.0	715.0	3766	9999.9	7688	107.4	12.09	7.927	5.810	4.213	2.949	2.579	2.055	1.737	1.619	1.384	1.175	0.997	0.820	0.822	0.887	0.611	0.634	0.540	0.692	0.673	0.716	0.598	0.507	0.423	0.378	0.363	0.473	0.367	0.489	0.461	0.456	0.500	0.407	0.413	0.334	0.286	0.223	0.205	0.203	0.272	0.344	0.425	0.992	1.833	3.050	2.526	1.232	0.848	1.109	1.795	4.337	11.63	28.96	73.08	109.8	89.32	19.32	2.600	0.271	0.191	0.171	0.180
290.0	294.3	248.6	169.6	83.15	52.47	57.05	94.01	260.1	553.1	481.2	332.2	1045	3870	9999.9	9999.9	1922	30.29	8.316	5.717	4.109	3.053	2.566	2.284	1.714	1.377	1.179	1.170	0.911	0.877	0.881	0.741	0.714	0.637	0.753	0.935	0.931	0.818	0.800	0.610	0.554	0.505	0.531	0.590	0.647	0.638	0.705	0.672	0.727	0.658	0.443	0.376	0.316	0.303	0.267	0.325	0.352	0.353	0.549	0.808	1.489	2.401	3.217	2.894	1.784	1.393	1.757	3.435	7.351	18.17	36.15	63.25	82.75	67.45	60.57	12.65	3.385	0.323
295.0	424.2	388.4	277.0	133.2	84.34	87.52	105.0	175.1	321.2	773.2	714.2	573.2	1150	2578	9734	9999.9	628.2	31.68	8.679	5.665	4.081	3.218	2.729	1.959	1.757	1.483	1.391	1.203	1.047	0.882	0.722	0.726	0.795	0.922	1.133	1.335	1.113	0.978	0.835	0.761	0.563	0.762	0.715	0.880	0.848	1.100	0.855	0.928	0.825	0.685	0.475	0.517	0.400	0.347	0.485	0.414	0.470	0.628	0.601	0.910	1.200	1.613	2.594	4.444	3.750	2.448	2.121	3.002	5.491	9.394	15.16	20.16	29.38	80.38	119.7	33.46	18.99
300.0	509.1	479.7	350.6	182.6	110.8	109.2	130.5	183.2	265.5	569.9	1092	708.6	619.2	811.1	2679	9999.9	9999.9	483.1	16.51	8.159	5.227	3.896	2.831	2.415	2.221	1.589	1.457	1.185	1.206	1.072	0.836	0.913	0.663	0.961	1.084	1.446	1.356	1.019	1.015	0.877	0.868	0.904	0.813	0.850	1.066	1.133	1.143	1.194	1.087	0.745	0.594	0.611	0.468	0.543	0.526	0.447	0.589	0.695	0.718	0.818	1.018	1.350	1.713	3.208	4.867	4.927	3.129	2.536	2.836	3.599	4.659	5.589	7.396	20.88	54.40	101.1	127.6
305.0	582.7	541.5	400.4	207.3	133.8	132.2	152.2	206.4	282.3	449.1	948.9	1140	625.5	461.9	750.3	3269	9999.9	9999.9	68.24	11.34	7.099	5.060	3.402	3.104	2.451	1.875	1.629	1.411	1.131	1.109	0.983	0.961	0.878	1.190	1.322	1.444	1.454	1.308	1.043	1.113	0.855	0.875	0.898	0.913	1.001	1.158	1.167	1.163	1.168	0.825	0.655	0.673	0.544	0.608	0.553	0.522	0.756	0.722	0.792	0.843	1.137	1.387	1.524	2.151	2.909	4.845	6.068	4.408	3.003	2.566	2.556	2.527	2.665	5.408	13.01	30.23	78.85
310.0	615.3	569.3	428.5	243.9	155.2	149.5	175.6	232.2	310.4	432.0	674.9	1050	1020	519.5	359.8	832.3	3265	9999.9	9410	1587	23.91	7.126	4.968	3.605	2.792	2.269	1.825	1.604	1.327	1.342	1.086	1.062	1.073	1.228	1.355	1.445	1.497	1.397	1.120	1.131	0.933	0.999	0.995	1.042	1.136	1.351	1.241	1.354	1.227	0.948	0.724	0.755	0.646	0.688	0.623	0.596	0.749	0.838	0.917	1.086	1.242	1.420	1.521	2.009	2.488	3.049	4.139	4.812	5.280	4.510	3.024	2.113	1.846	2.195	3.625	7.359	18.72
315.0	596.6	587.3	425.7	250.9	174.8	159.5	191.5	247.8	323.8	439.9	597.4	760.7	961.6	893.3	360.1	309.5	797.2	2350	7158	9999.9	458.1	26.22	7.170	4.898	3.744	2.818	2.120	1.984	1.519	1.342	1.253	1.234	1.069	1.211	1.316	1.447	1.597	1.356	1.124	1.023	0.959	1.197	1.053	1.184	1.229	1.375	1.246	1.410	1.214	0.989	0.749	0.875	0.712	0.740	0.706	0.674	0.893	0.863	0.847	1.262	1.179	1.638	1.719	2.033	2.249	2.540	3.064	3.394	3.883	5.180	5.379	3.813	2.093	1.509	1.616	2.324	4.746
320.0	632.7	612.2	449.7	257.3	183.0	175.4	205.4	259.8	334.0	446.3	579.6	675.6	738.0	928.6	589.0	222.9	262.6	577.3	1847	9444	9999.9	393.8	15.08	6.227	4.819	3.194	2.435	2.170	1.793	1.528	1.347	1.405	0.936	1.121	1.275	1.375	1.353	1.209	1.110	1.130	1.084	1.111	1.123	1.198	1.355	1.386	1.265	1.325	1.413	0.920	0.817	0.871	0.847	0.726	0.645	0.738	0.833	0.901	0.994	1.133	1.204	1.571	1.893	1.926	2.406	2.608	2.626	2.871	3.048	3.590	4.437	5.009	4.125	2.305	1.479	1.281	1.751
325.0	643.7	651.1	464.4	277.2	190.2	184.3	211.8	268.1	337.5	451.3	574.9	653.9	657.8	694.9	781.4	335.0	160.5	194.9	457.9	2683	9999.9	9999.9	53.96	9.696	6.096	3.945	3.290	2.663	2.201	1.741	1.470	1.353	1.034	1.259	1.380	1.328	1.403	1.343	1.129	1.158	1.016	1.006	1.109	1.130	1.322	1.454	1.355	1.497	1.515	1.094	0.940	0.889	0.820	0.758	0.769	0.782	0.858	0.987	0.970	1.303	1.341	1.511	1.845	2.139	2.233	2.481	2.593	2.812	2.776	2.934	3.312	3.634	4.832	4.361	2.385	1.473	1.112
330.0	639.4	656.6	513.1	337.0	247.4	226.6	239.7	286.8	359.3	456.8	567.7	630.2	629.8	566.8	592.0	563.0	289.4	139.1	162.5	647.6	2831	8563	7374	1408	20.66	6.084	4.488	3.215	2.446	1.989	1.594	1.584	1.244	1.156	1.396	1.351	1.524	1.271	1.175	1.256	1.145	1.115	1.164	1.165	1.249	1.435	1.502	1.504	1.507	1.307	1.024	1.143	0.945	0.929	0.940	0.871	0.960	0.950	1.114	1.281	1.365	1.620	1.906	1.990	2.298	2.457	2.517	2.729	2.706	2.785	2.805	2.825	3.180	3.481	3.729	3.242	2.315
335.0	671.5	677.2	557.6	391.2	309.0	279.2	269.2	310.9	367.5	460.8	558.4	616.0	623.4	546.4	471.4	445.4	520.3	251.6	125.9	209.7	678.9	1988	5154	9999.9	2198	24.40	6.485	4.339	3.093	2.362	1.875	1.860	1.556	1.382	1.396	1.235	1.484	1.295	1.256	1.231	1.046	1.054	1.097	1.188	1.252	1.524	1.658	1.615	1.603	1.387	1.285	1.250	1.181	1.070	1.159	1.098	1.154	1.069	1.220	1.483	1.584	1.640	1.874	2.075	2.236	2.517	2.479	2.726	2.831	3.007	2.710	2.578	2.622	2.536	2.486	2.940	3.509
340.0	642.8	666.7	595.9	435.7	338.1	310.9	294.2	326.4	381.8	457.1	548.2	608.9	613.6	546.9	457.6	371.0	460.3	433.6	171.2	128.5	211.0	490.3	1328	7568	9999.9	345.1	14.70	5.529	3.769	2.879	2.147	2.182	1.608	1.397	1.462	1.234	1.658	1.206	1.138	1.201	1.040	1.041	1.219	1.186	1.273	1.465	1.770	1.725	1.619	1.493	1.362	1.414	1.200	1.183	1.196	1.174	1.194	1.356	1.403	1.540	1.681	1.639	1.855	2.149	2.249	2.517	2.501	2.655	2.814	2.834	2.724	2.743	2.528	2.306	2.149	2.130	2.404
345.0	654.4	663.0	603.5	448.6	372.1	343.9	323.4	344.7	391.6	453.7	536.1	592.0	606.6	540.1	458.5	361.9	347.3	476.6	319.4	138.0	124.9	169.7	343.9	2104	9273	8621	275.8	7.778	4.839	3.741	2.578	2.252	1.766	1.466	1.523	1.308	1.435	1.221	1.278	1.162	1.174	1.078	1.219	1.184	1.232	1.599	1.646	1.678	1.623	1.525	1.343	1.354	1.307	1.341	1.210	1.264	1.386	1.206	1.454	1.395	1.746	1.684	1.780	2.300	1.971	2.466	2.398	2.550	2.810	2.711	2.734	2.657	2.545	2.354	2.093	2.001	2.336
350.0	641.5	681.1	609.1	484.9	422.1	375.0	352.1	364.3	395.8	452.5	528.5	572.7	587.8	544.3	470.2	381.5	329.1	351.8	415.2	292.5	153.1	126.6	146.0	520.4	2532	6868	7713	1260	18.44	5.366	3.381	2.728	1.909	1.753	1.572	1.447	1.381	1.265	1.152	1.095	1.181	1.182	1.196	1.293	1.491	1.540	1.564	1.739	1.676	1.458	1.356	1.503	1.426	1.427	1.351	1.304	1.338	1.307	1.604	1.416	1.559	1.712	1.817	2.036	2.061	2.128	2.300	2.464	2.627	2.659	2.647	2.626	2.621	2.582	2.303	2.227	2.240
355.0	655.5	685.6	608.9	503.1	441.8	413.5	386.8	383.2	411.1	456.6	518.0	564.9	572.6	544.2	480.6	410.4	353.2	326.5	332.0	417.8	293.2	159.0	131.8	189.8	614.1	1601	4410	9348	1995	22.46	5.034	3.855	2.237	2.176	1.783	1.669	1.538	1.417	1.139	1.187	1.164	1.227	1.300	1.109	1.398	1.580	1.425	1.739	1.744	1.517	1.468	1.720	1.554	1.496	1.464	1.349	1.486	1.489	1.537	1.864	1.611	1.820	1.820	1.911	1.954	2.233	2.131	2.409	2.466	2.642	2.412	2.579	2.472	2.420	2.476	2.465	2.349
360.0	627.1	679.3	604.4	532.1	470.4	442.6	413.8	409.4	428.6	460.6	509.1	556.6	558.3	543.8	497.4	426.7	380.3	341.6	317.4	367.7	417.5	237.7	152.7	136.0	204.4	404.3	1129	6218	8971	325.1	13.00	4.862	2.970	2.493	1.885	1.783	1.470	1.411	1.308	1.188	1.140	1.090	1.316	1.276	1.399	1.577	1.429	1.643	1.670	1.466	1.344	1.603	1.641	1.625	1.671	1.649	1.798	1.690	1.628	1.861	1.639	1.783	1.779	2.135	2.182	2.106	2.310	2.240	2.358	2.592	2.599	2.668	2.595	2.664	2.534	2.510	2.453
365.0	640.8	665.7	620.7	534.5	480.1	464.1	431.9	425.0	446.2	473.0	512.6	549.4	556.6	540.9	503.7	440.8	401.3	369.1	334.8	326.1	410.5	363.3	198.7	145.5	130.3	151.8	295.5	1723	7809	7424	259.1	7.456	4.096	2.835	2.370	1.921	1.695	1.418	1.468	1.221	1.267	1.083	1.192	1.325	1.397	1.501	1.532	1.802	1.574	1.420	1.463	1.612	1.626	1.689	1.727	1.628	1.779	1.683	1.726	1.882	1.837	1.890	1.926	2.054	2.045	2.153	2.397	2.333	2.467	2.459	2.526	2.663	2.584	2.448	2.379	2.464	2.417
370.0	659.9	666.1	612.7	554.5	519.9	491.8	463.7	460.3	459.0	482.6	518.0	547.3	549.0	538.3	508.8	462.4	428.3	398.5	371.3	347.7	353.0	394.7	332.9	196.5	141.5	117.6	125.4	428.6	2140	6008	5326	1186	15.99	4.029	2.839	2.217	1.905	1.690	1.549	1.429	1.412	1.235	1.293	1.396	1.524	1.449	1.539	1.726	1.638	1.484	1.533	1.648	1.678	1.818	1.802	1.735	1.937	1.990	1.803	1.868	1.968	1.893	2.009	1.999	2.157	2.145	2.247	2.322	2.492	2.460	2.487	2.511	2.634	2.575	2.664	2.443	2.660
375.0	661.9	676.0	615.6	564.4	546.8	522.4	488.2	478.3	472.4	487.2	519.4	540.7	546.8	533.0	511.0	474.1	445.0	421.8	402.8	377.3	355.1	345.4	386.6	321.0	184.3	133.0	107.3	154.0	518.3	1399	3567	9860	1715	18.27	3.686	2.884	2.144	1.884	1.659	1.258	1.548	1.487	1.324	1.435	1.486	1.620	1.458	1.850	1.637	1.535	1.537	1.861	1.820	1.967	1.831	1.743	1.945	1.964	2.098	2.081	1.853	1.950	1.969	1.995	2.061	2.206	1.977	2.277	2.556	2.597	2.400	2.506	2.486	2.398	2.519	2.617	2.657
380.0	630.6	669.5	608.4	583.9	545.7	543.1	516.4	493.4	488.3	493.8	525.4	534.5	544.4	529.8	513.8	478.4	457.0	441.9	421.6	394.8	368.7	343.3	347.6	384.9	255.1	156.0	118.3	103.8	166.3	348.0	924.6	6721	7152	274.1	8.525	3.794	2.616	2.248	1.692	1.502	1.539	1.409	1.299	1.373	1.444	1.582	1.544	1.749	1.694	1.530	1.641	1.831	1.893	1.927	1.847	1.822	1.880	1.842	2.092	2.052	1.902	2.197	2.165	2.088	2.097	2.207	2.054	2.282	2.452	2.510	2.324	2.654	2.385	2.549	2.599	2.586	2.612
385.0	620.3	672.2	634.1	579.7	565.1	552.3	526.5	516.0	498.4	502.8	525.6	532.5	534.8	526.5	514.9	478.6	466.2	453.0	432.7	409.1	381.6	352.2	326.9	356.9	333.4	195.5	135.3	104.5	98.23	121.5	237.8	1896	6234	5458	35.41	5.209	3.043	2.729	1.942	1.593	1.560	1.373	1.486	1.485	1.494	1.598	1.577	1.739	1.665	1.561	1.466	1.912	1.830	1.992	1.919	1.865	1.860	1.943	2.007	2.103	1.962	2.106	2.142	2.236	2.254	2.335	2.185	2.235	2.347	2.452	2.439	2.659	2.599	2.508	2.421	2.631	2.674
390.0	617.1	673.4	635.2	592.5	568.8	560.8	537.5	523.9	512.8	519.5	526.7	530.2	527.4	519.6	504.8	477.0	462.6	453.2	440.0	418.2	395.6	365.3	334.4	316.7	330.2	287.9	183.1	127.7	101.3	87.74	95.34	454.5	1710	4437	3872	870.3	12.67	3.296	2.403	1.929	1.786	1.460	1.577	1.424	1.529	1.622	1.666	1.749	1.663	1.566	1.623	1.881	1.864	2.022	2.093	1.954	2.060	2.070	2.107	2.105	2.013	2.250	2.122	2.333	2.209	2.243	2.277	2.309	2.304	2.346	2.303	2.562	2.413	2.698	2.635	2.722	2.862
395.0	621.9	679.7	639.3	609.5	571.3	575.4	556.4	545.9	529.4	528.1	530.4	528.6	528.6	517.5	495.1	475.0	462.9	450.6	445.5	425.1	405.5	378.1	347.4	315.8	292.8	304.9	268.8	166.6	122.1	97.94	78.98	142.5	408.3	1033	2621	5643	1338	14.50	3.360	2.301	1.980	1.630	1.712	1.522	1.541	1.614	1.639	1.721	1.698	1.569	1.615	1.853	1.958	2.130	2.078	2.081	2.119	2.039	2.139	2.230	2.234	2.139	2.273	2.233	2.168	2.131	2.232	2.348	2.304	2.414	2.314	2.530	2.374	2.641	2.601	2.606	2.794
400.0	644.9	661.3	634.2	604.7	579.4	577.1	560.7	555.7	531.9	537.1	539.3	540.3	529.5	510.0	489.7	468.1	454.6	446.9	443.3	424.8	406.7	382.7	353.6	324.1	288.9	276.1	299.0	223.3	144.1	113.1	86.28	80.43	124.7	254.7	682.7	3811	5084	232.8	7.036	2.916	2.289	2.058	1.680	1.628	1.567	1.664	1.669	1.859	1.637	1.491	1.433	1.939	1.837	2.025	2.057	2.001	2.078	2.267	2.223	2.205	2.236	2.103	2.182	2.308	2.288	2.218	2.139	2.397	2.408	2.505	2.354	2.325	2.677	2.362	2.430	2.736	3.065
405.0	613.7	669.0	637.5	599.8	583.7	579.0	565.6	551.8	543.1	541.4	540.9	541.5	525.9	507.6	479.1	462.1	443.3	440.3	433.4	421.1	406.1	385.1	360.4	328.4	292.7	263.7	276.9	276.2	182.4	128.0	97.68	77.53	69.47	85.94	173.5	1067	4355	3893	31.51	4.138	2.631	2.518	1.830	1.477	1.584	1.735	1.477	1.757	1.731	1.475	1.440	1.899	1.970	1.989	1.888	2.113	2.205	2.226	2.312	2.188	2.208	2.198	2.162	2.275	2.323	2.247	1.954	2.247	2.405	2.469	2.554	2.470	2.579	2.511	2.483	2.632	2.575
410.0	629.8	658.4	627.8	601.5	588.3	574.1	569.6	557.4	550.6	544.6	543.1	534.3	516.7	495.6	468.6	445.4	433.5	429.2	421.2	410.9	398.0	379.7	360.3	335.4	304.1	269.6	254.5	265.1	246.1	170.3	118.7	91.27	68.67	57.10	65.09	257.2	1193	3157	2923	768.5	11.42	2.923	2.133	1.743	1.695	1.791	1.537	1.682	1.694	1.512	1.562	1.954	1.915	2.050	1.936	2.061	2.153	2.222	2.254	2.171	2.149	2.318	2.255	2.220	2.276	2.297	2.146	2.182	2.349	2.280	2.385	2.460	2.494	2.398	2.444	2.528	2.724
