Sample:	'1
File name:	t2025040812’≈’‘«≈.FD3
Run date:	'11:27:23, 04/09/2025
Operator:	Administrator
Comment:	'

Instrument
Model:	F-2700 FL Spectrophotometer
Serial number:	23B8-004
ROM Version:	4J14000 07

Instrument parameters
Measurement type:	3-D scan
Data mode:	Fluorescence
EX  Start WL:	220.0 nm
EX  End WL:	600.0 nm
EX Sampling interval:	5.0 nm
EM  Start WL:	230.0 nm
EM  End WL:	650.0 nm
EM Sampling interval:	5.0 nm
Scan speed:	12000 nm/min
EX Slit:	5.0 nm
EM Slit:	5.0 nm
PMT Voltage:	700 V
Response:	Auto 
Corrected spectra:	Off
Contour interval:	50.000

Peak integration
Integration method:	Rectangular
Sensitivity:	1
Threshold:	1.000

Peaks
No.	ApexEX/EM(nm)	Height(Data)
1	225.0/560.0	61.54
2	225.0/580.0	62.53
3	225.0/595.0	61.83
4	225.0/615.0	76.00
5	230.0/340.0	2756
6	230.0/575.0	61.69
7	230.0/585.0	60.86
8	235.0/510.0	255.7
9	240.0/525.0	229.2
10	245.0/535.0	190.1
11	250.0/550.0	155.6
12	255.0/280.0	564.3
13	255.0/560.0	131.3
14	260.0/290.0	575.8
15	260.0/575.0	113.2
16	265.0/585.0	105.6
17	275.0/615.0	141.0
18	280.0/315.0	2312
19	280.0/625.0	128.5
20	320.0/365.0	440.5
21	330.0/375.0	392.2
22	335.0/380.0	387.8
23	345.0/395.0	335.2
24	350.0/400.0	351.7
25	455.0/540.0	11.65
26	475.0/340.0	8.451
27	510.0/280.0	3.604
28	515.0/285.0	4.083
29	570.0/315.0	12.38
30	575.0/320.0	12.19

Data points
	220.0	225.0	230.0	235.0	240.0	245.0	250.0	255.0	260.0	265.0	270.0	275.0	280.0	285.0	290.0	295.0	300.0	305.0	310.0	315.0	320.0	325.0	330.0	335.0	340.0	345.0	350.0	355.0	360.0	365.0	370.0	375.0	380.0	385.0	390.0	395.0	400.0	405.0	410.0	415.0	420.0	425.0	430.0	435.0	440.0	445.0	450.0	455.0	460.0	465.0	470.0	475.0	480.0	485.0	490.0	495.0	500.0	505.0	510.0	515.0	520.0	525.0	530.0	535.0	540.0	545.0	550.0	555.0	560.0	565.0	570.0	575.0	580.0	585.0	590.0	595.0	600.0
230.0	45.62	1136	3887	1612	74.97	9.473	8.670	6.823	6.056	5.775	5.432	5.393	4.718	4.794	4.249	3.159	3.071	2.956	2.504	2.383	2.036	1.809	1.852	1.533	1.475	1.453	1.280	1.212	1.193	1.214	1.213	0.972	1.051	0.949	0.919	0.840	0.715	0.709	0.679	0.614	0.577	0.625	0.626	0.628	0.556	0.539	1.327	6.305	13.32	11.68	4.769	1.076	0.450	0.395	0.423	0.392	0.397	0.358	0.348	0.408	0.357	0.350	0.363	0.334	0.335	0.305	0.316	0.319	0.288	0.329	0.304	0.294	0.298	0.277	0.257	0.282	0.277
235.0	88.39	316.8	2597	5329	2292	103.4	11.92	7.436	8.291	6.322	6.035	5.904	4.971	4.511	4.513	3.633	3.221	2.622	2.580	2.302	2.177	1.722	1.866	1.657	1.479	1.417	1.233	1.198	1.243	1.250	1.187	1.038	0.989	1.001	0.853	0.731	0.820	0.702	0.721	0.631	0.560	0.644	0.661	0.728	0.637	0.485	0.739	1.900	5.235	11.31	18.07	19.10	9.110	1.942	0.470	0.412	0.391	0.333	0.379	0.373	0.382	0.317	0.353	0.332	0.442	0.361	0.302	0.304	0.353	0.331	0.290	0.264	0.293	0.289	0.243	0.289	0.328
240.0	106.7	138.2	806.2	4719	7158	490.6	57.19	9.834	9.203	8.391	6.593	5.723	5.614	5.182	4.574	3.895	3.344	3.258	2.581	2.402	2.173	2.047	1.818	1.741	1.517	1.490	1.397	1.383	1.401	1.427	1.427	1.096	1.032	0.891	0.931	0.797	0.822	0.727	0.650	0.672	0.614	0.646	0.626	0.600	0.686	0.722	0.698	0.829	1.579	3.554	10.27	26.28	27.41	20.09	7.297	1.126	0.445	0.383	0.432	0.397	0.354	0.372	0.385	0.317	0.399	0.404	0.328	0.348	0.360	0.300	0.332	0.273	0.328	0.357	0.290	0.291	0.283
245.0	98.42	179.7	242.8	1632	7856	6721	387.7	23.06	12.55	10.15	7.521	6.972	6.158	5.814	4.634	4.204	3.141	3.291	2.994	2.416	2.062	2.513	1.999	1.762	1.615	1.513	1.543	1.598	1.348	1.446	1.380	1.070	1.014	1.022	0.928	0.875	0.790	0.655	0.740	0.727	0.616	0.596	0.579	0.604	0.678	0.865	0.959	0.800	0.903	1.190	2.749	9.230	22.71	41.54	27.51	18.12	4.414	0.676	0.434	0.364	0.400	0.361	0.436	0.362	0.303	0.323	0.346	0.374	0.377	0.365	0.302	0.298	0.334	0.316	0.330	0.316	0.336
250.0	62.89	146.7	250.8	453.7	2591	7174	9999.9	1374	88.61	14.42	11.00	9.015	8.032	6.567	5.499	4.573	3.794	3.875	3.127	2.525	2.394	2.381	2.162	1.909	1.949	1.670	1.583	1.651	1.461	1.485	1.404	1.214	1.044	1.045	0.997	0.864	0.927	0.712	0.738	0.717	0.684	0.637	0.622	0.621	0.598	0.659	0.736	0.928	1.145	1.114	1.145	2.551	5.783	14.05	23.81	43.32	41.51	43.22	13.73	5.491	0.738	0.443	0.433	0.410	0.404	0.391	0.389	0.402	0.331	0.416	0.362	0.312	0.358	0.316	0.341	0.350	0.330
255.0	45.77	66.80	192.8	351.6	663.5	1870	9325	9999.9	1931	98.51	16.47	13.07	10.73	8.333	6.798	5.100	4.526	4.301	3.099	2.811	2.829	2.095	2.109	2.057	1.965	1.728	1.706	1.778	1.489	1.583	1.329	1.258	1.094	1.034	1.204	0.908	0.859	0.810	0.869	0.779	0.787	0.767	0.684	0.645	0.652	0.625	0.646	0.671	0.762	1.122	1.519	1.679	1.879	3.594	5.781	10.84	18.93	52.47	83.34	80.26	22.20	4.837	0.593	0.484	0.425	0.448	0.414	0.402	0.395	0.395	0.391	0.321	0.338	0.359	0.435	0.394	0.373
260.0	43.31	46.36	91.87	303.6	379.3	478.1	2968	9999.9	9999.9	1478	47.41	19.05	13.13	10.63	8.143	5.938	4.965	4.411	3.799	3.480	2.933	2.526	2.337	2.359	1.915	1.930	1.703	1.542	1.714	1.795	1.576	1.329	1.130	1.211	1.095	0.886	0.944	0.849	0.874	0.828	0.844	0.768	0.701	0.685	0.615	0.617	0.562	0.615	0.566	0.725	1.227	2.027	2.005	1.655	1.755	2.873	4.792	14.98	41.04	90.01	128.2	29.73	17.25	2.646	0.557	0.498	0.466	0.515	0.373	0.378	0.420	0.379	0.416	0.354	0.390	0.363	0.371
265.0	44.80	44.66	46.52	155.0	400.3	281.6	725.7	4175	9999.9	9999.9	215.5	29.68	18.89	13.43	9.962	7.218	5.921	4.832	4.356	3.497	3.247	2.652	2.660	2.536	2.165	2.236	2.076	1.754	1.614	1.724	1.778	1.391	1.185	1.195	0.988	0.879	0.937	0.815	0.836	0.825	0.702	0.822	0.870	0.765	0.643	0.683	0.635	0.590	0.512	0.610	0.690	1.206	2.003	2.418	1.669	1.332	1.698	3.845	10.06	28.43	82.19	110.6	137.8	27.95	10.80	1.170	0.554	0.529	0.450	0.446	0.501	0.440	0.466	0.372	0.430	0.367	0.383
270.0	67.08	54.69	49.02	69.49	201.9	391.5	371.8	1013	4480	9999.9	9999.9	3780	66.02	20.22	14.13	9.743	7.782	6.277	5.201	4.131	3.569	3.172	3.175	2.775	2.356	2.374	2.135	1.848	1.772	1.880	1.835	1.470	1.422	1.343	1.224	1.035	1.027	0.926	0.963	0.891	0.778	0.855	0.896	0.795	0.762	0.764	0.664	0.667	0.602	0.557	0.555	0.772	1.041	1.578	2.129	2.282	2.029	1.790	2.820	6.945	19.89	34.41	77.48	101.2	122.4	99.02	17.73	8.700	1.207	0.559	0.550	0.490	0.470	0.425	0.465	0.457	0.409
275.0	113.0	112.6	101.9	70.03	89.60	205.4	508.7	442.3	1067	2832	9999.9	9999.9	1204	72.57	22.69	14.04	10.55	7.943	5.751	4.998	4.172	3.650	3.540	2.946	2.683	2.546	2.279	2.178	1.823	2.058	1.957	1.773	1.527	1.498	1.364	1.162	1.168	1.048	1.067	0.863	0.890	0.944	0.887	0.963	0.947	0.965	0.846	0.847	0.724	0.646	0.615	0.673	0.721	0.874	0.992	1.458	2.933	3.091	2.357	2.386	4.983	8.268	18.12	23.91	40.04	92.29	170.5	181.2	28.13	11.34	1.115	0.699	0.574	0.626	0.522	0.578	0.461
280.0	161.4	193.3	157.1	104.2	72.11	98.92	353.1	564.3	384.1	731.4	3511	9999.9	9999.9	903.0	44.35	18.81	13.50	10.72	7.192	6.338	5.102	4.280	3.642	3.294	3.047	2.834	2.553	2.466	2.123	2.192	2.258	2.000	1.738	1.634	1.494	1.346	1.352	1.099	1.159	0.961	1.014	0.963	1.055	1.141	1.009	1.098	0.974	0.992	0.928	0.873	0.830	0.758	0.761	0.767	0.704	0.934	1.583	2.576	3.604	3.168	2.394	2.539	4.825	6.130	9.955	23.63	65.65	150.3	203.6	173.9	23.69	5.357	0.832	0.685	0.640	0.603	0.500
285.0	221.9	268.6	237.2	152.6	88.30	79.98	174.6	539.4	354.8	305.3	936.4	5058	9999.9	9999.9	123.2	29.53	18.90	13.93	9.925	7.321	6.183	4.982	4.693	3.559	3.330	3.086	2.751	2.699	2.271	2.147	2.266	2.077	1.657	1.749	1.661	1.404	1.451	1.290	1.007	1.074	0.953	0.958	1.050	1.086	1.161	1.257	1.212	1.301	1.113	1.031	0.938	0.856	0.798	0.807	0.744	0.855	1.055	1.336	2.373	4.083	3.737	2.305	2.007	2.364	3.289	6.223	15.87	39.86	95.39	201.8	229.3	33.21	17.72	2.352	0.828	0.839	0.638
290.0	275.3	382.8	372.8	233.7	130.5	104.4	132.4	285.8	575.8	521.5	458.3	1373	5344	9999.9	9999.9	2527	46.30	20.86	14.04	9.610	7.818	6.026	5.147	4.244	3.841	3.428	3.072	2.782	2.576	2.412	2.334	2.134	2.061	1.919	1.823	1.560	1.567	1.395	1.146	1.181	1.172	1.119	1.006	1.128	1.219	1.406	1.472	1.663	1.490	1.400	1.100	1.127	0.997	0.955	0.866	0.915	1.021	1.062	1.410	2.082	3.039	3.862	3.932	3.101	2.342	2.777	4.999	10.32	23.10	52.96	97.62	124.4	179.5	133.7	98.96	13.07	2.987
295.0	347.4	507.6	517.2	349.4	208.9	160.2	180.3	239.8	394.5	810.8	778.4	673.7	1503	2967	9999.9	9999.9	692.8	52.53	21.12	13.92	10.51	8.017	6.827	5.331	4.564	4.139	3.718	3.076	2.867	3.067	2.565	2.400	2.136	2.197	1.999	1.758	1.804	1.564	1.415	1.284	1.314	1.394	1.258	1.281	1.477	1.655	1.727	1.852	1.878	1.687	1.537	1.442	1.363	1.264	1.165	1.196	1.277	1.206	1.376	1.592	1.904	2.301	3.664	5.270	5.362	3.853	3.354	4.352	6.942	13.72	23.48	29.50	47.57	85.83	202.3	249.3	35.01
300.0	440.9	639.5	654.5	475.6	305.4	250.8	288.1	330.4	467.3	757.7	1244	896.1	870.3	1073	3881	9999.9	9999.9	563.3	35.76	19.12	12.93	9.716	8.020	6.462	5.103	4.915	4.026	3.562	3.174	3.273	2.834	2.632	2.279	2.285	2.125	1.784	1.898	1.692	1.614	1.392	1.488	1.404	1.399	1.424	1.583	1.758	2.050	2.217	2.282	2.132	1.666	1.759	1.624	1.554	1.678	1.509	1.557	1.674	1.789	1.997	2.275	2.493	3.509	4.159	5.766	6.888	6.004	4.439	4.674	6.221	8.116	9.033	12.90	22.00	61.54	150.4	232.3
305.0	533.9	816.9	862.8	627.8	445.1	390.5	446.4	597.6	796.7	1053	1560	1575	1229	1022	1500	5569	9999.9	9999.9	80.73	27.90	17.15	12.96	9.287	8.047	6.353	5.498	4.395	3.911	3.536	3.448	3.251	2.688	2.383	2.403	2.245	2.030	1.988	1.802	1.790	1.587	1.508	1.483	1.631	1.701	1.862	2.213	2.399	2.753	2.864	2.700	2.383	2.294	2.000	2.064	2.025	2.118	2.310	2.716	3.321	3.433	3.533	4.069	5.108	5.527	6.605	8.091	9.065	8.940	7.395	6.744	6.592	6.324	6.622	8.732	16.92	38.70	86.12
310.0	656.2	1016	1129	860.0	629.4	568.1	702.7	863.3	1097	1387	1758	2084	2042	1448	1260	1837	5811	9999.9	9999.9	1876	37.89	18.89	13.38	10.06	7.860	6.729	5.561	4.669	4.085	3.976	3.540	2.824	2.579	2.432	2.479	2.277	2.238	1.980	2.034	1.786	1.735	1.694	1.675	1.817	2.065	2.348	2.795	3.601	3.855	3.295	2.988	2.915	2.749	2.551	2.619	2.763	3.267	3.834	4.496	4.557	4.853	5.578	6.887	7.234	7.708	8.457	9.382	10.71	11.25	10.62	9.342	7.845	7.412	7.652	8.395	12.58	22.84
315.0	787.6	1223	1400	1068	812.6	711.9	879.3	1025	1263	1551	1933	2142	2312	2049	1456	1090	1856	2978	9999.9	9999.9	508.3	41.83	19.73	13.53	10.05	8.210	6.584	5.412	4.824	4.414	3.970	3.201	2.879	2.608	2.592	2.455	2.366	2.086	2.106	1.912	1.822	1.938	1.908	2.054	2.294	2.813	3.476	4.032	4.656	4.012	3.666	3.720	3.462	3.240	3.283	3.516	3.881	4.573	4.996	5.211	5.586	6.281	7.827	8.238	8.468	9.413	9.583	10.31	10.99	12.07	12.38	10.98	9.557	8.245	7.284	7.456	9.074
320.0	869.3	1407	1610	1237	910.0	798.7	973.5	1118	1363	1672	2037	2248	2305	2295	1781	1020	1027	986.0	3433	9999.9	9999.9	446.7	33.36	18.34	12.14	9.664	7.609	6.327	5.292	4.722	4.309	3.572	3.260	2.961	2.692	2.521	2.430	2.224	2.082	2.057	1.842	1.834	2.013	2.113	2.601	3.318	3.983	4.788	5.038	4.670	3.972	4.219	3.834	3.425	3.533	3.920	4.274	5.134	5.354	5.847	6.249	6.703	8.435	8.591	8.712	9.752	10.26	10.63	11.72	11.90	11.88	12.19	12.01	9.933	8.202	6.534	6.262
325.0	951.0	1581	1871	1461	1014	837.0	1012	1145	1370	1668	2044	2258	2289	2189	1986	1114	847.4	559.5	914.7	4624	9999.9	9999.9	346.5	26.02	16.47	12.09	9.034	7.613	5.988	5.234	4.622	3.813	3.469	3.108	2.938	2.349	2.635	2.143	2.198	1.840	2.061	2.031	2.010	2.476	2.833	3.592	4.283	5.379	5.994	5.511	4.253	4.597	4.010	3.661	3.775	4.116	4.275	5.165	5.436	6.093	6.259	6.767	8.364	8.649	9.065	9.591	10.20	10.83	11.50	11.10	11.09	11.45	11.59	11.38	9.692	7.194	6.209
330.0	1051	1847	2308	1938	1302	947.4	1016	1139	1350	1618	1988	2181	2233	2076	1857	1314	901.9	492.1	384.2	1165	4706	9999.9	9999.9	1670	34.81	17.52	12.05	8.868	7.496	6.334	5.378	4.463	3.752	3.431	3.183	2.586	2.685	2.401	2.199	2.068	2.061	2.111	2.339	2.478	2.913	3.804	4.778	6.311	6.805	6.540	5.824	6.056	5.252	4.531	4.304	4.216	4.481	5.297	5.249	5.628	6.292	6.452	8.000	8.346	8.792	9.639	10.02	10.62	11.22	11.37	11.26	10.89	10.64	10.20	9.486	8.480	7.659
335.0	1108	2036	2655	2441	1768	1158	1067	1139	1321	1562	1919	2097	2182	2060	1753	1273	1099	597.3	331.5	430.6	1171	2651	9999.9	9999.9	2677	39.06	17.96	12.33	9.787	7.610	6.705	5.046	4.284	3.804	3.647	3.016	2.964	2.559	2.233	2.153	2.336	2.235	2.306	2.652	3.143	4.325	5.301	6.617	7.495	7.704	7.125	7.846	6.917	6.139	5.253	4.587	4.675	5.156	5.309	5.714	6.082	6.362	8.153	7.953	8.831	9.560	9.708	9.931	11.31	11.09	11.59	10.59	10.35	9.692	8.971	7.890	7.693
340.0	1136	2059	2756	2591	1916	1206	1054	1104	1273	1482	1819	2004	2079	1973	1681	1175	1052	741.6	368.4	290.9	400.3	703.0	3164	9999.9	9999.9	401.2	31.18	16.24	11.41	9.137	7.758	5.534	4.887	4.176	3.627	3.205	2.930	2.523	2.362	2.242	2.234	2.228	2.297	2.597	3.225	4.252	5.202	6.847	7.762	7.959	7.772	8.451	7.614	6.453	5.292	4.600	4.925	4.999	5.433	5.655	5.793	6.193	7.914	7.461	8.437	8.988	9.104	9.584	10.47	10.59	11.16	10.11	9.883	9.321	8.185	7.420	6.726
345.0	1089	1949	2660	2603	1872	1203	1016	1039	1187	1386	1682	1830	1909	1819	1568	1094	896.2	773.2	465.8	275.5	241.9	278.1	809.4	4081	9999.9	9999.9	341.1	23.06	14.30	11.22	8.824	6.227	5.267	4.558	3.848	3.249	3.096	2.587	2.386	2.181	2.149	2.160	2.279	2.740	3.093	3.918	4.887	6.634	7.846	7.770	7.299	8.352	7.294	6.649	5.532	4.376	4.765	4.844	4.927	5.308	5.319	5.625	7.303	7.191	7.478	7.986	8.513	9.094	9.743	9.814	10.23	9.560	9.242	8.730	7.898	7.390	6.476
350.0	1001	1761	2487	2493	1868	1215	970.3	972.7	1087	1251	1494	1624	1693	1626	1420	1018	812.3	653.9	555.7	386.4	244.6	206.6	296.4	1001	4148	9999.9	9999.9	1556	31.79	15.69	11.69	7.779	5.940	4.926	4.317	3.412	3.383	2.649	2.470	2.325	2.160	2.131	2.278	2.458	2.925	3.879	4.652	5.998	7.423	7.209	6.952	8.213	7.564	6.722	5.487	4.498	4.561	4.490	4.956	4.946	4.951	5.320	6.577	6.386	6.735	7.395	7.632	7.859	8.598	8.684	8.942	8.822	8.450	8.090	7.467	6.800	6.146
355.0	898.6	1577	2203	2247	1789	1199	951.8	926.2	1012	1131	1332	1419	1482	1440	1267	958.5	766.4	593.8	495.3	492.7	342.5	221.8	205.4	322.6	992.0	2467	9999.9	9999.9	2769	39.25	16.47	10.49	7.690	5.661	5.146	3.898	3.453	2.916	2.600	2.422	2.293	1.951	2.316	2.514	2.684	3.230	4.281	5.508	6.576	6.595	6.462	7.515	7.328	6.407	5.378	4.645	4.421	4.363	4.658	4.622	4.845	5.155	5.868	5.648	6.034	6.567	6.848	6.866	7.404	7.649	7.902	7.850	7.679	7.445	6.455	6.057	5.816
360.0	823.6	1419	1949	2040	1637	1143	899.4	878.5	957.3	1042	1208	1284	1330	1295	1155	891.6	726.3	570.8	461.8	454.4	437.5	272.6	201.0	185.1	300.8	612.0	2718	9999.9	9999.9	2353	33.97	13.51	9.705	6.930	5.336	4.274	3.851	2.890	2.857	2.552	2.199	2.034	2.277	2.253	2.473	3.200	3.736	4.907	6.142	5.983	5.995	6.967	6.781	6.008	5.013	4.400	4.145	4.139	4.432	4.104	4.475	4.843	5.431	5.456	5.628	5.774	5.960	6.402	6.709	6.909	7.431	7.101	6.976	6.546	6.139	5.689	5.589
365.0	725.1	1284	1734	1849	1532	1088	871.1	850.0	902.0	986.1	1114	1169	1224	1177	1061	837.5	699.4	564.7	461.5	414.7	440.5	368.6	228.5	170.1	161.0	207.2	664.6	3314	9999.9	9999.9	357.9	23.82	12.87	8.922	6.513	4.641	4.228	3.362	2.963	2.508	2.203	2.473	2.031	2.421	2.632	3.139	3.611	4.641	5.376	5.528	5.187	6.675	6.286	5.657	4.946	4.302	4.188	4.087	4.104	4.368	4.153	4.504	5.262	5.348	5.155	5.713	5.405	5.864	6.142	6.272	6.463	6.465	6.434	6.096	5.937	5.605	5.262
370.0	646.8	1121	1520	1653	1424	1051	851.8	823.4	850.3	926.2	1022	1061	1100	1060	961.6	784.1	672.5	565.7	476.8	417.0	392.4	405.1	332.4	213.5	157.8	141.9	224.1	804.4	3428	9999.9	9999.9	5861	30.88	13.41	8.861	5.999	5.109	3.874	3.288	2.851	2.542	2.343	2.247	2.328	2.401	2.939	3.362	4.252	4.758	4.881	4.986	5.890	6.097	5.398	4.838	4.298	4.032	3.983	4.131	4.138	4.283	4.309	4.873	4.790	4.887	5.147	5.360	5.413	5.499	5.900	6.043	5.812	5.828	5.808	5.400	5.048	4.874
375.0	584.3	958.1	1348	1481	1313	1016	825.1	804.4	815.5	885.8	959.5	986.6	1030	979.8	873.7	728.3	640.6	560.9	492.1	435.4	390.9	369.1	392.2	321.5	204.9	162.1	170.6	282.5	840.5	2401	9999.9	9999.9	2564	36.56	12.86	8.220	6.326	4.623	3.769	3.121	2.838	2.518	2.366	2.365	2.420	2.755	3.050	3.915	3.986	4.348	4.627	5.463	5.356	5.245	4.886	4.113	3.846	3.907	3.908	3.806	4.032	4.167	4.748	4.543	4.667	5.071	4.884	4.953	5.433	5.551	5.536	5.199	5.292	5.374	5.096	4.831	4.777
380.0	556.2	837.9	1218	1340	1247	985.1	819.8	785.8	797.3	852.8	915.5	941.3	991.4	926.0	809.3	687.4	620.9	556.4	497.9	446.9	401.3	367.8	370.6	387.8	274.2	195.9	185.9	195.0	286.2	623.1	2674	9999.9	9999.9	2152	28.25	10.99	7.714	5.483	4.298	3.623	2.985	2.511	2.628	2.390	2.464	2.738	2.886	3.467	3.860	4.116	4.228	4.904	5.076	4.955	4.583	4.106	3.975	4.020	3.911	3.627	4.025	3.840	4.436	4.395	4.397	4.880	4.681	4.801	5.142	5.093	5.378	5.060	5.290	4.771	4.496	4.293	4.682
385.0	474.7	783.2	1110	1238	1185	974.6	808.6	768.1	778.2	811.4	880.0	893.6	955.5	878.3	760.7	661.6	603.4	544.9	495.6	455.9	416.0	377.0	356.2	378.6	346.8	237.0	207.9	192.8	177.6	237.1	712.4	2960	9999.9	9999.9	303.9	19.47	9.796	6.437	4.978	3.990	3.069	2.806	2.689	2.769	2.640	2.705	2.901	3.296	3.634	3.868	3.920	4.567	4.936	4.876	4.322	3.904	3.895	3.909	3.804	3.678	3.894	3.781	3.989	4.131	4.596	4.629	4.397	4.558	4.904	4.988	5.295	4.650	4.886	4.797	4.520	4.199	4.497
390.0	453.0	718.2	1009	1133	1093	920.7	785.0	743.9	745.2	768.2	821.0	821.9	865.8	796.1	710.2	623.2	574.9	533.1	490.7	457.3	423.8	389.6	359.7	345.5	347.8	311.0	239.6	199.6	158.8	154.4	262.1	753.4	2988	9999.9	9999.9	4980	25.33	9.131	6.409	5.004	3.717	3.077	2.719	2.944	2.555	2.639	2.918	3.288	3.594	3.531	3.684	4.538	4.365	4.499	4.262	3.756	3.720	3.622	3.641	3.617	3.747	3.726	3.878	4.039	4.406	4.210	4.191	4.123	4.335	4.767	4.768	4.452	4.352	4.411	4.274	4.139	4.192
395.0	440.9	680.2	897.4	1028	1015	892.8	763.0	718.5	716.4	730.0	772.1	765.7	803.0	732.3	664.3	588.7	548.7	521.4	481.8	455.2	428.3	399.8	372.5	348.9	322.6	335.2	314.0	231.7	175.3	154.9	176.8	267.8	721.1	2316	7191	9999.9	2185	29.86	9.346	6.475	4.619	3.785	3.175	2.987	2.733	2.813	2.966	3.054	3.453	3.392	3.572	4.236	4.246	4.453	3.968	3.801	4.005	3.464	3.729	3.736	3.703	3.591	3.586	3.844	4.201	3.868	3.783	3.727	4.127	4.363	4.447	4.323	4.069	4.069	4.100	4.145	3.998
400.0	399.8	618.0	840.1	966.3	964.7	866.1	744.0	713.6	700.7	714.0	745.5	744.0	773.9	705.5	631.8	568.9	531.9	503.4	477.3	452.0	432.2	400.6	383.5	362.5	329.0	320.8	351.7	284.7	202.6	171.1	172.6	172.6	223.7	555.0	1807	8958	9999.9	1877	24.11	8.245	5.803	4.379	3.602	3.047	2.951	2.911	2.971	3.103	3.401	3.252	3.495	4.098	4.053	4.364	3.944	3.713	3.966	3.534	3.571	3.627	3.888	3.530	3.805	3.801	3.843	3.796	3.748	3.607	3.879	4.182	4.198	4.252	4.067	3.886	3.829	3.853	3.705
405.0	407.9	575.8	804.1	909.8	921.8	839.0	741.7	699.3	683.6	705.1	725.8	720.6	748.6	684.0	602.8	550.5	510.3	492.6	466.0	448.4	427.9	406.5	386.4	370.1	334.9	312.9	337.2	331.2	235.3	186.2	182.5	158.4	119.2	166.8	434.4	2423	9999.9	9999.9	1388	16.43	7.180	5.235	4.054	3.517	3.297	3.052	2.958	3.065	3.294	3.231	3.221	3.624	3.830	4.064	3.851	4.091	3.580	3.705	3.591	3.603	3.772	3.705	3.644	3.716	3.840	3.791	3.718	3.557	3.964	4.000	4.187	4.103	3.625	3.804	3.955	3.703	3.636
410.0	369.3	543.5	755.6	855.8	853.8	796.9	711.8	689.1	669.8	677.8	686.7	678.9	687.2	637.0	567.5	514.1	489.1	467.5	444.6	429.6	413.1	397.2	383.4	364.2	336.9	312.9	307.6	312.1	278.7	212.6	180.6	150.3	100.1	85.35	130.8	567.0	2745	8601	9999.9	4102	21.73	7.367	5.180	4.398	3.686	3.273	3.146	3.074	3.173	3.060	3.246	3.648	3.826	3.927	3.656	3.725	3.498	3.624	3.540	3.561	3.563	3.623	3.506	3.592	3.521	3.585	3.526	3.430	3.688	3.828	3.887	3.782	3.661	3.745	3.562	3.530	3.573
415.0	344.4	528.2	674.5	789.8	786.9	751.9	692.9	675.7	650.3	646.8	644.1	633.1	633.7	586.9	534.0	482.7	460.9	439.9	423.0	407.0	390.4	384.2	372.1	356.0	334.4	311.4	294.5	279.1	276.4	254.1	192.0	147.2	100.3	73.58	68.89	155.5	633.3	1967	5401	9999.9	1991	27.09	7.427	5.501	4.572	3.640	3.598	3.267	3.299	2.987	3.134	3.578	3.746	3.530	3.688	3.523	3.677	3.332	3.434	3.544	3.544	3.475	3.362	3.489	3.366	3.351	3.231	3.260	3.194	3.541	3.824	3.401	3.275	3.191	3.390	3.173	3.712
420.0	324.6	499.1	656.9	757.4	762.6	734.0	672.7	662.5	648.5	623.9	628.5	608.1	607.3	558.4	508.6	462.5	437.5	419.4	408.0	390.2	380.5	376.3	364.0	347.6	329.4	309.5	291.6	272.2	259.9	262.4	219.8	153.8	105.2	76.60	59.20	66.99	165.9	457.8	1326	7054	9999.9	1686	20.89	6.968	4.983	4.160	3.835	3.316	3.241	2.995	3.229	3.462	3.743	3.606	3.349	3.408	3.565	3.314	3.213	3.519	3.402	3.440	3.305	3.499	3.340	3.294	3.324	3.197	3.165	3.633	3.506	3.328	3.146	3.073	3.307	3.024	3.299
