Sample:	'1
File name:	y2025051303Ωπ«≈’Ú«≈.FD3
Run date:	'10:27:16, 05/14/2025
Operator:	Administrator
Comment:	'

Instrument
Model:	F-2700 FL Spectrophotometer
Serial number:	23B8-004
ROM Version:	4J14000 07

Instrument parameters
Measurement type:	3-D scan
Data mode:	Fluorescence
EX  Start WL:	220.0 nm
EX  End WL:	600.0 nm
EX Sampling interval:	5.0 nm
EM  Start WL:	230.0 nm
EM  End WL:	650.0 nm
EM Sampling interval:	5.0 nm
Scan speed:	12000 nm/min
EX Slit:	5.0 nm
EM Slit:	5.0 nm
PMT Voltage:	700 V
Response:	Auto 
Corrected spectra:	Off
Contour interval:	50.000

Peak integration
Integration method:	Rectangular
Sensitivity:	1
Threshold:	1.000

Peaks
No.	ApexEX/EM(nm)	Height(Data)
1	225.0/565.0	63.13
2	225.0/575.0	65.21
3	225.0/625.0	79.02
4	225.0/635.0	75.13
5	230.0/340.0	3034
6	230.0/500.0	316.3
7	240.0/265.0	329.4
8	240.0/525.0	237.4
9	245.0/270.0	317.0
10	245.0/535.0	196.3
11	250.0/275.0	420.7
12	250.0/550.0	147.8
13	255.0/280.0	483.5
14	255.0/560.0	122.6
15	260.0/290.0	498.5
16	260.0/575.0	103.6
17	265.0/590.0	90.43
18	275.0/615.0	140.4
19	280.0/315.0	2274
20	280.0/625.0	128.1
21	285.0/640.0	105.2
22	335.0/385.0	380.7
23	350.0/400.0	343.5
24	475.0/340.0	8.793
25	505.0/275.0	2.578
26	510.0/280.0	2.917
27	520.0/285.0	3.361
28	560.0/315.0	10.84
29	575.0/320.0	11.20
30	585.0/325.0	10.89

Data points
	220.0	225.0	230.0	235.0	240.0	245.0	250.0	255.0	260.0	265.0	270.0	275.0	280.0	285.0	290.0	295.0	300.0	305.0	310.0	315.0	320.0	325.0	330.0	335.0	340.0	345.0	350.0	355.0	360.0	365.0	370.0	375.0	380.0	385.0	390.0	395.0	400.0	405.0	410.0	415.0	420.0	425.0	430.0	435.0	440.0	445.0	450.0	455.0	460.0	465.0	470.0	475.0	480.0	485.0	490.0	495.0	500.0	505.0	510.0	515.0	520.0	525.0	530.0	535.0	540.0	545.0	550.0	555.0	560.0	565.0	570.0	575.0	580.0	585.0	590.0	595.0	600.0
230.0	45.69	785.2	2396	827.2	41.97	7.235	5.690	4.658	4.089	4.005	3.765	3.307	3.148	2.511	2.036	1.826	1.590	1.372	1.135	1.115	0.854	0.877	0.934	0.763	0.742	0.701	0.635	0.600	0.588	0.577	0.590	0.520	0.495	0.447	0.481	0.425	0.443	0.370	0.376	0.351	0.443	0.446	0.434	0.404	0.350	0.320	0.772	3.972	7.443	6.025	2.437	0.652	0.298	0.262	0.261	0.249	0.288	0.254	0.263	0.256	0.260	0.248	0.257	0.247	0.267	0.306	0.280	0.258	0.238	0.288	0.250	0.274	0.262	0.284	0.271	0.297	0.275
235.0	95.50	232.6	1382	2613	604.5	69.28	6.399	6.097	4.273	4.231	3.869	3.697	3.199	2.670	2.266	1.986	1.753	1.394	1.218	1.105	1.071	0.871	0.851	0.729	0.705	0.671	0.728	0.618	0.641	0.584	0.625	0.526	0.550	0.442	0.510	0.372	0.425	0.376	0.400	0.391	0.408	0.407	0.342	0.561	0.502	0.344	0.414	1.212	2.733	5.196	8.262	9.029	4.184	1.180	0.286	0.256	0.291	0.260	0.274	0.269	0.282	0.264	0.263	0.221	0.252	0.271	0.282	0.245	0.265	0.260	0.286	0.260	0.270	0.261	0.306	0.258	0.265
240.0	135.8	142.0	404.8	2069	2880	465.5	30.03	7.399	5.184	4.802	4.532	4.205	3.868	3.689	2.305	2.004	1.798	1.488	1.375	1.214	1.042	0.835	0.962	0.902	0.754	0.713	0.639	0.619	0.606	0.560	0.549	0.480	0.525	0.478	0.528	0.430	0.441	0.417	0.411	0.434	0.417	0.365	0.384	0.464	0.607	0.616	0.464	0.542	0.959	1.598	3.986	10.49	13.43	9.476	3.346	0.684	0.323	0.295	0.283	0.309	0.278	0.281	0.264	0.260	0.251	0.252	0.267	0.252	0.260	0.300	0.335	0.263	0.256	0.277	0.264	0.272	0.289
245.0	104.8	184.5	153.8	675.3	2941	2883	344.2	14.39	6.740	5.683	5.069	4.382	3.354	3.586	2.434	2.119	1.784	1.412	1.371	1.066	1.011	0.821	0.960	0.903	0.730	0.742	0.703	0.744	0.546	0.659	0.584	0.487	0.506	0.530	0.507	0.453	0.402	0.479	0.384	0.405	0.427	0.386	0.359	0.453	0.465	0.602	0.699	0.681	0.593	0.599	1.136	3.492	8.628	15.26	15.56	8.776	2.443	0.374	0.314	0.285	0.288	0.263	0.299	0.308	0.296	0.308	0.285	0.241	0.265	0.273	0.274	0.284	0.275	0.310	0.288	0.272	0.239
250.0	50.10	132.6	208.3	240.6	916.0	2719	3489	1158	67.73	7.193	5.588	4.499	3.950	3.328	2.830	2.143	2.041	1.592	1.485	1.270	1.168	0.918	0.983	0.847	0.926	0.724	0.743	0.762	0.597	0.726	0.589	0.513	0.481	0.537	0.487	0.449	0.415	0.443	0.330	0.392	0.410	0.406	0.381	0.402	0.404	0.415	0.499	0.690	0.921	0.785	0.653	1.124	2.258	4.775	9.038	14.19	17.86	15.53	8.796	2.520	0.520	0.271	0.304	0.316	0.323	0.337	0.312	0.283	0.284	0.272	0.311	0.300	0.304	0.299	0.300	0.251	0.262
255.0	33.28	54.74	140.8	291.4	284.4	684.7	2684	5318	1574	60.63	8.436	5.731	5.010	3.752	3.220	2.378	2.325	1.430	1.507	1.355	1.043	1.056	0.949	0.907	0.859	0.802	0.793	0.667	0.628	0.639	0.572	0.670	0.454	0.483	0.505	0.466	0.435	0.457	0.410	0.415	0.448	0.437	0.436	0.436	0.356	0.377	0.425	0.458	0.586	0.816	1.157	1.300	0.978	1.320	2.286	3.582	6.705	15.77	28.29	26.32	12.84	2.709	0.401	0.347	0.348	0.314	0.284	0.338	0.295	0.343	0.299	0.295	0.280	0.255	0.338	0.310	0.331
260.0	37.84	34.42	60.69	248.1	271.8	202.8	810.2	4392	5737	268.2	27.88	7.928	5.743	4.688	3.444	2.925	2.554	1.688	1.559	1.249	1.232	1.009	1.004	1.110	0.800	0.949	0.813	0.810	0.676	0.662	0.618	0.631	0.526	0.573	0.516	0.482	0.478	0.438	0.356	0.421	0.381	0.461	0.407	0.422	0.383	0.415	0.343	0.367	0.390	0.439	0.814	1.488	1.507	1.022	0.866	1.113	1.869	4.463	12.22	26.32	35.65	24.62	9.920	1.491	0.358	0.336	0.275	0.383	0.348	0.390	0.289	0.344	0.267	0.290	0.318	0.309	0.352
265.0	42.36	28.86	32.85	116.2	329.4	213.1	214.0	1493	6222	5496	210.9	12.64	6.980	5.840	4.347	3.195	2.984	2.097	1.615	1.668	1.355	1.375	1.036	1.027	0.940	0.872	0.789	0.799	0.745	0.758	0.692	0.626	0.715	0.590	0.491	0.458	0.425	0.411	0.388	0.444	0.433	0.455	0.399	0.435	0.398	0.401	0.345	0.395	0.314	0.336	0.375	0.801	1.267	1.795	1.133	0.732	0.814	1.361	3.168	7.892	19.25	36.56	32.81	21.71	5.795	0.607	0.302	0.345	0.381	0.401	0.338	0.320	0.298	0.383	0.341	0.295	0.335
270.0	54.08	41.54	34.64	47.33	159.6	317.0	244.9	380.1	2034	5868	6671	804.6	43.43	7.717	5.203	3.991	2.946	2.553	1.976	1.627	1.378	1.253	1.241	1.068	0.936	1.036	0.871	0.915	0.854	0.797	0.780	0.702	0.685	0.663	0.543	0.492	0.434	0.468	0.455	0.479	0.424	0.436	0.444	0.451	0.392	0.402	0.410	0.433	0.343	0.341	0.360	0.473	0.647	1.081	1.500	1.824	1.581	1.068	1.144	2.121	4.829	10.80	18.74	32.03	33.21	33.67	14.82	5.354	0.809	0.362	0.370	0.331	0.336	0.325	0.356	0.359	0.294
275.0	103.0	93.35	78.34	48.46	60.73	154.0	420.7	288.3	500.0	1506	5508	9451	1081	33.70	8.193	5.796	3.807	2.941	2.293	1.914	1.589	1.633	1.355	1.308	1.063	1.046	0.930	0.878	0.920	0.851	0.800	0.687	0.709	0.664	0.629	0.541	0.552	0.551	0.465	0.570	0.411	0.518	0.465	0.536	0.504	0.550	0.560	0.527	0.533	0.361	0.362	0.439	0.439	0.557	0.658	1.169	2.109	2.578	1.807	1.185	1.502	2.773	4.605	7.781	10.92	26.08	48.54	54.22	23.05	5.135	0.580	0.420	0.417	0.348	0.319	0.378	0.328
280.0	158.6	166.4	134.9	80.45	50.79	73.54	289.7	483.5	239.1	399.4	1698	8332	8436	147.2	16.70	7.312	4.800	3.569	2.511	2.115	1.770	1.719	1.198	1.194	1.149	1.144	0.896	1.018	0.879	0.815	0.798	0.882	0.787	0.653	0.717	0.639	0.639	0.659	0.560	0.568	0.438	0.494	0.626	0.506	0.686	0.602	0.679	0.754	0.677	0.562	0.500	0.429	0.449	0.441	0.443	0.664	0.987	1.909	2.917	2.373	1.415	1.163	1.497	2.299	2.994	6.872	18.20	41.14	60.18	32.80	17.08	2.314	0.477	0.395	0.418	0.376	0.423
285.0	218.4	233.0	204.1	123.0	66.03	55.48	133.3	462.1	341.7	203.8	485.4	2806	9924	6334	109.2	10.47	6.156	4.540	3.023	2.548	1.795	1.863	1.373	1.297	1.306	1.218	1.122	1.050	0.845	0.888	0.857	0.882	0.795	0.768	0.796	0.750	0.754	0.787	0.621	0.631	0.596	0.579	0.622	0.571	0.696	0.723	0.852	0.928	0.879	0.745	0.545	0.568	0.475	0.439	0.432	0.565	0.651	0.929	1.796	3.013	3.361	1.859	1.095	1.164	1.278	2.324	4.807	11.07	26.15	48.83	63.17	28.30	11.05	1.033	0.482	0.444	0.393
290.0	293.0	335.9	290.5	180.0	101.5	79.57	104.0	234.9	498.5	465.0	288.3	793.4	3195	7377	6720	428.7	23.92	6.599	4.347	3.263	2.477	2.170	1.873	1.504	1.367	1.278	1.078	1.127	0.925	1.018	0.902	0.880	0.856	0.860	0.812	0.831	0.859	0.846	0.746	0.718	0.612	0.648	0.644	0.748	0.834	0.977	1.065	1.121	1.114	0.859	0.752	0.775	0.617	0.555	0.579	0.556	0.664	0.730	0.976	1.468	2.389	2.946	3.304	2.511	1.606	1.505	2.194	3.369	6.824	13.44	25.63	36.56	47.46	41.23	18.69	8.688	1.319
295.0	369.0	443.4	394.6	262.7	161.1	139.4	154.9	211.6	337.9	699.5	659.5	479.5	944.8	1948	5598	6517	595.6	22.04	6.623	4.518	3.314	2.495	2.082	1.606	1.498	1.272	1.261	1.178	1.068	0.851	0.891	0.962	0.921	0.812	0.779	0.840	1.128	0.848	0.839	0.699	0.686	0.719	0.700	0.905	0.878	1.032	1.188	1.344	1.401	1.007	0.877	0.975	0.864	0.752	0.803	0.833	0.901	0.903	1.082	1.219	1.494	1.913	2.656	4.034	4.467	3.000	2.195	2.241	2.993	4.229	7.027	9.295	13.18	23.09	47.36	62.56	29.49
300.0	447.4	548.6	527.1	367.4	257.8	245.2	278.9	335.3	362.9	704.7	1134	814.3	682.8	775.6	1822	7101	5512	86.66	13.73	5.870	3.849	3.140	2.309	1.946	1.764	1.545	1.335	1.200	1.142	1.155	1.094	0.987	0.825	1.001	0.899	0.886	0.940	1.072	0.873	0.857	0.773	0.818	0.815	0.966	1.066	1.213	1.332	1.626	1.779	1.362	1.245	1.357	1.128	1.061	1.215	1.085	1.396	1.483	1.641	1.798	2.031	2.447	2.713	3.538	4.878	5.909	4.890	3.539	3.275	3.091	3.705	4.008	4.695	7.174	15.75	36.65	61.23
305.0	594.8	768.4	758.5	549.4	419.3	413.8	475.1	657.8	810.4	1102	1555	1619	1208	937.4	1013	2738	8337	4295	68.04	8.996	5.070	3.869	3.020	2.461	2.033	1.824	1.597	1.265	1.412	1.206	1.114	0.901	1.116	1.020	1.013	1.063	1.240	1.197	1.009	0.985	0.916	1.093	1.108	1.184	1.365	1.523	1.773	2.101	2.124	1.911	1.866	1.842	1.650	1.755	1.869	1.828	2.299	2.627	2.606	3.218	3.574	3.685	4.694	5.255	6.149	7.056	8.314	7.941	6.865	5.743	5.089	5.061	4.627	4.974	6.691	11.53	23.94
310.0	736.7	1020	1005	769.6	609.5	614.8	758.1	956.9	1143	1455	1791	2149	2029	1409	1137	1252	3165	6021	5083	291.0	15.99	5.417	3.944	3.058	2.276	1.965	1.856	1.659	1.421	1.336	1.190	1.074	1.007	1.040	0.978	1.112	1.211	1.185	1.195	1.144	1.145	1.153	1.288	1.281	1.598	2.013	2.326	2.943	2.887	2.520	2.446	2.502	2.276	2.278	2.431	2.675	3.198	3.690	4.115	4.585	4.859	5.231	6.184	6.819	7.248	8.145	8.900	10.14	10.69	9.776	8.431	7.082	6.419	6.526	6.232	6.528	8.736
315.0	863.2	1268	1302	1016	796.9	785.7	944.1	1117	1306	1603	1939	2194	2274	1992	1375	1034	1366	1789	4533	6304	421.2	12.54	5.329	4.418	2.907	2.259	2.063	1.804	1.613	1.475	1.299	1.145	1.003	1.093	1.002	1.163	1.225	1.214	1.321	1.273	1.242	1.247	1.275	1.684	2.069	2.483	2.850	3.620	3.566	3.058	2.839	3.243	2.858	2.949	2.960	3.347	3.906	4.478	4.753	5.109	5.424	5.979	6.385	7.711	8.102	8.741	9.308	10.05	10.84	10.32	10.42	10.09	8.295	7.913	6.825	6.367	5.899
320.0	1020	1430	1536	1150	903.6	873.6	1018	1213	1357	1672	2022	2263	2270	2202	1677	1083	1028	784.8	1398	5781	3987	62.65	8.586	4.965	3.668	2.606	2.209	2.182	1.663	1.482	1.322	1.394	1.117	1.132	1.143	1.287	1.182	1.332	1.341	1.236	1.201	1.345	1.328	1.745	2.198	2.787	3.192	4.271	4.162	3.551	3.332	3.678	3.174	3.362	3.543	3.659	4.173	4.805	5.058	5.366	5.832	6.186	6.799	8.096	8.258	8.896	9.279	9.992	10.64	10.15	10.75	11.20	10.48	9.605	7.898	6.469	5.605
325.0	1127	1698	1802	1374	992.1	912.6	1054	1217	1344	1650	1963	2232	2217	2084	1894	1204	966.8	578.9	460.7	1962	6074	3202	49.22	6.588	4.418	3.157	2.491	2.442	1.711	1.613	1.404	1.429	1.134	1.212	1.106	1.223	1.265	1.384	1.373	1.329	1.302	1.476	1.616	1.823	2.292	3.058	3.750	4.863	4.799	4.365	3.771	4.042	3.901	3.624	3.744	3.880	4.497	4.770	5.291	5.341	5.750	6.278	6.941	7.727	8.171	8.685	9.265	10.01	10.62	9.883	10.23	9.956	10.29	10.89	9.448	7.205	5.657
330.0	1300	1990	2342	1943	1361	1032	1062	1196	1287	1549	1858	2126	2133	1955	1752	1394	1023	564.9	305.0	561.8	2013	4473	4007	235.1	13.35	4.474	3.194	2.587	2.134	1.756	1.609	1.536	1.290	1.264	1.137	1.346	1.220	1.276	1.275	1.413	1.396	1.575	1.672	1.977	2.597	3.523	4.282	5.747	6.084	5.749	5.402	5.731	4.975	4.424	3.990	3.914	4.497	4.819	5.176	5.206	5.404	5.857	6.421	7.195	7.900	8.475	8.928	9.497	9.862	10.12	9.877	9.562	9.637	9.586	9.255	8.370	7.062
335.0	1474	2327	2863	2599	1954	1302	1084	1167	1263	1474	1764	2027	2061	1915	1662	1371	1222	686.7	349.9	314.3	574.7	1180	3721	5156	357.0	11.01	4.627	3.074	2.558	2.211	1.852	1.541	1.564	1.353	1.131	1.307	1.436	1.217	1.327	1.467	1.478	1.758	1.679	2.108	2.764	3.762	4.752	6.583	7.179	7.232	7.227	7.920	7.179	6.338	4.771	4.453	4.264	4.850	4.999	5.133	5.339	5.573	5.784	6.638	7.800	8.692	8.484	9.319	9.305	9.935	9.822	9.860	9.508	9.091	8.442	7.652	7.500
340.0	1474	2414	3034	2806	2152	1384	1106	1124	1194	1395	1663	1899	1944	1841	1594	1281	1192	834.2	412.4	288.5	276.7	369.7	1138	4794	3345	53.65	6.638	3.924	2.955	2.259	1.959	1.713	1.513	1.339	1.173	1.307	1.350	1.304	1.475	1.392	1.547	1.662	1.906	2.032	2.868	4.129	4.757	6.839	7.680	7.584	7.734	8.793	7.858	6.706	5.313	4.611	4.451	4.759	4.906	4.841	5.046	5.386	5.638	6.201	7.127	7.951	8.010	8.640	8.830	9.130	9.156	9.210	8.716	8.786	8.095	7.461	7.378
345.0	1419	2281	2992	2852	2134	1383	1053	1052	1110	1292	1526	1720	1800	1699	1475	1180	1031	870.3	506.1	302.0	227.1	206.0	345.7	1602	5000	2796	44.46	5.548	3.653	2.610	1.986	1.902	1.577	1.453	1.216	1.355	1.183	1.329	1.254	1.166	1.319	1.570	1.722	2.063	2.886	4.062	4.909	6.438	7.453	7.508	7.848	8.511	8.022	6.841	5.258	4.432	4.265	4.475	4.401	4.765	4.545	5.005	5.592	5.937	6.544	7.095	7.303	7.762	8.266	8.446	8.399	8.059	7.764	8.128	7.363	6.761	6.600
350.0	1324	2114	2812	2749	2131	1388	1019	989.3	1032	1172	1372	1530	1597	1525	1343	1097	926.5	749.0	612.0	412.4	255.9	197.5	191.8	433.6	1604	3573	3297	212.7	12.94	3.648	2.465	2.112	1.686	1.475	1.311	1.267	1.285	1.299	1.230	1.267	1.341	1.430	1.685	1.920	2.489	3.649	4.289	6.224	7.258	7.168	7.341	8.366	7.774	6.977	5.496	4.487	4.390	4.182	4.367	4.473	4.525	4.590	5.021	5.364	5.808	6.243	6.411	7.037	7.188	7.533	7.719	7.336	7.271	7.344	6.974	6.644	6.185
355.0	1170	1923	2540	2571	2071	1376	1007	945.9	975.2	1066	1228	1362	1416	1369	1233	1031	870.5	683.9	556.9	532.3	350.9	226.9	185.5	193.1	409.3	890.1	2752	4189	345.3	11.97	3.427	2.638	2.047	1.548	1.357	1.328	1.332	1.276	1.237	1.194	1.337	1.369	1.487	1.802	2.345	3.342	3.838	5.627	6.327	6.718	6.847	7.918	7.458	6.815	5.388	4.496	4.375	3.894	3.955	4.192	4.297	4.203	4.437	4.960	5.306	5.679	5.660	5.976	6.196	6.594	6.638	6.921	6.879	6.769	6.983	6.232	5.765
360.0	1067	1725	2231	2337	1935	1297	957.8	902.6	935.2	1017	1134	1242	1283	1243	1139	965.5	825.5	657.5	525.2	505.1	453.6	277.1	198.5	156.5	163.1	245.2	780.9	3580	3123	278.3	6.644	3.556	2.322	1.960	1.632	1.294	1.268	1.242	1.100	1.203	1.298	1.211	1.486	1.762	2.256	3.010	3.560	4.911	5.752	5.906	6.141	7.287	7.040	6.334	5.140	4.332	4.122	4.104	3.715	4.060	3.975	4.020	4.450	4.740	4.902	5.184	5.153	5.373	5.972	5.813	6.143	6.124	6.369	6.203	6.133	5.856	5.499
365.0	981.1	1558	2018	2102	1781	1261	940.7	884.4	904.0	960.9	1061	1150	1180	1148	1058	906.5	793.1	646.9	517.2	465.4	472.7	368.4	232.2	167.1	127.0	116.0	217.4	1125	4018	2757	44.69	5.129	2.918	2.094	1.894	1.345	1.419	1.281	1.146	1.167	1.238	1.163	1.443	1.744	2.035	2.594	3.267	4.574	5.178	5.286	5.549	6.876	6.134	5.966	5.017	4.362	3.984	3.767	3.898	3.968	3.997	3.951	4.271	4.453	4.454	4.956	4.959	5.193	5.156	5.490	5.424	5.855	5.641	6.083	5.760	5.256	5.379
370.0	885.5	1348	1782	1879	1630	1211	922.2	868.4	872.1	922.5	998.8	1055	1076	1050	964.7	854.8	756.8	643.2	532.6	458.6	425.7	422.9	334.2	211.3	147.5	113.4	111.3	295.8	1233	3046	3092	765.4	14.37	3.271	2.239	1.599	1.484	1.367	1.175	1.229	1.171	1.245	1.376	1.631	1.892	2.401	2.831	4.118	4.464	4.647	4.829	6.104	5.783	5.393	4.724	4.115	3.712	3.970	3.793	3.780	3.909	4.012	4.041	4.228	4.443	4.625	4.577	4.803	4.970	5.277	5.356	5.180	5.352	5.493	5.072	4.993	5.008
375.0	782.9	1201	1528	1628	1480	1155	894.0	852.5	858.1	895.8	936.8	979.4	994.2	970.2	888.8	796.0	722.0	635.1	548.4	476.8	426.0	390.2	404.8	307.7	190.8	145.4	118.9	139.6	323.0	756.0	2288	3908	324.9	14.93	3.040	2.052	1.596	1.417	1.245	1.230	1.137	1.135	1.226	1.382	1.688	2.067	2.586	3.574	4.152	4.160	4.232	5.360	5.640	5.032	4.249	3.870	4.015	4.173	3.696	3.752	3.794	3.840	3.920	4.132	4.317	4.093	4.376	4.769	4.418	4.729	4.931	4.981	4.959	5.079	4.660	4.501	4.764
380.0	743.0	1050	1370	1496	1394	1085	888.7	849.5	841.6	880.5	903.2	932.7	947.1	916.5	837.4	757.9	697.5	620.9	548.2	489.6	429.3	384.5	381.6	376.8	252.0	175.2	143.7	127.0	140.5	221.2	650.1	2960	2742	260.9	7.116	2.719	1.934	1.478	1.325	1.267	1.190	1.219	1.354	1.385	1.625	2.226	2.272	3.295	3.590	3.715	3.714	4.892	5.042	4.947	4.342	3.759	4.196	4.115	3.909	3.582	3.897	3.698	3.817	4.212	4.198	4.220	4.167	4.357	4.064	4.620	4.708	4.745	4.463	4.645	4.513	4.484	4.736
385.0	672.6	992.3	1279	1364	1330	1040	882.3	833.7	819.7	853.0	870.8	893.2	910.2	873.2	800.2	732.1	672.4	608.8	546.2	492.6	439.9	395.8	365.5	380.7	327.4	215.9	169.6	141.0	115.8	114.0	202.7	893.6	3034	2401	39.22	4.399	2.500	1.887	1.521	1.308	1.194	1.191	1.314	1.474	1.669	2.150	2.133	2.940	3.410	3.603	3.559	4.646	4.681	4.631	4.206	3.682	3.837	3.705	3.633	3.609	3.495	3.727	3.782	3.892	3.994	3.909	3.760	3.930	3.903	4.545	4.407	4.538	4.358	4.530	4.135	4.597	4.431
390.0	617.8	881.5	1156	1236	1221	993.7	862.7	824.3	802.1	816.6	842.9	847.3	850.6	812.3	752.9	697.5	643.4	595.3	540.0	496.3	454.0	413.0	374.5	351.7	349.0	298.6	211.4	166.7	129.8	106.8	111.8	251.4	873.5	2175	2333	684.5	13.48	2.629	1.870	1.455	1.323	1.228	1.256	1.385	1.603	2.037	2.131	2.799	3.104	3.119	3.398	4.216	4.383	4.418	3.915	3.562	3.922	3.457	3.451	3.442	3.501	3.741	3.738	3.761	3.842	3.823	3.887	3.813	3.870	4.118	4.268	4.220	4.038	4.509	4.286	4.342	4.150
395.0	602.7	830.6	1039	1127	1116	957.5	854.5	797.3	794.2	794.9	808.3	808.0	807.4	777.6	717.8	663.0	618.9	581.7	535.1	495.9	457.5	428.2	389.8	359.8	332.2	334.3	297.1	212.5	163.5	128.6	113.7	123.0	233.6	524.8	1410	2853	282.7	15.84	2.676	1.808	1.537	1.469	1.413	1.386	1.626	1.882	2.011	2.698	2.757	2.828	3.104	3.738	3.914	4.069	3.856	3.728	3.748	3.573	3.382	3.411	3.489	3.506	3.652	3.445	3.742	3.683	3.745	3.739	3.745	3.929	4.063	3.888	3.941	4.121	4.062	3.993	3.995
400.0	574.0	790.7	972.2	1073	1074	932.7	835.0	797.8	785.7	785.4	802.1	804.5	785.8	755.8	700.5	642.7	597.6	567.9	531.8	493.7	461.2	437.0	405.8	372.2	341.7	328.5	343.5	268.2	194.4	155.8	135.0	108.9	103.1	148.8	373.2	1830	2302	244.1	8.622	2.329	1.676	1.463	1.346	1.286	1.525	1.875	1.809	2.546	2.677	2.742	2.810	3.565	3.847	3.890	3.558	3.528	3.640	3.564	3.361	3.388	3.654	3.677	3.580	3.675	3.707	3.459	3.645	3.763	3.732	3.762	3.949	3.666	3.905	3.966	3.815	3.750	4.123
405.0	548.8	722.2	951.3	1024	1026	892.6	825.6	792.4	776.9	773.5	796.1	789.4	777.7	739.6	681.4	625.0	580.0	555.8	519.4	489.8	462.3	438.2	415.7	384.2	355.8	329.9	339.7	325.5	233.5	180.9	154.9	119.2	86.22	72.93	110.7	502.8	1974	2068	188.6	4.120	2.167	1.606	1.464	1.399	1.428	1.801	1.844	2.387	2.532	2.626	2.629	3.606	3.668	3.579	3.642	3.337	3.494	3.474	3.404	3.430	3.358	3.368	3.292	3.530	3.554	3.651	3.485	3.761	3.617	3.656	3.930	3.720	3.532	4.072	3.760	3.666	3.706
410.0	500.6	716.1	883.9	941.7	944.7	868.1	808.0	779.8	760.6	765.9	767.0	760.4	748.1	708.0	650.5	597.5	555.0	527.6	499.1	476.4	454.5	434.5	417.0	391.4	367.4	339.4	322.2	323.7	293.0	220.8	173.2	133.6	94.07	68.01	60.83	136.9	536.1	1509	1840	607.2	13.13	2.074	1.653	1.517	1.416	1.761	1.843	2.262	2.440	2.454	2.614	3.304	3.353	3.459	3.325	3.321	3.312	3.426	3.450	3.366	3.484	3.361	3.389	3.367	3.516	3.546	3.325	3.451	3.439	3.493	3.475	3.546	3.607	3.608	3.493	3.554	3.667
415.0	474.0	683.1	816.9	862.6	873.9	828.6	791.1	762.4	748.7	752.7	742.5	730.8	710.9	670.5	611.2	568.7	527.3	500.2	474.1	453.0	431.4	418.4	408.8	391.8	368.0	345.2	321.2	305.1	299.6	271.9	194.3	146.3	105.8	76.38	57.42	61.39	141.2	356.2	924.0	2078	264.5	16.21	2.259	1.753	1.580	1.739	1.813	2.156	2.244	2.241	2.417	2.991	3.203	3.167	3.249	3.121	3.326	3.325	3.198	3.258	3.269	3.133	3.395	3.097	3.400	3.389	3.381	3.260	3.137	3.365	3.400	3.303	3.282	3.586	3.386	3.355	3.462
420.0	451.8	630.3	786.8	829.6	829.2	797.8	778.6	749.1	733.7	725.6	725.5	702.6	680.2	639.9	590.0	537.8	497.7	479.3	450.9	436.7	420.9	405.5	395.5	382.3	361.5	342.1	319.5	298.0	281.9	285.5	228.9	159.7	113.2	84.74	61.49	49.11	56.05	96.20	233.4	1193	1913	234.7	9.333	2.107	1.751	1.703	1.827	2.013	2.179	2.160	2.288	3.145	3.069	3.133	3.122	3.106	3.293	3.313	3.256	3.404	3.260	3.278	3.193	3.160	3.278	3.126	3.288	3.054	3.017	3.125	3.308	3.103	3.079	3.213	3.124	3.383	3.260
