Sample:	'1
File name:	g05006胜豪化工气浮机后池.FD3
Run date:	'10:00:18, 08/02/2024
Operator:	horiz
Comment:	'

Instrument
Model:	F-2700 FL Spectrophotometer
Serial number:	23B8-004
ROM Version:	4J14000 07

Instrument parameters
Measurement type:	3-D scan
Data mode:	Fluorescence
EX  Start WL:	220.0 nm
EX  End WL:	600.0 nm
EX Sampling interval:	5.0 nm
EM  Start WL:	230.0 nm
EM  End WL:	650.0 nm
EM Sampling interval:	5.0 nm
Scan speed:	12000 nm/min
EX Slit:	5.0 nm
EM Slit:	5.0 nm
PMT Voltage:	700 V
Response:	Auto 
Corrected spectra:	Off
Contour interval:	50.000

Peak integration
Integration method:	Rectangular
Sensitivity:	1
Threshold:	1.000

Peaks
No.	ApexEX/EM(nm)	Height(Data)
1	225.0/305.0	1289
2	225.0/325.0	1322
3	225.0/490.0	340.4
4	225.0/610.0	82.33
5	230.0/335.0	1307
6	230.0/500.0	329.6
7	235.0/255.0	356.7
8	235.0/510.0	287.0
9	240.0/260.0	386.8
10	240.0/385.0	860.7
11	240.0/520.0	239.8
12	245.0/270.0	402.1
13	245.0/535.0	207.1
14	250.0/275.0	483.0
15	250.0/550.0	169.6
16	255.0/280.0	637.5
17	255.0/560.0	147.7
18	260.0/575.0	127.2
19	265.0/390.0	748.1
20	265.0/585.0	146.1
21	270.0/300.0	2054
22	270.0/380.0	755.7
23	270.0/600.0	160.5
24	275.0/305.0	2406
25	275.0/375.0	754.0
26	275.0/610.0	158.0
27	280.0/625.0	117.8
28	305.0/345.0	529.7
29	310.0/350.0	465.9
30	315.0/355.0	468.8
31	320.0/365.0	488.7
32	325.0/370.0	478.4
33	330.0/375.0	466.4
34	335.0/380.0	454.4
35	350.0/400.0	355.4
36	365.0/420.0	272.8
37	415.0/485.0	59.86
38	430.0/505.0	36.80
39	445.0/525.0	21.72
40	455.0/330.0	3.975
41	455.0/540.0	14.06
42	485.0/265.0	2.144
43	495.0/270.0	2.202
44	505.0/275.0	3.390
45	510.0/280.0	3.407
46	520.0/285.0	4.224
47	530.0/290.0	4.745
48	540.0/295.0	8.028
49	545.0/300.0	9.591
50	550.0/305.0	11.03
51	560.0/310.0	10.04

Wavelength data
No.	EX/EM(nm)	Height(Data)	

Data points
	220.0	225.0	230.0	235.0	240.0	245.0	250.0	255.0	260.0	265.0	270.0	275.0	280.0	285.0	290.0	295.0	300.0	305.0	310.0	315.0	320.0	325.0	330.0	335.0	340.0	345.0	350.0	355.0	360.0	365.0	370.0	375.0	380.0	385.0	390.0	395.0	400.0	405.0	410.0	415.0	420.0	425.0	430.0	435.0	440.0	445.0	450.0	455.0	460.0	465.0	470.0	475.0	480.0	485.0	490.0	495.0	500.0	505.0	510.0	515.0	520.0	525.0	530.0	535.0	540.0	545.0	550.0	555.0	560.0	565.0	570.0	575.0	580.0	585.0	590.0	595.0	600.0
230.0	58.43	410.8	1982	1162	82.41	4.940	3.692	3.074	2.863	2.798	2.403	2.293	1.820	1.604	1.362	1.157	0.990	0.825	0.870	0.819	0.678	0.642	0.544	0.502	0.486	0.455	0.438	0.377	0.374	0.360	0.375	0.352	0.371	0.276	0.296	0.297	0.297	0.267	0.241	0.215	0.270	0.466	0.573	0.393	0.261	0.232	0.397	2.705	6.656	6.923	3.624	0.928	0.221	0.166	0.158	0.198	0.171	0.190	0.174	0.166	0.155	0.197	0.162	0.155	0.166	0.169	0.161	0.142	0.155	0.188	0.164	0.159	0.166	0.146	0.158	0.149	0.176
235.0	162.1	146.0	831.4	1990	634.7	117.2	4.869	3.207	3.038	3.180	2.182	2.699	2.204	1.863	1.293	0.977	0.913	0.966	0.840	0.775	0.628	0.643	0.494	0.546	0.537	0.435	0.388	0.367	0.358	0.483	0.356	0.379	0.335	0.316	0.284	0.305	0.267	0.262	0.276	0.204	0.287	0.317	0.454	0.482	0.557	0.359	0.282	0.810	2.150	3.972	6.452	8.654	5.042	1.544	0.236	0.229	0.185	0.133	0.181	0.202	0.143	0.216	0.162	0.169	0.154	0.184	0.169	0.193	0.177	0.149	0.186	0.129	0.201	0.216	0.171	0.173	0.154
240.0	204.0	173.0	236.0	1111	2188	525.3	59.73	5.506	3.915	3.537	3.258	2.635	2.348	1.861	1.100	1.106	0.834	1.049	0.808	0.699	0.569	0.790	0.649	0.593	0.406	0.433	0.501	0.344	0.433	0.464	0.403	0.420	0.287	0.309	0.308	0.306	0.267	0.285	0.223	0.274	0.248	0.214	0.322	0.366	0.566	0.777	0.571	0.509	0.638	1.096	2.536	6.955	10.72	10.05	4.557	0.946	0.181	0.166	0.177	0.161	0.150	0.155	0.167	0.155	0.138	0.184	0.191	0.169	0.172	0.223	0.168	0.186	0.171	0.186	0.173	0.167	0.173
245.0	104.3	262.8	172.8	319.0	1619	2407	402.5	23.97	4.108	4.446	3.517	2.932	2.513	1.740	1.585	1.169	1.131	1.142	0.758	0.874	0.685	0.722	0.650	0.642	0.402	0.431	0.422	0.377	0.397	0.477	0.388	0.358	0.244	0.304	0.279	0.193	0.275	0.297	0.225	0.272	0.244	0.283	0.199	0.324	0.322	0.620	0.840	0.960	0.526	0.484	0.748	2.025	5.445	11.14	13.86	9.731	3.385	0.535	0.185	0.150	0.208	0.222	0.184	0.157	0.140	0.167	0.202	0.186	0.202	0.158	0.170	0.170	0.198	0.175	0.170	0.182	0.181
250.0	42.92	142.5	268.6	217.7	457.9	1548	2506	1276	100.6	6.030	4.144	3.592	2.854	2.039	1.745	1.172	1.291	1.101	0.921	0.882	0.817	0.676	0.692	0.577	0.491	0.462	0.462	0.399	0.451	0.422	0.405	0.408	0.360	0.308	0.337	0.249	0.284	0.281	0.279	0.302	0.294	0.303	0.245	0.301	0.234	0.362	0.462	0.800	0.984	1.005	0.752	0.773	1.473	3.153	6.261	10.34	13.46	13.63	9.071	3.127	0.461	0.196	0.194	0.184	0.177	0.175	0.149	0.172	0.169	0.206	0.201	0.171	0.157	0.189	0.156	0.186	0.192
255.0	28.73	44.56	147.2	356.7	250.6	378.4	1267	3615	1813	111.8	5.926	4.252	3.685	2.423	1.620	1.506	1.253	1.291	1.063	1.032	0.786	0.774	0.851	0.730	0.548	0.519	0.516	0.447	0.440	0.470	0.437	0.349	0.389	0.418	0.285	0.291	0.271	0.283	0.288	0.304	0.285	0.220	0.219	0.262	0.212	0.235	0.250	0.364	0.478	0.804	1.296	1.563	1.028	0.980	1.616	2.596	4.172	9.403	19.76	23.01	13.87	3.809	0.377	0.194	0.190	0.188	0.172	0.173	0.173	0.187	0.171	0.180	0.182	0.170	0.149	0.197	0.191
260.0	22.51	20.97	54.35	257.0	386.8	177.2	345.9	2160	4417	1365	53.57	5.428	4.303	2.654	1.890	1.957	1.351	1.175	1.223	0.833	0.792	0.720	0.813	0.716	0.650	0.559	0.615	0.421	0.474	0.484	0.411	0.494	0.324	0.328	0.333	0.291	0.247	0.256	0.228	0.271	0.271	0.214	0.236	0.246	0.242	0.255	0.240	0.222	0.288	0.336	0.748	1.692	2.023	1.187	0.725	0.804	1.192	2.515	7.254	17.35	27.85	24.86	10.69	1.741	0.254	0.230	0.220	0.152	0.178	0.183	0.191	0.196	0.164	0.163	0.213	0.195	0.187
265.0	23.74	21.25	22.60	98.17	379.5	333.2	126.1	621.4	3373	4674	242.1	18.15	5.842	3.430	2.492	2.081	1.746	1.374	1.289	1.046	0.766	0.792	0.755	0.758	0.627	0.603	0.612	0.431	0.560	0.499	0.418	0.462	0.281	0.327	0.294	0.339	0.330	0.287	0.223	0.294	0.240	0.206	0.235	0.292	0.255	0.297	0.283	0.240	0.212	0.212	0.335	0.751	1.626	2.144	1.858	0.723	0.483	0.774	1.915	4.760	12.81	25.96	32.13	21.91	6.246	0.735	0.259	0.190	0.184	0.209	0.189	0.223	0.171	0.182	0.178	0.164	0.183
270.0	28.68	26.00	17.95	34.70	151.7	402.1	323.8	206.1	954.8	3323	4791	870.6	58.46	5.467	3.499	2.916	2.016	1.753	1.298	1.095	0.934	0.877	0.847	0.759	0.676	0.582	0.633	0.557	0.572	0.500	0.433	0.473	0.399	0.390	0.371	0.364	0.327	0.346	0.303	0.312	0.291	0.228	0.288	0.288	0.291	0.299	0.275	0.232	0.230	0.215	0.191	0.348	0.608	1.136	1.827	2.202	1.955	1.037	0.824	1.344	3.196	7.119	14.15	23.35	27.16	27.59	14.41	5.123	0.695	0.270	0.230	0.223	0.212	0.204	0.203	0.225	0.215
275.0	81.18	60.60	41.37	30.02	50.28	152.5	483.0	353.3	272.2	816.3	2667	6677	1203	54.86	6.175	3.632	2.548	2.000	1.614	1.223	1.277	0.936	0.945	0.843	0.722	0.652	0.729	0.619	0.587	0.555	0.424	0.449	0.425	0.487	0.527	0.412	0.421	0.447	0.370	0.342	0.325	0.344	0.357	0.434	0.360	0.337	0.340	0.318	0.253	0.263	0.210	0.237	0.349	0.441	0.597	1.002	2.180	3.390	2.416	1.141	1.069	2.013	3.513	5.646	7.900	16.82	35.41	33.02	21.82	5.281	0.481	0.313	0.293	0.233	0.227	0.220	0.246
280.0	143.0	121.9	87.59	51.17	38.62	62.40	267.4	637.5	273.7	265.3	773.9	4466	6617	820.6	24.25	4.671	3.418	2.219	1.820	1.735	1.418	0.940	1.023	0.766	0.792	0.715	0.569	0.634	0.588	0.633	0.497	0.555	0.461	0.463	0.550	0.474	0.490	0.475	0.441	0.437	0.417	0.395	0.510	0.498	0.508	0.529	0.425	0.509	0.419	0.372	0.253	0.305	0.322	0.362	0.304	0.445	0.947	2.077	3.407	3.297	1.630	1.011	1.248	1.807	2.359	4.591	12.31	27.60	45.00	31.35	16.10	2.686	0.418	0.320	0.213	0.255	0.242
285.0	238.5	260.0	190.4	96.76	57.70	52.69	121.4	519.4	650.0	263.9	365.5	1442	6006	5548	123.8	10.42	4.231	2.685	2.295	2.035	1.375	1.256	1.255	0.897	0.745	0.760	0.715	0.845	0.638	0.645	0.560	0.527	0.503	0.518	0.697	0.649	0.721	0.661	0.565	0.609	0.561	0.554	0.674	0.640	0.749	0.813	0.758	0.784	0.701	0.548	0.374	0.346	0.445	0.327	0.451	0.393	0.536	0.921	1.772	3.622	4.224	2.495	1.334	1.316	1.519	2.116	3.950	7.825	18.24	36.36	49.55	27.80	9.772	1.180	0.341	0.242	0.291
290.0	531.9	563.4	423.4	229.5	121.5	97.32	125.4	304.9	739.7	924.8	711.9	913.3	2115	4830	5077	451.1	27.91	4.332	2.877	2.279	2.029	1.571	1.454	1.073	1.055	0.778	0.803	0.757	0.687	0.648	0.594	0.627	0.493	0.655	0.881	0.894	1.151	1.021	0.791	0.784	0.904	0.762	0.977	1.006	1.165	1.472	1.449	1.456	1.385	1.039	0.768	0.684	0.670	0.551	0.577	0.567	0.681	0.720	1.194	1.941	3.125	4.314	4.745	4.037	3.210	3.035	3.417	4.400	6.705	11.29	19.78	28.36	29.87	34.60	18.35	8.181	1.286
295.0	808.4	877.0	710.0	400.2	205.1	167.8	199.8	318.0	605.3	1227	1605	1266	1323	1544	3170	6152	635.0	23.86	4.479	3.114	2.466	1.750	1.603	1.245	1.035	0.968	0.905	0.783	0.689	0.790	0.689	0.593	0.651	0.685	1.152	1.349	1.555	1.349	1.041	1.061	1.173	1.128	1.338	1.551	1.756	2.185	2.147	2.343	2.037	1.721	1.186	1.061	0.934	0.755	0.766	0.862	0.874	0.996	1.313	1.810	2.345	3.183	4.325	6.851	8.028	6.324	5.522	5.227	5.637	6.631	7.271	8.380	8.579	16.74	35.10	52.46	28.61
300.0	981.8	1103	895.4	503.6	276.9	232.3	266.5	387.6	639.9	1137	2054	1773	1353	890.6	969.4	4426	5262	451.4	11.03	4.137	2.984	2.550	1.755	1.623	1.288	1.062	0.974	1.023	0.734	0.770	0.637	0.664	0.732	0.792	1.217	1.571	1.832	1.551	1.387	1.261	1.222	1.381	1.627	1.822	2.225	2.332	2.693	2.909	2.497	1.947	1.560	1.480	1.116	0.992	1.116	1.079	1.113	1.392	1.655	2.090	2.460	3.397	4.090	5.723	8.001	9.591	8.964	6.824	6.405	6.228	5.184	4.004	3.293	4.618	10.41	26.35	45.79
305.0	1079	1289	1027	593.7	324.9	276.1	314.6	456.2	716.7	1151	1901	2406	1582	835.2	431.5	1307	5309	4132	71.13	6.442	3.428	2.623	2.050	1.745	1.323	1.233	1.062	0.996	0.847	0.789	0.712	0.698	0.723	0.893	1.285	1.722	1.853	1.593	1.498	1.328	1.349	1.629	1.702	2.042	2.417	2.827	2.920	3.348	2.949	2.304	1.723	1.729	1.348	1.202	1.285	1.300	1.428	1.724	1.984	2.323	2.718	3.750	4.452	5.545	6.947	9.029	11.03	10.56	8.308	6.801	5.035	3.661	2.424	2.176	3.221	6.813	15.34
310.0	1107	1257	1052	622.3	382.2	323.3	373.0	506.5	759.5	1154	1683	2191	2058	996.1	359.2	404.4	1536	3910	3953	296.4	16.75	3.794	2.852	2.014	1.636	1.482	1.166	1.079	1.011	0.835	0.773	0.791	0.768	0.935	1.375	1.757	1.882	1.739	1.428	1.399	1.397	1.540	1.892	2.116	2.413	2.888	3.053	3.436	2.986	2.416	1.827	1.817	1.534	1.417	1.458	1.365	1.691	1.866	2.151	2.465	3.056	3.710	4.477	5.612	6.591	7.486	8.595	9.507	10.04	9.574	6.594	4.178	2.579	1.786	1.599	2.332	4.022
315.0	1046	1214	1033	623.5	414.1	359.8	386.0	510.2	739.9	1088	1524	1796	1827	1355	462.3	233.8	429.1	959.9	2715	4382	435.3	14.08	3.678	2.544	2.043	1.641	1.249	1.007	1.100	1.007	0.852	0.803	0.704	0.939	1.294	1.629	1.644	1.646	1.469	1.324	1.319	1.488	1.855	2.032	2.303	2.759	2.959	3.309	2.906	2.515	1.831	1.930	1.665	1.596	1.538	1.653	1.851	1.918	2.160	2.414	2.902	3.499	4.545	5.401	5.993	6.733	7.543	7.645	7.706	8.259	8.214	6.595	3.683	2.139	1.494	1.491	1.701
320.0	1002	1240	1079	658.4	417.9	371.8	410.6	500.9	709.0	1022	1413	1614	1522	1341	750.2	254.9	206.6	286.4	746.5	3555	3792	64.88	6.998	3.239	2.515	1.769	1.608	1.364	1.165	1.194	0.910	0.847	0.808	0.819	1.287	1.770	1.689	1.511	1.362	1.343	1.346	1.421	1.754	2.038	2.128	2.840	2.952	3.285	3.321	2.637	1.968	1.875	1.627	1.586	1.511	1.543	1.742	2.007	2.242	2.521	2.664	3.356	4.194	5.074	5.902	6.389	6.974	6.721	6.718	6.642	6.154	6.349	5.706	3.839	2.050	1.461	1.477
325.0	1046	1322	1202	741.5	460.0	386.4	423.3	504.0	678.2	959.2	1307	1486	1381	1083	947.8	421.1	193.6	156.8	227.7	1078	4152	2992	52.41	5.112	3.447	2.370	1.870	1.536	1.213	1.134	0.930	0.948	0.919	0.873	1.140	1.472	1.556	1.275	1.301	1.266	1.187	1.290	1.612	2.061	2.237	2.957	3.124	3.670	3.613	2.911	2.331	2.077	1.968	1.609	1.539	1.640	1.707	1.948	2.257	2.384	2.906	3.109	3.951	4.645	5.178	5.663	6.372	6.576	6.255	6.087	5.299	4.621	4.946	5.113	3.588	2.509	1.762
330.0	986.2	1303	1283	838.2	526.1	410.6	418.8	487.9	628.3	861.8	1146	1309	1228	916.9	734.4	659.7	350.5	165.3	133.5	299.0	1238	3037	3351	238.3	14.44	3.298	2.379	1.643	1.353	1.258	1.195	0.957	0.902	0.912	1.073	1.308	1.377	1.391	1.097	1.092	1.194	1.367	1.483	1.882	2.234	2.665	3.263	3.975	3.774	3.221	2.510	2.311	2.078	1.769	1.691	1.656	1.810	2.035	2.203	2.321	2.617	3.171	3.587	4.243	4.688	5.215	5.397	5.727	5.488	5.372	4.719	4.045	3.523	3.529	4.051	3.902	3.415
335.0	935.0	1281	1307	893.5	576.8	436.3	413.1	469.6	583.2	773.7	1007	1149	1089	839.5	603.6	532.7	588.8	294.0	141.7	146.0	333.6	750.3	2468	3542	369.7	13.41	3.367	2.575	1.846	1.476	1.229	0.997	1.074	0.839	1.103	1.150	1.399	1.144	1.115	1.095	1.173	1.232	1.517	1.814	2.333	2.938	3.079	3.917	3.858	3.276	2.703	2.677	2.021	2.021	1.917	1.691	2.011	1.940	2.168	2.243	2.560	2.793	3.330	3.822	4.112	4.690	4.831	4.736	4.830	4.614	4.313	3.550	3.194	2.867	2.824	2.704	3.595
340.0	872.6	1254	1303	945.6	611.8	471.8	428.3	460.4	548.6	721.6	912.3	1032	1000	803.8	578.0	451.7	530.2	484.3	197.8	132.7	152.3	223.0	689.7	3013	3188	292.8	6.999	3.107	2.230	1.678	1.391	1.116	1.092	0.909	1.075	1.046	1.230	1.213	0.940	1.083	1.119	1.221	1.429	1.607	2.267	2.806	3.111	3.905	3.792	3.184	2.747	2.767	2.457	2.251	1.941	1.770	1.839	1.964	2.262	2.182	2.492	2.665	2.896	3.473	3.754	4.181	4.358	4.445	4.514	4.405	4.095	3.682	2.827	2.793	2.641	2.514	2.751
345.0	850.3	1162	1226	942.4	648.9	501.7	452.9	462.7	528.9	667.5	838.0	941.3	929.3	758.2	568.0	443.9	411.4	529.7	350.2	163.6	133.7	126.7	208.7	930.5	3520	2682	47.41	4.361	2.818	2.069	1.553	1.352	1.092	0.965	0.956	1.088	1.194	1.111	0.940	1.095	1.200	1.037	1.316	1.576	1.992	2.546	2.823	3.592	3.748	3.323	2.551	2.795	2.640	2.250	2.060	1.941	1.882	2.066	2.214	2.130	2.491	2.534	2.872	3.383	3.396	3.789	4.007	4.128	4.227	4.145	3.852	3.659	3.092	2.829	2.695	2.554	2.246
350.0	738.7	1010	1125	905.3	683.0	555.3	504.5	491.2	542.2	636.0	763.1	853.4	838.1	719.4	573.8	460.7	395.0	408.5	465.9	326.6	184.2	144.5	134.1	273.1	1064	2575	2634	218.0	14.31	2.844	2.023	1.598	1.254	1.132	1.079	1.054	1.023	1.019	0.852	0.924	1.047	1.067	1.279	1.472	1.812	2.240	2.593	3.273	3.325	2.972	2.676	2.807	2.782	2.182	2.272	2.246	2.127	2.259	2.198	2.176	2.356	2.572	2.849	2.944	3.307	3.434	3.589	3.685	3.684	3.751	3.401	3.340	3.140	2.853	2.774	2.716	2.413
355.0	657.7	906.0	1037	887.8	739.0	623.6	576.2	558.4	577.6	634.4	725.5	787.3	780.4	697.7	584.8	492.6	426.3	389.5	395.3	468.8	330.5	202.1	157.2	158.0	303.7	643.8	1854	3167	357.6	15.27	2.815	2.021	1.409	1.150	1.077	1.124	1.077	1.058	0.880	0.852	0.894	1.037	1.305	1.420	1.674	1.915	2.235	3.102	3.045	2.897	2.435	2.907	2.769	2.657	2.466	2.359	2.474	2.364	2.453	2.513	2.421	2.660	2.950	3.028	3.125	3.258	3.320	3.456	3.659	3.495	3.453	3.353	3.166	3.024	2.882	2.972	2.960
360.0	620.4	871.5	965.9	891.0	751.6	670.8	627.4	597.5	611.2	653.9	718.9	763.5	761.7	690.0	601.0	520.0	460.3	413.7	387.0	437.2	475.3	288.9	196.8	156.6	155.6	202.9	518.8	2463	2974	298.8	7.351	2.628	1.655	1.540	0.992	1.109	1.060	0.903	0.977	0.984	0.848	0.975	1.151	1.233	1.628	1.932	2.239	2.667	2.867	2.793	2.460	2.861	2.843	2.682	2.883	2.663	2.651	2.653	2.525	2.604	2.662	2.905	3.082	3.042	3.166	3.382	3.226	3.432	3.426	3.617	3.346	3.274	3.293	3.288	2.810	3.098	2.936
365.0	615.2	828.3	912.9	867.2	767.6	727.8	678.5	637.1	636.5	672.4	723.7	752.1	744.7	686.0	609.3	544.3	493.2	445.8	413.2	404.9	488.7	422.1	249.0	185.0	145.5	122.0	167.6	738.3	2979	2625	47.47	4.562	2.290	1.613	1.322	1.058	1.151	1.022	0.856	0.997	0.785	1.044	1.144	1.228	1.638	1.887	2.114	2.563	2.960	2.656	2.479	2.972	2.664	3.016	3.026	2.600	2.975	2.632	2.901	2.769	2.755	2.787	3.034	2.986	3.141	3.013	3.078	3.243	3.308	3.517	3.297	3.096	3.148	3.275	3.011	3.097	2.947
370.0	597.4	759.5	877.2	862.9	814.0	767.7	725.0	684.1	679.9	704.7	742.3	752.8	734.5	686.7	620.9	568.5	525.4	487.2	454.6	427.5	436.1	478.4	391.4	249.8	177.0	133.4	111.2	216.3	872.5	2292	2527	728.0	14.91	2.485	1.698	1.267	1.325	1.072	0.968	1.015	0.943	1.091	1.154	1.279	1.488	1.968	1.966	2.408	2.646	2.611	2.513	2.914	3.006	3.073	3.094	2.999	3.139	2.859	2.752	2.818	2.887	3.088	3.070	3.148	3.212	3.121	3.303	3.154	3.302	3.410	3.271	3.169	3.359	3.236	3.222	3.166	3.053
375.0	566.2	733.4	833.5	863.9	823.9	812.4	760.8	729.6	708.2	727.3	748.2	754.0	731.8	684.3	632.1	584.4	552.6	523.2	494.9	464.7	444.9	431.9	466.4	378.2	230.0	170.1	128.2	121.8	242.3	561.3	1579	3019	332.7	16.92	2.612	1.774	1.552	1.252	1.130	1.098	1.137	1.142	1.278	1.289	1.469	1.771	1.983	2.335	2.513	2.450	2.409	2.922	3.183	3.102	3.122	3.229	3.124	3.212	3.097	3.275	3.187	3.208	3.305	3.300	3.338	3.289	3.290	3.261	3.305	3.265	3.439	3.222	3.209	3.376	3.231	3.365	3.383
380.0	554.1	742.4	819.5	841.4	848.8	841.2	784.3	736.8	728.9	740.5	755.7	748.6	723.1	680.6	634.2	587.5	556.5	541.2	514.6	487.2	457.0	430.0	435.8	454.4	305.6	201.9	152.6	118.6	118.1	169.8	427.7	2080	2648	275.4	8.509	2.280	1.706	1.334	1.185	1.106	1.242	1.163	1.144	1.314	1.511	1.770	1.963	2.224	2.457	2.485	2.580	2.985	3.277	3.439	3.155	3.142	3.209	3.292	3.299	3.278	3.088	3.284	3.187	3.479	3.545	3.320	3.368	3.265	3.347	3.371	3.327	3.283	3.279	3.256	3.166	3.265	3.534
385.0	572.8	716.8	822.5	841.7	860.7	855.4	797.4	752.5	738.9	742.4	755.3	741.1	715.2	668.3	632.8	591.4	565.3	549.1	523.5	495.2	468.9	437.4	412.2	438.4	393.5	243.1	175.6	132.8	104.9	94.18	134.3	593.3	2300	2272	41.48	4.574	1.966	1.648	1.293	1.136	1.063	1.222	1.278	1.316	1.578	1.626	1.928	2.328	2.492	2.428	2.533	3.074	3.232	3.564	3.357	3.220	3.334	3.319	3.216	3.246	3.246	3.390	3.277	3.442	3.498	3.225	3.300	3.275	3.186	3.185	3.189	3.381	3.171	3.183	3.469	3.419	3.505
390.0	566.7	707.6	779.2	828.0	846.9	854.1	807.2	761.1	738.2	748.1	739.5	727.4	702.4	659.2	623.9	586.9	564.5	546.1	528.9	505.4	482.0	446.0	414.7	392.2	399.4	341.9	227.4	162.2	124.9	97.16	83.48	169.7	639.9	1681	1922	643.2	14.69	2.408	1.671	1.375	1.215	1.360	1.413	1.382	1.590	1.812	2.029	2.259	2.368	2.330	2.454	3.042	3.156	3.347	3.327	3.292	3.427	3.266	3.377	3.316	3.247	3.336	3.241	3.322	3.402	3.192	3.154	3.170	3.137	3.230	3.240	3.169	3.297	3.073	3.255	3.410	3.468
395.0	580.6	691.5	791.9	836.8	837.9	843.2	810.5	757.8	738.0	735.1	724.7	716.2	687.6	647.2	609.2	577.7	558.3	543.1	523.7	511.5	483.0	454.0	425.2	390.1	360.9	363.4	319.6	208.6	155.0	118.3	92.40	87.86	176.9	405.0	1010	2271	289.7	19.27	2.368	1.687	1.449	1.418	1.467	1.338	1.530	1.888	1.948	2.246	2.241	2.394	2.399	2.708	3.134	3.329	3.276	3.132	3.391	3.250	3.434	3.410	3.382	3.289	3.203	3.381	2.941	3.187	3.218	3.293	3.254	3.198	3.143	2.835	3.170	3.054	3.176	3.384	3.499
400.0	541.4	657.3	785.5	805.8	820.8	836.5	800.6	761.7	741.4	717.3	715.0	704.9	672.2	639.5	598.3	558.5	547.3	535.6	517.5	504.5	478.4	451.4	424.8	393.3	351.8	336.1	355.4	268.2	181.4	140.6	106.7	81.26	81.80	119.5	264.1	1297	2048	263.0	11.49	2.238	1.606	1.654	1.429	1.589	1.593	1.693	1.814	2.149	2.291	2.240	2.343	2.874	3.049	2.984	3.135	2.987	3.244	3.379	3.488	3.166	3.339	3.420	3.365	3.183	2.953	3.091	2.840	3.264	3.029	2.900	3.016	2.980	3.172	3.129	3.130	3.215	3.301
405.0	538.2	669.7	751.6	791.0	823.7	815.6	801.7	769.4	729.1	705.4	700.3	677.4	651.2	629.6	586.1	549.2	531.4	523.4	510.5	495.7	470.1	449.8	427.3	392.0	354.2	323.9	329.6	320.5	219.7	160.6	121.9	90.66	70.36	61.08	83.52	344.3	1453	1832	210.2	5.913	2.056	1.571	1.519	1.606	1.600	1.775	1.826	2.073	2.220	2.256	2.165	2.854	3.090	3.163	2.863	3.058	3.337	3.237	3.348	3.240	3.448	3.300	3.168	3.062	3.234	3.136	2.918	3.088	2.971	2.929	3.108	2.925	3.107	3.101	2.774	2.993	3.314
410.0	534.9	647.4	720.1	764.7	783.6	786.1	783.4	758.4	725.4	700.5	686.3	662.1	633.8	600.3	565.8	526.2	508.4	499.2	488.6	474.0	455.3	436.2	419.7	389.6	355.5	324.7	302.7	305.9	285.4	202.6	143.5	107.3	78.94	58.92	50.32	98.49	382.1	1117	1485	572.2	15.21	2.217	1.789	1.665	1.586	1.770	1.804	2.111	2.369	2.212	2.081	2.893	3.033	3.029	3.148	3.008	3.266	3.281	3.246	3.237	3.259	3.220	3.052	3.211	3.203	3.033	2.888	3.068	2.925	3.054	2.917	2.881	3.006	3.046	2.907	3.072	3.154
