Sample:	'1
File name:	H2025090904绣针河入境南岸.FD3
Run date:	'17:27:19, 09/10/2025
Operator:	Administrator
Comment:	'

Instrument
Model:	F-2700 FL Spectrophotometer
Serial number:	23C7-003
ROM Version:	4J14000 07

Instrument parameters
Measurement type:	3-D scan
Data mode:	Fluorescence
EX  Start WL:	220.0 nm
EX  End WL:	600.0 nm
EX Sampling interval:	5.0 nm
EM  Start WL:	230.0 nm
EM  End WL:	650.0 nm
EM Sampling interval:	5.0 nm
Scan speed:	12000 nm/min
EX Slit:	5.0 nm
EM Slit:	5.0 nm
PMT Voltage:	700 V
Response:	Auto 
Corrected spectra:	Off
Contour interval:	50.000

Peak integration
Integration method:	Rectangular
Sensitivity:	1
Threshold:	1.000

Peaks
No.	ApexEX/EM(nm)	Height(Data)
1	225.0/340.0	723.1
2	225.0/585.0	57.97
3	230.0/375.0	688.5
4	230.0/390.0	683.8
5	230.0/495.0	291.3
6	235.0/400.0	690.9
7	240.0/410.0	664.7
8	245.0/270.0	210.1
9	245.0/400.0	666.2
10	250.0/410.0	662.5
11	250.0/545.0	137.4
12	255.0/280.0	365.0
13	255.0/405.0	661.8
14	255.0/425.0	645.1
15	255.0/560.0	116.0
16	260.0/570.0	96.41
17	265.0/585.0	93.53
18	270.0/300.0	999.6
19	270.0/595.0	92.15
20	275.0/305.0	1218
21	275.0/380.0	692.8
22	275.0/610.0	88.90
23	280.0/310.0	1109
24	280.0/620.0	74.38
25	285.0/635.0	48.69
26	305.0/345.0	463.1
27	310.0/350.0	431.7
28	315.0/355.0	444.5
29	320.0/365.0	460.9
30	505.0/275.0	2.177
31	510.0/280.0	2.372
32	520.0/285.0	2.488
33	535.0/270.0	31.07
34	545.0/300.0	5.423
35	550.0/305.0	6.071
36	560.0/310.0	5.813
37	570.0/315.0	5.589
38	575.0/290.0	47.84
39	575.0/320.0	4.940
40	580.0/325.0	4.506

Data points
	220.0	225.0	230.0	235.0	240.0	245.0	250.0	255.0	260.0	265.0	270.0	275.0	280.0	285.0	290.0	295.0	300.0	305.0	310.0	315.0	320.0	325.0	330.0	335.0	340.0	345.0	350.0	355.0	360.0	365.0	370.0	375.0	380.0	385.0	390.0	395.0	400.0	405.0	410.0	415.0	420.0	425.0	430.0	435.0	440.0	445.0	450.0	455.0	460.0	465.0	470.0	475.0	480.0	485.0	490.0	495.0	500.0	505.0	510.0	515.0	520.0	525.0	530.0	535.0	540.0	545.0	550.0	555.0	560.0	565.0	570.0	575.0	580.0	585.0	590.0	595.0	600.0
230.0	42.21	765.0	2481	978.9	43.97	6.838	5.346	4.760	4.081	3.527	3.761	3.414	2.890	2.656	2.238	1.909	1.779	1.568	1.489	1.429	1.250	1.137	1.036	0.961	0.945	0.843	0.875	0.788	0.697	0.718	0.679	0.668	0.646	0.566	0.527	0.443	0.440	0.441	0.422	0.441	0.444	0.570	0.707	0.525	0.422	0.400	1.096	5.410	9.920	8.337	3.283	0.720	0.321	0.288	0.278	0.269	0.258	0.291	0.264	0.301	0.280	0.301	0.282	0.298	0.303	0.300	0.295	0.288	0.314	0.313	0.319	0.295	0.289	0.287	0.303	0.304	0.353
235.0	101.7	212.5	1152	2331	1131	69.48	6.459	5.196	4.348	3.996	4.140	3.083	2.846	2.882	2.743	2.031	1.795	1.733	1.240	1.641	1.381	1.259	1.046	0.991	0.966	0.824	0.795	0.677	0.744	0.637	0.572	0.740	0.574	0.539	0.569	0.498	0.504	0.473	0.439	0.411	0.330	0.550	0.604	0.521	0.693	0.510	0.522	1.575	3.402	6.315	8.851	9.589	4.938	1.226	0.343	0.293	0.280	0.324	0.311	0.293	0.350	0.277	0.278	0.331	0.288	0.261	0.252	0.293	0.315	0.314	0.303	0.305	0.290	0.405	0.323	0.259	0.307
240.0	129.4	134.7	306.0	1475	2627	388.7	33.32	5.775	4.956	4.744	4.083	3.548	4.041	2.960	2.326	1.954	1.772	1.961	1.485	1.528	1.341	1.392	1.058	1.114	1.035	0.963	0.844	0.672	0.728	0.641	0.657	0.595	0.736	0.591	0.616	0.502	0.434	0.546	0.434	0.416	0.401	0.536	0.507	0.449	0.669	0.707	0.646	0.690	1.040	1.917	4.163	10.31	14.30	10.60	3.862	0.698	0.276	0.256	0.306	0.328	0.302	0.255	0.295	0.299	0.331	0.293	0.296	0.315	0.295	0.271	0.353	0.274	0.326	0.343	0.255	0.350	0.269
245.0	85.58	159.3	127.9	422.5	2049	2682	298.6	13.78	5.924	5.336	4.376	3.839	3.996	3.116	2.486	2.032	1.936	1.810	1.503	1.528	1.402	1.293	1.004	1.116	1.001	0.879	0.817	0.807	0.829	0.683	0.691	0.671	0.504	0.662	0.550	0.497	0.401	0.530	0.404	0.466	0.387	0.404	0.428	0.353	0.454	0.569	0.809	0.758	0.648	0.664	1.122	3.360	8.814	14.49	15.58	8.790	2.502	0.402	0.318	0.348	0.306	0.275	0.293	0.300	0.285	0.305	0.265	0.249	0.360	0.256	0.369	0.274	0.329	0.320	0.294	0.305	0.287
250.0	38.18	99.99	171.6	169.1	577.4	1919	2729	1084	81.98	6.820	5.029	4.503	4.014	3.330	2.470	2.388	2.040	1.800	1.666	1.591	1.335	1.292	1.129	1.141	1.122	0.896	0.890	0.892	0.842	0.750	0.787	0.615	0.660	0.615	0.508	0.537	0.459	0.549	0.428	0.448	0.386	0.453	0.494	0.478	0.451	0.439	0.486	0.703	0.839	0.831	0.687	1.045	2.348	4.764	8.910	12.84	16.18	13.99	7.930	2.732	0.557	0.300	0.295	0.263	0.331	0.308	0.311	0.300	0.323	0.250	0.347	0.316	0.356	0.349	0.351	0.343	0.309
255.0	27.59	35.42	91.14	200.4	207.5	454.5	1549	4050	1609	97.42	7.046	5.298	4.527	3.950	3.074	2.698	2.293	1.905	1.465	1.570	1.296	1.189	1.066	1.324	1.112	1.046	0.865	0.923	0.724	0.788	0.721	0.693	0.716	0.628	0.488	0.533	0.437	0.519	0.443	0.448	0.398	0.456	0.354	0.377	0.385	0.402	0.389	0.397	0.472	0.642	0.995	1.140	1.061	1.386	2.217	3.282	6.001	14.74	24.96	23.15	12.56	2.740	0.397	0.307	0.357	0.287	0.316	0.333	0.338	0.300	0.310	0.288	0.367	0.282	0.344	0.290	0.285
260.0	21.48	21.56	37.03	149.9	218.8	151.6	407.6	2574	4917	1274	56.83	7.336	5.537	4.580	3.398	3.024	2.397	2.310	1.825	1.578	1.568	1.429	1.041	1.131	1.127	0.964	0.935	0.944	0.846	0.812	0.750	0.725	0.700	0.636	0.540	0.493	0.463	0.521	0.418	0.433	0.408	0.359	0.389	0.386	0.385	0.385	0.314	0.399	0.343	0.393	0.617	1.171	1.389	1.048	0.814	1.029	1.658	4.123	11.40	24.76	33.11	22.20	8.716	1.260	0.366	0.309	0.467	0.369	0.292	0.306	0.346	0.231	0.315	0.263	0.309	0.299	0.332
265.0	23.36	17.63	19.21	59.13	203.0	179.2	119.2	736.0	3856	5469	959.5	22.03	7.434	5.267	3.716	3.080	2.653	2.384	2.170	1.680	1.569	1.467	1.181	1.086	1.005	0.993	1.008	0.906	0.923	0.802	0.827	0.743	0.663	0.536	0.658	0.541	0.475	0.452	0.451	0.428	0.390	0.374	0.438	0.467	0.396	0.342	0.362	0.328	0.340	0.338	0.327	0.634	1.243	1.332	1.164	0.654	0.658	1.244	2.903	7.598	18.70	34.91	28.33	18.66	4.825	0.550	0.459	0.391	0.347	0.310	0.293	0.247	0.355	0.253	0.276	0.334	0.305
270.0	34.46	27.93	22.75	25.97	82.71	210.1	192.1	208.9	1077	3930	6071	2327	61.62	7.582	5.185	3.635	3.151	2.636	2.389	1.922	1.623	1.539	1.271	1.178	1.195	1.072	1.028	1.100	0.894	0.851	0.894	0.783	0.767	0.689	0.650	0.549	0.522	0.498	0.475	0.468	0.453	0.469	0.430	0.472	0.438	0.432	0.356	0.371	0.308	0.325	0.295	0.399	0.571	0.832	1.289	1.438	1.224	0.844	1.018	2.049	4.687	10.72	18.70	31.07	30.93	30.04	11.92	4.188	0.608	0.371	0.362	0.329	0.332	0.314	0.326	0.327	0.349
275.0	73.46	54.78	41.77	29.04	33.33	83.26	260.7	239.9	288.6	948.7	3309	8592	1089	69.02	7.219	4.727	3.687	2.809	2.339	2.135	2.073	1.653	1.474	1.309	1.317	1.060	1.094	1.009	0.893	0.970	0.852	0.814	0.772	0.740	0.764	0.690	0.608	0.676	0.527	0.674	0.543	0.528	0.495	0.507	0.527	0.541	0.420	0.448	0.341	0.360	0.376	0.394	0.402	0.459	0.549	0.809	1.573	2.177	1.478	1.077	1.437	2.782	4.590	7.618	11.55	29.51	51.15	28.20	17.74	3.663	0.514	0.351	0.341	0.388	0.325	0.301	0.359
280.0	122.4	99.26	71.87	40.29	30.51	43.19	149.4	365.0	213.5	276.6	908.9	5455	8508	849.1	36.61	6.636	4.722	3.337	2.753	2.287	2.293	1.865	1.669	1.358	1.351	1.261	1.190	0.939	1.007	0.951	0.853	0.976	0.917	0.819	0.811	0.748	0.624	0.671	0.664	0.669	0.560	0.547	0.617	0.590	0.667	0.583	0.486	0.456	0.497	0.398	0.426	0.416	0.375	0.369	0.445	0.476	0.852	1.611	2.372	1.973	1.133	1.218	1.564	2.182	3.171	8.149	21.76	43.43	62.99	26.53	11.41	1.404	0.449	0.362	0.404	0.264	0.397
285.0	192.1	159.8	121.6	66.72	39.70	39.80	76.58	280.8	383.5	201.0	326.1	1611	7318	7016	575.4	15.52	6.019	4.293	3.114	2.585	2.527	2.002	1.833	1.476	1.392	1.166	1.195	1.003	1.021	1.018	0.831	0.940	0.785	0.711	0.789	0.887	0.790	0.774	0.850	0.720	0.650	0.681	0.744	0.804	0.696	0.710	0.656	0.728	0.640	0.542	0.479	0.490	0.458	0.394	0.432	0.420	0.549	0.888	1.486	2.396	2.488	1.450	1.023	1.264	1.517	2.580	5.694	13.19	33.99	60.35	64.67	21.62	5.662	0.653	0.412	0.372	0.396
290.0	289.9	286.6	214.9	124.9	69.84	59.92	79.11	161.3	386.4	491.9	387.4	640.9	2173	6057	7126	1947	35.18	6.396	4.236	3.332	2.691	2.290	1.865	1.590	1.460	1.281	1.242	1.229	1.138	1.171	1.068	0.880	0.757	0.779	0.912	1.020	1.061	1.010	0.986	0.846	0.816	0.876	0.943	0.897	0.911	1.059	0.950	1.010	0.909	0.790	0.596	0.619	0.555	0.493	0.534	0.576	0.594	0.727	0.918	1.272	2.083	2.641	2.879	2.272	1.819	1.964	2.671	4.286	9.171	18.47	33.72	47.84	41.97	44.01	13.39	5.102	0.736
295.0	403.0	409.1	338.4	198.2	104.7	88.63	105.5	160.3	284.2	600.4	801.3	639.0	890.4	1614	4002	9702	602.4	40.63	6.473	4.513	3.139	2.735	2.260	1.673	1.713	1.403	1.176	1.222	1.205	1.110	1.023	0.908	0.890	0.864	0.958	1.066	1.287	1.191	1.059	1.119	0.961	1.033	1.026	1.210	1.294	1.310	1.197	1.420	1.140	0.992	0.811	0.751	0.638	0.658	0.626	0.659	0.828	0.863	0.893	1.097	1.475	1.848	2.813	3.939	4.198	3.176	2.862	3.052	4.130	5.968	9.103	11.97	14.71	38.31	67.75	70.76	21.08
300.0	473.2	515.8	410.6	232.6	134.7	112.3	134.2	189.7	284.0	524.0	999.6	900.2	707.4	665.9	1101	6009	9046	498.3	24.20	6.028	4.244	3.232	2.498	2.050	1.755	1.520	1.297	1.298	1.239	1.209	1.013	1.048	0.828	0.909	1.000	1.257	1.424	1.367	1.207	1.164	1.109	1.139	1.181	1.294	1.347	1.481	1.479	1.658	1.509	1.217	0.843	0.892	0.779	0.690	0.721	0.817	0.833	0.918	1.017	1.260	1.550	1.761	2.357	3.160	4.835	5.423	4.296	3.696	3.687	3.463	3.818	4.066	4.392	10.14	25.42	62.29	84.95
305.0	527.4	563.0	446.5	262.7	157.3	130.1	157.0	213.8	327.0	511.5	891.0	1218	819.6	505.5	400.5	1633	7457	7629	355.8	11.25	5.373	3.883	2.941	2.303	1.838	1.779	1.410	1.395	1.368	1.207	1.119	1.055	0.998	0.872	1.113	1.233	1.534	1.473	1.381	1.333	1.190	1.171	1.246	1.423	1.513	1.647	1.614	1.744	1.551	1.304	0.933	0.962	0.935	0.754	0.837	0.991	0.981	1.183	1.077	1.398	1.623	2.043	2.402	2.775	3.704	5.259	6.071	5.507	4.244	3.391	3.052	2.527	2.043	3.241	6.536	16.79	39.79
310.0	551.0	598.8	477.7	283.9	169.5	147.4	178.7	242.5	350.5	530.4	783.1	1079	1109	599.8	289.3	458.6	1965	5751	5838	1465	25.33	5.358	3.821	2.937	2.384	1.993	1.803	1.520	1.412	1.289	1.197	1.136	1.022	0.925	1.016	1.430	1.441	1.480	1.404	1.330	1.276	1.226	1.277	1.480	1.544	1.724	1.624	1.779	1.676	1.288	1.072	0.987	0.915	0.818	0.822	0.921	0.995	1.138	1.272	1.431	1.728	2.198	2.513	2.963	3.423	4.097	4.732	5.528	5.813	5.113	3.634	2.560	1.891	1.805	2.367	4.601	9.770
315.0	542.3	603.1	476.7	288.5	183.9	165.2	192.4	259.2	365.5	529.6	736.0	902.6	976.2	862.9	355.4	229.8	514.2	1351	3375	8191	432.7	28.72	5.442	3.825	2.830	2.434	2.083	1.820	1.529	1.385	1.479	1.222	0.982	0.942	0.996	1.425	1.406	1.405	1.392	1.265	1.201	1.396	1.261	1.579	1.462	1.653	1.624	1.765	1.671	1.400	1.167	1.039	0.998	0.905	0.938	1.002	1.032	1.120	1.354	1.414	1.851	2.235	2.458	2.852	3.475	3.661	4.067	4.214	4.394	5.372	5.589	4.049	2.595	1.833	1.743	2.031	2.984
320.0	542.8	601.2	496.8	307.0	195.1	173.2	203.5	268.9	373.2	529.8	710.3	835.4	837.0	842.4	563.6	225.0	211.0	362.1	860.2	4970	7354	370.1	16.63	4.858	3.477	2.794	2.151	1.768	1.668	1.468	1.350	1.090	1.018	0.899	1.097	1.328	1.484	1.475	1.259	1.276	1.197	1.328	1.396	1.524	1.568	1.789	1.820	1.898	1.890	1.421	1.139	1.146	0.975	0.893	0.962	1.058	1.148	1.246	1.419	1.495	1.893	2.201	2.447	2.948	3.182	3.768	3.957	3.914	4.113	4.322	4.510	4.940	3.929	2.436	1.723	1.627	1.755
325.0	572.1	615.8	546.1	340.6	218.8	190.6	217.4	275.6	380.3	527.9	697.4	806.9	789.0	698.6	687.7	349.0	173.2	161.3	246.1	1314	5991	6127	279.5	8.928	4.225	3.003	2.574	2.161	1.683	1.675	1.323	1.262	1.149	1.109	1.115	1.241	1.352	1.405	1.322	1.244	1.293	1.322	1.497	1.505	1.677	1.929	2.026	2.118	1.930	1.620	1.190	1.290	1.095	1.003	1.044	1.050	1.165	1.304	1.451	1.759	2.046	2.177	2.563	2.882	3.082	3.493	3.557	3.991	3.968	3.836	3.546	3.877	4.506	4.250	2.781	1.809	1.554
330.0	596.8	671.1	614.0	410.7	258.0	218.6	238.4	293.9	392.6	521.4	679.1	784.6	767.9	642.8	559.0	516.4	307.7	158.2	135.4	351.7	1572	4613	4763	1262	21.19	4.564	3.357	2.503	1.989	1.690	1.433	1.426	1.106	1.115	1.157	1.239	1.394	1.303	1.386	1.220	1.230	1.276	1.428	1.564	1.664	1.802	2.030	2.306	2.184	1.765	1.386	1.496	1.265	1.084	1.057	1.110	1.264	1.336	1.534	1.785	2.091	2.063	2.541	2.893	3.070	3.328	3.536	3.874	4.069	3.891	3.472	3.381	3.449	3.638	3.612	3.394	2.743
335.0	576.2	698.3	646.2	475.6	319.8	262.5	268.9	323.2	395.6	525.3	662.8	759.7	753.2	648.8	518.8	445.7	486.1	278.5	153.5	168.4	417.8	1091	2712	6987	1929	26.43	4.952	3.196	2.302	2.129	1.525	1.454	1.211	1.313	1.227	1.169	1.317	1.280	1.345	1.208	1.223	1.350	1.505	1.615	1.716	1.942	2.008	2.303	2.419	1.958	1.493	1.789	1.579	1.325	1.324	1.357	1.402	1.527	1.583	1.817	2.162	2.246	2.596	2.727	3.066	3.285	3.487	3.644	3.816	3.751	3.569	3.462	3.208	3.096	2.928	3.178	3.614
340.0	603.7	723.1	680.8	509.4	359.8	296.9	290.5	339.3	408.1	520.8	658.7	742.1	752.5	665.7	534.4	425.6	442.7	436.6	218.1	157.5	184.7	311.8	704.1	4146	6727	338.2	17.47	3.901	3.017	2.216	1.887	1.537	1.401	1.168	1.196	1.263	1.287	1.221	1.298	1.122	1.214	1.427	1.455	1.671	1.880	1.993	2.162	2.384	2.382	2.092	1.749	1.903	1.528	1.556	1.484	1.444	1.523	1.529	1.660	1.953	2.016	2.269	2.523	2.953	3.059	3.283	3.444	3.650	3.638	3.857	3.811	3.309	3.215	3.121	2.838	2.795	2.926
345.0	595.9	719.6	711.1	549.0	396.0	333.7	311.4	356.6	416.8	522.2	641.5	724.7	739.4	672.9	552.3	443.0	393.9	463.1	352.4	196.1	161.2	163.6	227.1	1104	4970	5477	276.3	8.848	3.726	2.556	2.118	1.594	1.457	1.239	1.226	1.192	1.230	1.338	1.205	1.252	1.206	1.406	1.521	1.551	1.729	2.143	2.285	2.568	2.459	2.194	1.810	1.902	1.766	1.548	1.576	1.572	1.674	1.608	1.761	1.978	2.062	2.320	2.487	2.966	2.855	3.173	3.310	3.510	3.692	3.614	3.583	3.449	3.307	3.339	3.014	2.750	2.785
350.0	589.3	692.9	707.9	573.5	447.6	376.7	364.7	383.3	437.3	526.5	631.0	702.9	722.0	671.2	577.8	478.0	413.3	399.2	431.7	343.0	219.8	173.2	156.0	319.4	1301	3718	3879	1181	20.19	4.018	2.860	2.098	1.619	1.304	1.253	1.390	1.298	1.317	1.304	1.317	1.325	1.323	1.458	1.621	1.770	2.016	2.167	2.531	2.420	2.133	1.981	1.993	1.972	1.838	1.796	1.782	1.769	1.681	1.877	2.098	2.217	2.404	2.595	2.938	2.843	3.098	3.115	3.344	3.641	3.515	3.569	3.525	3.434	3.414	3.191	2.856	3.093
355.0	566.8	681.2	701.8	596.5	492.0	446.4	430.7	432.1	472.9	542.9	623.5	688.2	702.4	671.8	602.3	522.2	458.6	414.6	403.4	444.5	358.7	230.7	182.5	181.2	361.7	884.7	1979	5561	1897	26.10	4.293	2.794	2.103	1.602	1.310	1.289	1.256	1.300	1.187	1.280	1.327	1.518	1.464	1.648	1.719	2.176	2.128	2.460	2.438	2.212	2.035	2.228	2.022	2.118	1.982	2.016	1.822	1.889	2.084	2.193	2.428	2.526	2.506	2.864	2.786	3.027	3.151	3.479	3.487	3.668	3.718	3.717	3.578	3.590	3.392	3.365	3.540
360.0	594.9	667.9	691.2	628.9	527.7	486.3	460.5	476.4	499.3	563.9	630.5	684.2	701.8	677.7	620.9	548.9	494.0	453.1	422.4	429.5	460.5	316.1	223.6	177.3	174.3	258.8	510.7	3009	5722	329.1	17.99	3.639	2.596	1.918	1.617	1.297	1.265	1.455	1.264	1.325	1.582	1.465	1.430	1.687	1.665	2.070	1.979	2.401	2.432	2.153	2.070	2.361	2.190	2.300	2.307	2.083	1.907	2.085	2.429	2.271	2.380	2.667	2.639	2.855	2.961	2.860	3.261	3.396	3.607	3.781	3.737	3.617	3.721	3.684	3.500	3.760	3.600
365.0	580.3	666.8	683.0	639.4	555.3	512.6	505.8	505.2	526.0	591.7	641.0	683.9	699.2	681.9	632.7	572.7	520.9	492.8	456.0	431.7	460.9	425.3	277.5	204.1	157.8	138.5	168.8	782.0	3820	5000	281.3	8.879	3.381	2.276	1.763	1.465	1.419	1.349	1.360	1.325	1.487	1.505	1.537	1.584	1.886	2.050	2.089	2.321	2.427	2.124	2.099	2.428	2.419	2.355	2.251	2.173	2.444	2.270	2.480	2.359	2.620	2.908	2.694	2.957	3.124	2.967	3.359	3.505	3.535	3.495	3.691	3.803	3.571	3.683	3.551	3.538	3.822
370.0	557.2	669.4	681.3	644.2	588.4	560.7	543.6	543.3	560.0	610.0	657.2	687.4	695.8	677.9	640.3	595.1	555.7	530.8	498.5	465.6	451.3	459.6	400.1	270.5	191.6	144.7	117.8	229.8	978.2	3074	3467	1154	19.31	3.517	2.491	1.789	1.647	1.502	1.453	1.393	1.377	1.495	1.567	1.676	1.796	2.133	2.104	2.306	2.424	2.185	2.052	2.337	2.535	2.364	2.379	2.341	2.488	2.498	2.589	2.588	2.733	2.892	2.944	2.969	3.135	2.969	3.204	3.431	3.557	3.464	3.667	3.667	3.788	3.798	3.665	3.823	4.043
375.0	572.2	648.9	688.5	656.0	623.1	595.8	589.4	571.4	598.0	625.1	663.5	691.8	693.0	680.0	644.4	610.7	581.9	561.4	536.7	507.6	479.4	448.3	441.0	385.1	250.0	179.7	136.7	130.7	271.1	726.8	1550	4719	1868	25.00	3.820	2.506	2.014	1.726	1.452	1.448	1.488	1.486	1.614	1.811	1.702	1.928	2.138	2.360	2.514	2.292	2.155	2.532	2.598	2.519	2.472	2.516	2.550	2.560	2.819	2.740	2.799	3.026	3.057	2.968	3.274	3.114	3.213	3.407	3.283	3.608	3.638	3.706	3.962	3.721	3.761	3.878	4.098
380.0	577.2	662.8	686.4	657.8	639.5	604.8	615.2	597.5	615.5	635.2	663.3	692.8	689.5	680.3	645.6	615.2	587.4	573.5	557.4	529.1	500.9	460.7	430.4	436.1	326.8	217.7	164.1	125.9	131.0	209.7	393.0	2266	4840	1338	17.21	3.154	2.377	1.903	1.596	1.584	1.529	1.553	1.670	1.727	1.924	1.923	2.069	2.331	2.429	2.271	2.221	2.745	2.693	2.506	2.601	2.551	2.932	2.550	2.821	2.856	2.747	2.913	3.185	3.087	3.235	3.192	3.207	3.262	3.389	3.372	3.495	3.545	3.902	3.695	4.011	4.034	4.045
385.0	567.9	658.7	668.6	671.7	641.5	628.2	626.4	614.3	620.9	637.6	669.1	684.3	687.0	670.6	643.1	610.6	595.1	584.8	565.6	544.9	512.4	476.5	435.2	424.8	394.3	270.9	193.7	146.5	118.1	110.0	131.5	574.5	2801	4230	250.6	10.27	2.942	2.316	1.933	1.860	1.558	1.644	1.815	1.687	1.711	2.048	2.115	2.311	2.436	2.257	2.294	2.585	2.792	2.832	2.532	2.757	2.998	2.735	2.720	2.963	2.812	3.059	3.116	3.154	3.037	3.060	3.144	3.201	3.287	3.340	3.803	3.681	3.675	3.742	3.996	3.860	4.119
390.0	571.1	658.0	683.8	670.6	662.7	647.7	640.6	640.7	638.7	643.4	667.9	681.0	678.3	661.3	637.3	606.9	591.1	586.1	570.4	555.1	529.6	495.7	457.1	418.3	394.2	351.0	252.9	185.0	146.0	114.0	93.75	171.3	698.4	2181	3100	1047	17.54	3.455	2.284	1.996	1.782	1.739	1.698	1.865	1.896	1.963	2.141	2.459	2.373	2.342	2.209	2.635	2.642	2.837	2.683	2.737	2.884	2.843	2.849	2.971	2.949	3.049	2.894	3.130	3.052	3.079	3.214	3.294	3.173	3.445	3.672	3.603	3.686	3.933	3.916	3.846	4.159
395.0	560.1	646.8	671.2	683.9	659.2	659.7	654.8	656.0	651.9	654.9	667.1	670.7	669.7	648.7	628.4	600.2	585.6	579.3	569.1	559.4	536.9	505.0	474.7	432.7	389.0	365.0	334.5	240.9	183.6	142.3	108.9	100.0	197.7	514.9	1085	3311	1619	24.36	3.412	2.445	1.974	1.835	1.911	1.884	2.053	2.144	2.108	2.477	2.347	2.364	2.190	2.505	2.620	2.990	2.657	2.929	2.844	3.019	3.184	2.877	3.071	3.125	2.885	3.245	3.046	3.089	3.075	3.140	3.112	3.341	3.550	3.585	3.636	3.783	3.878	3.817	4.211
400.0	557.1	638.3	666.9	690.9	663.7	666.2	664.8	654.8	652.6	651.4	666.4	663.6	654.2	636.3	618.3	592.3	575.8	568.2	563.1	548.2	532.9	514.9	481.1	443.5	398.7	360.6	357.5	300.1	216.3	167.1	128.6	97.80	97.02	150.1	271.4	1394	3477	1224	17.39	3.283	2.362	2.091	2.034	1.978	2.070	2.174	2.120	2.389	2.394	2.280	2.144	2.642	2.733	2.685	2.729	2.904	2.978	3.011	3.162	3.052	3.036	3.179	3.151	3.063	3.027	3.023	3.093	3.278	3.363	3.247	3.491	3.389	3.510	3.635	3.662	3.816	4.106
405.0	560.0	650.4	666.1	674.8	660.1	664.1	658.2	661.8	647.3	656.5	663.2	659.8	647.5	627.0	604.5	580.2	561.2	557.5	549.5	540.0	524.0	509.4	484.5	451.2	408.7	368.2	345.9	338.7	261.0	193.1	149.8	110.2	85.56	78.16	91.33	346.2	1727	3239	231.3	11.18	2.995	2.475	2.253	2.119	2.215	2.306	2.195	2.433	2.341	2.171	2.129	2.660	2.771	2.797	2.826	2.877	3.073	2.856	2.989	3.079	3.202	2.992	3.101	3.150	3.027	3.171	3.010	3.198	3.078	3.381	3.540	3.506	3.542	3.419	3.721	4.002	3.923
410.0	564.3	638.5	662.4	654.4	664.7	659.6	662.5	658.4	650.5	655.2	651.9	647.7	634.4	612.3	583.9	561.7	546.9	539.5	532.3	525.9	514.3	500.1	479.3	454.0	417.6	378.9	342.4	328.3	309.3	240.3	178.6	132.5	99.19	74.80	60.15	104.5	422.1	1473	1886	968.5	17.27	3.265	2.531	2.246	2.272	2.190	2.144	2.463	2.321	2.276	2.124	2.599	2.641	2.699	2.903	2.758	2.905	2.996	3.070	3.017	3.132	3.121	3.064	3.097	3.028	3.159	2.997	3.171	3.050	3.308	3.367	3.462	3.541	3.442	3.673	3.514	3.788
415.0	532.1	617.3	654.6	644.4	654.1	655.8	650.3	647.9	644.3	646.3	639.9	636.0	613.7	587.1	561.1	533.9	519.8	510.4	505.4	502.0	489.4	481.4	465.5	443.2	417.2	384.3	350.0	320.8	307.3	291.1	220.3	156.1	119.0	86.63	64.59	59.78	119.1	345.8	629.9	2241	1474	23.89	3.558	2.606	2.452	2.273	2.318	2.394	2.257	2.120	2.056	2.486	2.524	2.644	2.771	2.839	2.830	3.010	3.046	2.953	2.952	2.997	3.080	3.110	2.906	3.026	2.846	3.107	3.092	2.969	3.165	3.111	3.270	3.170	3.579	3.448	3.705
