Sample:	'1
File name:	G2025062009»ôÆÂÇÅ.FD3
Run date:	'13:05:32, 06/24/2025
Operator:	Administrator
Comment:	'

Instrument
Model:	F-2700 FL Spectrophotometer
Serial number:	23B8-004
ROM Version:	4J14000 07

Instrument parameters
Measurement type:	3-D scan
Data mode:	Fluorescence
EX  Start WL:	220.0 nm
EX  End WL:	600.0 nm
EX Sampling interval:	5.0 nm
EM  Start WL:	230.0 nm
EM  End WL:	650.0 nm
EM Sampling interval:	5.0 nm
Scan speed:	12000 nm/min
EX Slit:	5.0 nm
EM Slit:	5.0 nm
PMT Voltage:	700 V
Response:	Auto 
Corrected spectra:	Off
Contour interval:	50.000

Peak integration
Integration method:	Rectangular
Sensitivity:	1
Threshold:	1.000

Peaks
No.	ApexEX/EM(nm)	Height(Data)
1	225.0/340.0	1159
2	225.0/580.0	72.18
3	225.0/600.0	57.44
4	225.0/625.0	50.71
5	230.0/345.0	1175
6	230.0/495.0	357.6
7	235.0/260.0	299.6
8	235.0/390.0	1001
9	235.0/405.0	952.7
10	235.0/510.0	289.7
11	240.0/265.0	355.3
12	240.0/525.0	248.9
13	245.0/270.0	416.6
14	245.0/535.0	202.5
15	250.0/275.0	537.6
16	250.0/550.0	170.2
17	255.0/285.0	548.5
18	255.0/560.0	137.7
19	260.0/290.0	512.3
20	260.0/575.0	107.4
21	265.0/295.0	654.6
22	265.0/395.0	796.1
23	265.0/585.0	97.60
24	270.0/300.0	934.1
25	270.0/600.0	88.24
26	275.0/305.0	986.3
27	275.0/340.0	910.2
28	275.0/615.0	74.14
29	280.0/345.0	909.5
30	280.0/625.0	65.84
31	285.0/320.0	918.8
32	285.0/635.0	49.71
33	290.0/325.0	836.1
34	305.0/345.0	558.6
35	315.0/355.0	461.4
36	320.0/365.0	448.3
37	460.0/340.0	3.340
38	485.0/265.0	2.028
39	505.0/275.0	3.168
40	510.0/280.0	3.313
41	515.0/285.0	3.401
42	530.0/290.0	3.178
43	540.0/295.0	4.463
44	545.0/300.0	5.022
45	550.0/305.0	5.387
46	560.0/310.0	4.947
47	570.0/345.0	4.522
48	580.0/320.0	5.217
49	585.0/325.0	5.062

Data points
	220.0	225.0	230.0	235.0	240.0	245.0	250.0	255.0	260.0	265.0	270.0	275.0	280.0	285.0	290.0	295.0	300.0	305.0	310.0	315.0	320.0	325.0	330.0	335.0	340.0	345.0	350.0	355.0	360.0	365.0	370.0	375.0	380.0	385.0	390.0	395.0	400.0	405.0	410.0	415.0	420.0	425.0	430.0	435.0	440.0	445.0	450.0	455.0	460.0	465.0	470.0	475.0	480.0	485.0	490.0	495.0	500.0	505.0	510.0	515.0	520.0	525.0	530.0	535.0	540.0	545.0	550.0	555.0	560.0	565.0	570.0	575.0	580.0	585.0	590.0	595.0	600.0
230.0	73.43	931.1	1453	335.2	13.62	6.289	5.028	4.576	3.726	3.451	2.993	2.873	2.294	2.196	1.791	1.533	1.439	1.234	1.215	1.024	1.049	0.905	0.805	0.736	0.719	0.709	0.644	0.638	0.605	0.578	0.555	0.558	0.508	0.478	0.380	0.441	0.398	0.436	0.414	0.410	0.465	0.562	0.451	0.388	0.358	0.372	1.511	4.192	5.217	3.080	1.008	0.368	0.260	0.311	0.293	0.278	0.283	0.316	0.284	0.308	0.292	0.282	0.289	0.288	0.313	0.258	0.296	0.316	0.260	0.305	0.296	0.291	0.308	0.312	0.307	0.296	0.318
235.0	104.5	289.2	1176	1597	372.1	17.28	6.170	4.347	4.036	3.688	2.847	2.621	2.580	2.393	1.857	1.591	1.371	1.266	1.301	0.892	1.016	0.848	0.720	0.730	0.745	0.700	0.649	0.611	0.688	0.722	0.717	0.524	0.532	0.503	0.393	0.433	0.371	0.454	0.421	0.430	0.412	0.424	0.454	0.544	0.560	0.432	0.598	1.344	2.730	4.485	5.720	4.405	1.873	0.607	0.290	0.316	0.363	0.308	0.252	0.315	0.269	0.323	0.295	0.307	0.400	0.339	0.267	0.309	0.317	0.296	0.293	0.281	0.358	0.290	0.286	0.363	0.354
240.0	160.4	135.3	412.9	1704	1524	274.4	10.81	5.135	4.488	3.922	3.280	2.657	2.412	2.541	2.149	2.007	1.269	1.297	1.178	1.078	0.989	0.785	0.948	0.852	0.811	0.650	0.655	0.549	0.626	0.634	0.655	0.563	0.520	0.440	0.429	0.438	0.331	0.461	0.411	0.368	0.389	0.395	0.476	0.509	0.673	0.692	0.513	0.595	0.898	1.550	3.792	7.727	7.806	5.264	1.642	0.355	0.292	0.338	0.343	0.289	0.258	0.304	0.302	0.303	0.318	0.288	0.276	0.294	0.254	0.278	0.343	0.251	0.328	0.283	0.320	0.309	0.319
245.0	143.6	175.9	146.1	710.3	2027	1419	174.7	7.180	5.287	4.298	3.635	3.398	2.775	2.359	2.040	1.654	1.795	1.373	1.232	1.164	1.044	0.881	0.825	0.888	0.741	0.833	0.676	0.711	0.581	0.670	0.596	0.608	0.521	0.495	0.466	0.445	0.375	0.489	0.396	0.394	0.331	0.350	0.439	0.425	0.521	0.758	0.832	0.614	0.509	0.592	1.126	3.171	7.121	11.33	8.910	4.033	0.969	0.389	0.319	0.313	0.275	0.332	0.316	0.287	0.288	0.306	0.281	0.276	0.287	0.299	0.312	0.277	0.326	0.309	0.275	0.313	0.311
250.0	68.92	162.2	211.4	227.3	758.3	1845	1937	221.1	24.02	5.829	4.610	3.897	3.260	2.422	2.125	1.891	1.728	1.492	1.411	1.113	1.103	0.923	0.941	0.902	0.670	0.758	0.676	0.680	0.663	0.714	0.646	0.551	0.451	0.473	0.484	0.449	0.381	0.480	0.395	0.404	0.387	0.373	0.402	0.413	0.429	0.493	0.602	0.791	0.967	0.732	0.610	0.978	2.022	4.235	6.808	9.266	11.14	8.868	4.207	1.111	0.329	0.321	0.342	0.339	0.268	0.351	0.314	0.279	0.310	0.319	0.317	0.335	0.293	0.327	0.284	0.288	0.317
255.0	37.93	63.25	178.1	284.8	234.4	530.0	2031	2627	283.8	21.39	5.584	4.850	3.771	2.665	2.263	2.056	1.823	1.539	1.261	1.089	0.987	0.996	0.841	0.859	0.680	0.747	0.711	0.683	0.633	0.712	0.610	0.634	0.491	0.464	0.482	0.419	0.390	0.483	0.401	0.508	0.357	0.395	0.422	0.404	0.377	0.435	0.392	0.443	0.686	0.792	1.064	1.224	0.890	1.256	1.879	2.552	5.372	11.90	18.30	15.15	6.174	1.095	0.312	0.303	0.359	0.325	0.296	0.318	0.301	0.280	0.357	0.320	0.321	0.304	0.308	0.367	0.300
260.0	36.36	33.23	78.34	299.6	252.1	176.4	714.3	2953	2289	217.4	12.10	5.080	4.931	3.573	2.639	2.572	2.201	1.374	1.390	1.110	1.202	1.017	0.933	0.895	0.907	0.822	0.695	0.670	0.619	0.710	0.656	0.618	0.556	0.519	0.514	0.466	0.482	0.421	0.436	0.507	0.356	0.449	0.402	0.355	0.308	0.382	0.414	0.377	0.404	0.491	0.845	1.563	1.422	0.926	0.792	0.899	1.640	3.616	9.367	18.53	21.35	14.38	3.910	0.569	0.386	0.348	0.332	0.352	0.320	0.352	0.305	0.341	0.290	0.293	0.303	0.381	0.316
265.0	33.01	27.11	35.45	166.4	355.3	209.9	219.7	1177	3843	1944	156.5	7.752	5.802	4.052	3.011	2.513	1.914	1.764	1.402	1.413	1.220	1.119	1.080	1.006	0.862	0.922	0.726	0.689	0.621	0.703	0.712	0.617	0.631	0.624	0.448	0.504	0.483	0.427	0.439	0.458	0.451	0.448	0.412	0.400	0.364	0.335	0.357	0.343	0.326	0.338	0.472	0.983	1.614	2.028	1.177	0.730	0.853	1.203	2.607	6.213	14.24	24.41	23.76	11.46	2.186	0.388	0.377	0.368	0.347	0.348	0.301	0.318	0.310	0.342	0.355	0.317	0.343
270.0	47.96	46.36	35.35	78.05	233.6	416.6	284.1	335.5	1395	3459	3425	634.9	24.75	5.129	3.947	2.927	2.212	1.687	1.725	1.524	1.289	1.154	1.012	0.943	0.908	0.919	0.795	0.795	0.717	0.789	0.690	0.667	0.614	0.651	0.610	0.490	0.482	0.484	0.400	0.425	0.405	0.444	0.429	0.410	0.437	0.438	0.383	0.405	0.373	0.326	0.324	0.591	0.841	1.389	1.938	2.027	1.857	1.155	1.164	1.816	3.767	7.875	14.22	20.96	23.67	18.75	10.31	2.213	0.415	0.381	0.393	0.363	0.295	0.344	0.351	0.351	0.407
275.0	98.87	87.33	84.93	76.43	135.6	292.9	537.6	297.3	363.2	937.6	3433	5541	800.3	19.00	5.802	3.860	2.514	2.276	1.897	1.613	1.485	1.217	1.013	1.093	0.969	0.953	0.968	0.805	0.855	0.766	0.701	0.750	0.633	0.630	0.741	0.585	0.547	0.536	0.499	0.557	0.538	0.521	0.466	0.468	0.549	0.535	0.449	0.537	0.522	0.379	0.389	0.514	0.546	0.883	1.053	1.661	2.537	3.168	2.126	1.128	1.270	2.254	3.618	5.245	8.355	18.37	35.00	28.76	13.98	2.174	0.431	0.398	0.371	0.290	0.334	0.370	0.306
280.0	167.3	161.0	125.2	110.5	116.7	195.6	426.3	532.0	209.8	266.5	1089	5118	5006	135.6	10.32	4.898	3.366	2.592	2.025	1.802	1.439	1.256	1.105	0.980	0.950	0.973	0.985	0.844	0.831	0.772	0.734	0.734	0.677	0.748	0.680	0.793	0.599	0.598	0.552	0.532	0.562	0.584	0.538	0.577	0.601	0.682	0.622	0.755	0.601	0.524	0.435	0.538	0.488	0.683	0.841	0.997	1.486	2.720	3.313	2.575	1.356	1.154	1.255	1.634	2.352	5.089	13.52	27.68	38.54	26.30	9.646	1.158	0.393	0.362	0.372	0.389	0.323
285.0	236.8	240.9	209.9	141.0	118.8	158.7	244.9	548.5	330.2	161.2	332.3	1735	5961	3859	94.78	6.845	4.404	2.596	2.401	1.829	1.648	1.520	1.051	1.222	1.091	1.098	0.936	0.840	0.857	0.732	0.687	0.744	0.673	0.708	0.723	0.849	0.735	0.735	0.614	0.658	0.637	0.595	0.642	0.713	0.734	0.821	0.878	0.839	0.770	0.604	0.539	0.604	0.577	0.689	0.760	0.977	1.102	1.437	2.134	3.401	3.219	1.821	0.938	0.988	1.051	1.788	3.640	7.935	18.75	34.37	34.53	21.20	5.245	0.586	0.394	0.428	0.342
290.0	331.3	353.1	298.8	191.3	130.7	144.1	173.5	285.4	512.3	444.5	243.8	539.9	1914	4382	3208	397.8	17.74	4.189	2.989	2.396	1.920	1.586	1.411	1.259	1.153	0.991	0.960	0.993	0.860	0.786	0.720	0.793	0.657	0.791	0.872	0.915	0.961	0.899	0.764	0.724	0.753	0.662	0.803	0.836	0.907	1.031	1.078	1.174	0.974	0.829	0.692	0.734	0.695	0.791	0.709	0.871	0.950	1.052	1.200	1.604	2.241	3.000	3.178	2.257	1.514	1.246	1.719	2.667	5.060	9.859	16.00	25.97	27.96	27.09	15.30	4.561	0.736
295.0	414.0	457.1	389.5	250.7	156.2	150.5	167.3	196.3	303.3	654.6	630.4	384.5	621.1	1174	2894	5054	535.0	14.07	3.992	2.819	2.248	1.939	1.637	1.549	1.323	1.202	1.044	0.927	0.849	0.898	0.791	0.746	0.720	0.848	0.955	0.907	0.985	0.864	0.922	0.840	0.787	0.771	0.809	0.871	1.061	1.157	1.224	1.336	1.415	1.065	0.835	0.905	0.798	0.822	0.785	0.805	0.884	0.998	1.032	1.222	1.220	1.742	2.463	3.724	4.463	2.844	2.099	1.892	2.486	3.308	4.538	6.789	8.055	15.98	32.99	34.99	22.05
300.0	445.0	513.7	446.7	293.3	182.3	167.0	182.1	211.3	268.0	487.4	934.1	590.5	414.2	446.5	888.2	4053	4321	82.95	8.212	3.523	2.911	2.433	1.827	1.640	1.286	1.296	1.147	0.933	0.968	0.945	0.816	0.875	0.775	0.755	0.940	0.967	0.825	0.974	0.866	0.841	0.891	0.832	0.903	1.027	1.176	1.282	1.254	1.429	1.493	1.242	0.958	0.935	0.881	0.833	0.846	0.861	0.996	1.175	1.079	1.198	1.277	1.511	1.784	2.432	4.175	5.022	4.014	2.513	2.116	2.189	2.304	2.558	2.874	4.517	10.63	21.99	39.20
305.0	498.7	561.3	486.0	316.1	205.8	192.6	224.4	260.2	321.3	434.6	806.5	986.3	516.3	355.1	354.8	1273	4557	3299	64.51	5.321	3.431	2.659	1.927	1.753	1.464	1.325	1.072	0.907	0.999	1.106	0.908	0.851	0.816	0.927	0.880	1.074	1.127	0.969	1.012	0.902	0.858	0.920	0.983	1.148	1.226	1.352	1.349	1.560	1.479	1.270	1.133	1.033	0.895	0.957	0.871	1.043	1.081	1.218	1.289	1.415	1.566	1.734	1.798	2.084	2.834	4.078	5.387	5.114	2.841	2.352	1.973	2.026	2.026	2.068	3.270	6.103	14.37
310.0	502.3	585.3	515.4	336.6	232.9	225.4	257.1	300.9	369.9	468.6	645.4	920.1	904.1	495.7	297.8	408.6	1376	3244	3263	291.1	15.09	3.599	2.447	2.079	1.633	1.548	1.171	1.174	1.040	1.174	0.895	0.853	0.913	0.958	0.861	1.054	1.117	1.021	1.011	0.898	0.956	0.917	1.064	1.149	1.294	1.421	1.496	1.535	1.474	1.332	1.098	1.159	1.057	1.176	1.058	1.202	1.241	1.448	1.504	1.643	1.698	1.845	2.051	2.337	2.582	3.068	3.593	4.559	4.947	4.638	3.501	2.648	2.074	1.926	1.752	2.321	4.096
315.0	554.5	633.2	528.8	386.1	274.9	259.3	285.9	354.5	417.7	524.9	639.7	746.2	881.9	868.6	412.2	268.9	420.8	820.3	2193	3962	431.1	12.19	3.657	2.725	1.948	1.780	1.388	1.274	1.150	1.404	0.955	1.047	0.855	0.857	0.891	0.957	1.047	1.083	1.003	0.927	0.905	0.942	1.103	1.053	1.192	1.556	1.676	1.714	1.538	1.392	1.323	1.217	1.235	1.301	1.278	1.269	1.515	1.546	1.607	1.812	1.849	2.219	2.438	2.497	2.820	3.137	3.209	3.557	3.703	4.530	4.881	4.891	3.452	1.973	1.810	1.790	2.083
320.0	620.1	716.7	595.7	424.8	307.9	288.9	329.9	392.7	476.3	575.8	684.1	752.0	775.7	918.8	673.9	303.5	251.0	282.3	621.1	2883	3451	64.41	6.660	3.613	2.535	1.974	1.499	1.436	1.224	1.537	1.007	0.941	0.928	0.878	0.911	0.871	1.052	1.025	1.031	0.979	0.965	1.094	1.330	1.365	1.388	1.739	1.600	1.902	1.727	1.569	1.296	1.430	1.311	1.385	1.412	1.337	1.530	1.652	1.692	2.025	2.105	2.291	2.570	2.970	2.979	3.034	3.091	3.591	3.494	3.999	3.991	5.004	5.217	3.855	2.618	1.879	1.880
325.0	686.1	833.1	762.6	539.9	359.6	341.1	360.5	421.3	512.6	619.7	722.5	787.5	767.4	791.3	836.1	463.4	257.8	192.6	220.3	854.6	3270	2753	53.37	5.036	2.831	2.523	1.580	1.638	1.262	1.554	0.960	0.955	0.876	0.854	0.789	0.887	0.966	1.097	0.945	0.975	1.069	1.222	1.193	1.303	1.620	2.006	1.989	2.175	2.265	1.788	1.578	1.652	1.478	1.650	1.464	1.499	1.605	1.686	1.817	2.143	2.076	2.300	2.660	2.971	3.250	3.286	3.449	3.480	3.923	3.850	3.508	4.055	4.707	5.062	4.151	2.771	2.185
330.0	774.6	980.3	953.2	726.1	470.0	389.4	406.3	460.0	547.3	661.4	779.1	839.5	831.7	764.4	732.6	667.8	414.5	223.0	165.3	269.3	954.2	2455	2624	243.5	14.86	3.092	2.084	1.808	1.449	1.659	1.165	1.084	0.938	0.932	0.962	0.925	1.017	1.091	0.900	1.055	1.065	1.097	1.260	1.498	1.678	2.129	2.355	2.667	2.770	2.314	2.024	2.071	1.920	1.794	1.740	1.573	1.865	1.999	1.963	2.216	2.318	2.769	2.969	3.237	3.289	3.575	3.786	3.699	4.009	4.041	3.888	3.753	3.993	4.112	4.253	4.241	3.688
335.0	831.6	1099	1076	908.7	578.4	454.0	452.2	498.4	595.7	707.0	833.3	887.7	880.5	813.1	698.1	619.7	627.6	366.3	201.1	174.5	285.1	609.4	1672	3373	383.6	13.47	3.080	2.121	1.766	2.071	1.207	1.205	0.940	0.990	0.916	1.018	1.046	1.043	0.934	1.007	1.172	1.160	1.233	1.563	1.832	2.419	2.490	2.898	2.919	2.624	2.453	2.545	2.168	2.294	1.937	1.987	2.051	2.153	2.064	2.277	2.479	2.762	3.130	3.446	3.317	3.759	3.867	4.019	4.237	4.046	4.205	3.966	4.121	3.981	3.618	3.711	3.811
340.0	865.1	1159	1148	1002	653.5	514.7	497.0	533.7	615.5	730.2	841.7	910.2	906.6	832.7	712.9	586.8	591.9	531.2	265.5	178.3	155.7	193.9	462.3	2365	2922	296.9	6.240	2.655	2.218	2.310	1.601	1.140	0.982	1.055	1.085	1.020	1.065	1.100	1.023	1.028	1.193	1.374	1.307	1.497	1.920	2.316	2.577	3.052	3.340	2.982	2.663	2.688	2.353	2.372	2.078	1.940	2.265	2.397	2.291	2.428	2.590	2.805	3.309	3.193	3.701	3.767	4.000	4.356	4.472	4.059	4.182	4.401	4.226	3.932	3.670	3.432	3.278
345.0	883.7	1118	1175	1080	703.6	566.4	520.5	555.5	643.0	733.3	846.0	904.0	909.5	840.5	731.0	586.8	523.1	558.6	398.3	210.5	149.6	123.9	158.3	687.5	2687	2374	48.59	4.232	2.333	3.105	1.651	1.382	1.075	1.041	1.047	1.088	1.039	1.043	1.218	1.043	1.096	1.245	1.147	1.514	1.906	2.319	2.438	2.937	3.193	2.883	2.821	3.010	2.408	2.702	2.187	2.123	2.335	2.298	2.416	2.592	2.593	3.081	3.238	3.237	3.621	3.843	4.168	3.932	4.224	4.172	4.522	4.285	4.422	3.935	3.899	3.553	3.359
350.0	850.0	1094	1154	1097	754.6	614.3	562.6	582.3	654.2	749.4	840.8	894.5	893.4	845.1	744.1	612.3	521.3	482.1	482.3	348.8	200.7	144.7	120.1	211.7	779.3	1984	2128	216.8	13.83	4.113	1.876	1.595	1.134	0.998	1.076	0.978	1.039	1.089	1.100	1.077	1.076	1.200	1.313	1.553	1.744	2.266	2.506	2.806	3.080	2.835	2.846	3.155	2.792	2.896	2.403	2.263	2.379	2.323	2.550	2.709	2.769	3.060	3.214	3.200	3.739	3.886	4.091	3.951	4.099	4.306	4.311	4.282	4.453	4.010	3.901	3.585	3.494
355.0	837.7	1043	1116	1073	806.0	662.9	603.6	627.5	682.6	745.7	836.5	882.2	881.0	843.7	746.6	638.9	549.9	478.7	434.2	461.4	329.2	200.4	149.0	135.7	226.7	494.5	1349	2562	346.9	16.76	2.514	2.008	1.338	1.222	1.076	1.078	1.010	1.024	1.032	1.088	1.197	1.225	1.326	1.455	1.737	2.325	2.458	3.069	3.040	2.902	2.779	3.135	2.874	2.834	2.574	2.377	2.586	2.640	2.869	2.697	2.802	3.085	3.405	3.647	3.438	3.546	3.960	4.127	4.048	4.150	4.223	4.189	4.434	3.992	3.862	3.729	3.827
360.0	785.5	1000	1082	1054	852.6	710.2	658.7	655.2	705.6	767.3	839.3	876.1	875.0	831.7	751.6	654.9	573.2	499.4	440.5	439.4	435.8	278.7	185.6	142.6	131.1	160.5	375.1	1826	2395	327.7	5.483	2.246	1.464	1.265	1.199	1.050	1.138	1.049	1.040	1.155	1.014	1.231	1.271	1.563	1.624	2.270	2.241	2.900	3.012	2.810	2.649	3.177	3.014	3.193	2.725	2.743	2.844	2.775	2.733	2.874	3.080	3.372	3.382	3.677	3.666	3.599	3.985	4.069	3.812	4.051	4.160	4.280	4.140	4.061	3.968	3.827	3.883
365.0	771.7	977.9	1072	1059	867.7	736.7	686.5	685.0	724.7	775.2	824.8	864.5	857.3	828.6	759.1	667.1	599.0	523.0	464.3	426.9	448.3	387.1	235.7	171.8	133.3	106.3	131.7	545.3	2237	3145	45.32	3.564	1.975	1.432	1.512	1.128	1.008	1.071	1.103	1.126	1.066	1.150	1.357	1.447	1.684	2.097	2.203	2.637	2.989	2.618	2.674	3.089	3.096	3.304	2.955	2.897	2.962	2.840	2.932	2.909	3.033	3.292	3.355	3.717	3.803	3.675	3.857	3.813	3.998	3.897	4.100	4.015	4.507	4.327	4.061	3.961	3.969
370.0	766.2	942.4	1027	1047	882.6	768.7	718.7	718.0	743.7	788.4	829.8	857.9	842.6	813.6	758.3	677.7	616.9	558.6	504.9	454.6	427.0	433.0	359.1	233.0	169.2	127.5	101.1	168.4	654.6	3826	1914	196.3	12.21	2.059	1.624	1.439	1.156	1.246	1.177	1.065	1.071	1.152	1.304	1.478	1.654	1.953	2.163	2.530	2.739	2.670	2.633	3.209	3.131	3.258	3.024	2.977	3.037	2.870	2.984	3.045	3.047	3.408	3.473	3.613	3.792	3.809	3.705	3.917	3.774	3.957	4.046	4.105	4.222	4.111	4.063	3.885	3.980
375.0	748.1	914.0	1016	1017	893.6	800.0	773.3	744.3	756.2	792.6	835.1	842.7	831.9	793.5	753.7	684.2	628.9	584.0	537.6	494.5	447.3	413.5	424.5	343.1	222.2	162.8	121.7	109.8	193.1	921.8	1256	2228	300.6	10.65	2.375	1.520	1.271	1.354	1.092	1.091	1.096	1.118	1.374	1.417	1.688	2.020	2.100	2.453	2.559	2.486	2.577	2.990	3.018	3.303	3.081	2.911	3.079	3.285	3.174	3.009	3.161	3.416	3.362	3.611	3.743	3.655	3.643	3.725	3.603	4.039	4.252	3.881	4.250	3.996	3.761	4.226	4.150
380.0	735.3	891.0	1004	1013	896.1	830.6	791.2	766.4	778.3	795.4	810.3	824.6	814.6	781.8	741.8	679.5	635.5	593.0	558.9	516.9	466.8	422.2	410.4	411.7	287.1	194.4	149.5	113.4	105.0	250.8	352.8	1658	1980	218.5	4.774	1.902	1.523	1.535	1.194	1.173	1.082	1.198	1.303	1.501	1.682	1.944	2.037	2.417	2.622	2.347	2.546	3.029	3.330	3.321	3.166	2.965	3.086	3.375	3.445	3.118	3.332	3.446	3.322	3.634	3.668	3.777	3.676	3.874	3.633	3.847	3.927	3.833	4.034	3.890	3.762	4.415	3.963
385.0	715.8	891.7	990.9	988.3	880.0	840.2	801.6	768.2	774.9	801.1	801.2	816.4	798.8	768.1	736.5	675.1	641.7	599.4	569.5	529.2	490.0	444.9	402.0	407.2	366.8	238.6	176.4	133.8	101.7	113.2	117.6	494.7	1859	1544	36.67	3.177	1.890	1.496	1.214	1.207	1.164	1.199	1.270	1.437	1.679	1.966	2.116	2.350	2.375	2.407	2.594	3.156	3.133	3.450	3.055	3.250	3.236	3.535	3.505	3.303	3.421	3.537	3.613	3.431	3.587	3.575	3.687	3.837	3.602	3.826	3.749	3.765	3.671	3.983	3.856	4.016	3.940
390.0	714.8	875.1	962.1	1001	901.7	851.6	814.9	776.8	779.0	790.5	798.1	801.8	778.3	755.0	716.0	670.8	632.2	605.7	576.2	546.1	505.6	465.2	422.8	393.8	385.6	328.8	229.9	170.1	131.4	107.3	81.65	148.6	546.5	1355	1369	152.9	9.823	2.049	1.599	1.387	1.183	1.243	1.290	1.431	1.699	1.822	2.056	2.325	2.403	2.387	2.565	3.059	3.035	3.277	3.167	3.187	3.257	3.376	3.440	3.299	3.303	3.415	3.501	3.652	3.644	3.518	3.541	3.650	3.640	3.764	3.614	3.824	3.915	3.912	3.921	4.040	3.838
395.0	707.2	869.8	954.1	947.6	905.3	856.7	807.5	782.7	787.2	796.1	792.4	783.7	758.2	738.9	699.5	657.3	626.2	598.7	577.3	552.5	521.2	484.1	443.8	404.6	373.9	365.4	316.0	218.2	167.5	131.0	98.64	88.17	158.5	339.8	956.4	1622	241.6	7.578	2.289	1.606	1.398	1.354	1.499	1.463	1.784	1.916	1.832	2.325	2.371	2.288	2.531	3.062	3.159	3.310	3.109	3.174	3.223	3.416	3.611	3.222	3.241	3.334	3.596	3.505	3.709	3.550	3.533	3.432	3.527	3.627	3.665	3.667	3.881	3.950	3.779	4.149	3.979
400.0	693.0	874.9	942.5	951.8	904.2	873.3	829.9	792.7	794.9	781.4	784.3	767.0	754.1	728.5	689.6	648.8	622.6	589.9	571.3	550.7	519.8	493.5	457.2	422.9	381.1	359.2	361.2	272.2	198.9	156.2	116.7	88.44	78.58	108.0	274.3	1250	1405	37.43	4.158	1.876	1.520	1.410	1.379	1.534	1.666	1.757	2.059	2.396	2.390	2.285	2.399	3.190	3.171	3.242	2.993	3.146	3.328	3.566	3.659	3.200	3.538	3.266	3.388	3.422	3.604	3.469	3.525	3.318	3.675	3.601	3.533	3.544	3.867	4.051	3.652	3.871	4.120
405.0	710.0	842.3	925.5	952.7	899.6	871.6	821.0	802.5	793.5	774.8	784.0	763.9	749.0	724.0	680.4	636.4	608.3	580.6	566.6	544.6	521.2	498.9	467.1	433.5	395.9	359.1	359.5	328.5	239.4	182.4	139.8	103.9	76.42	64.09	89.62	383.2	1380	1100	31.29	2.962	1.714	1.483	1.614	1.519	1.689	1.870	1.979	2.357	2.438	2.274	2.501	3.008	3.075	3.318	3.096	3.118	3.494	3.411	3.505	3.607	3.494	3.450	3.470	3.226	3.532	3.679	3.316	3.302	3.533	3.615	3.550	3.611	3.740	3.788	3.583	3.630	3.810
410.0	677.1	827.5	904.8	927.2	887.6	864.9	823.7	811.9	791.9	777.7	773.8	750.7	734.4	704.6	657.1	616.8	587.1	568.4	547.6	531.5	513.5	493.2	469.7	443.2	409.1	371.1	346.0	336.6	303.4	223.6	165.3	126.0	92.07	67.99	57.92	112.2	413.9	1028	1017	139.6	7.869	1.834	1.645	1.612	1.769	1.929	1.915	2.274	2.479	2.310	2.413	3.054	3.119	3.296	3.146	3.111	3.381	3.360	3.353	3.476	3.430	3.686	3.422	3.298	3.404	3.409	3.301	3.221	3.362	3.503	3.393	3.698	3.718	3.570	3.748	3.669	3.602
415.0	661.2	810.2	863.2	887.0	850.1	833.0	812.4	801.5	781.1	764.8	760.6	725.6	706.4	680.2	637.0	594.4	557.1	539.0	524.2	509.7	498.2	483.4	461.6	441.6	412.5	382.2	349.9	321.8	321.0	279.1	196.5	144.9	110.2	80.46	60.06	58.77	115.3	255.6	714.8	1183	204.2	6.073	1.942	1.772	1.725	1.830	1.919	2.266	2.231	2.250	2.446	3.026	3.141	3.038	3.151	3.043	3.244	3.307	3.547	3.345	3.209	3.558	3.508	3.703	3.195	3.173	3.234	3.075	3.376	3.400	3.320	3.394	3.733	3.834	3.407	3.363	3.424
