Sample:	'1
File name:	T2025051302ñã¼Ò´å¶«ÇÅ01.FD3
Run date:	'11:14:13, 05/16/2025
Operator:	Administrator
Comment:	'

Instrument
Model:	F-2700 FL Spectrophotometer
Serial number:	23B8-004
ROM Version:	4J14000 07

Instrument parameters
Measurement type:	3-D scan
Data mode:	Fluorescence
EX  Start WL:	220.0 nm
EX  End WL:	600.0 nm
EX Sampling interval:	5.0 nm
EM  Start WL:	230.0 nm
EM  End WL:	650.0 nm
EM Sampling interval:	5.0 nm
Scan speed:	12000 nm/min
EX Slit:	5.0 nm
EM Slit:	5.0 nm
PMT Voltage:	700 V
Response:	Auto 
Corrected spectra:	Off
Contour interval:	50.000

Peak integration
Integration method:	Rectangular
Sensitivity:	1
Threshold:	1.000

Peaks
No.	ApexEX/EM(nm)	Height(Data)
1	225.0/340.0	821.0
2	225.0/415.0	830.3
3	225.0/485.0	485.9
4	225.0/635.0	43.32
5	235.0/510.0	325.5
6	240.0/265.0	378.1
7	240.0/525.0	273.9
8	245.0/270.0	406.3
9	245.0/535.0	219.8
10	250.0/275.0	510.1
11	250.0/420.0	718.5
12	250.0/550.0	181.5
13	255.0/280.0	548.6
14	255.0/425.0	700.1
15	255.0/560.0	147.8
16	260.0/290.0	478.9
17	260.0/575.0	117.0
18	265.0/295.0	591.6
19	265.0/585.0	98.40
20	270.0/300.0	821.3
21	270.0/600.0	85.82
22	275.0/305.0	834.3
23	275.0/335.0	522.6
24	275.0/345.0	522.3
25	275.0/610.0	71.56
26	280.0/625.0	58.61
27	285.0/320.0	744.0
28	285.0/635.0	43.31
29	290.0/325.0	642.5
30	300.0/335.0	431.5
31	305.0/345.0	401.1
32	310.0/350.0	336.3
33	315.0/355.0	338.1
34	320.0/365.0	349.5
35	325.0/370.0	334.2
36	330.0/375.0	340.1
37	335.0/385.0	337.3
38	340.0/390.0	329.5
39	345.0/395.0	318.7
40	350.0/400.0	318.8
41	505.0/275.0	3.003
42	510.0/280.0	3.432
43	520.0/285.0	3.533
44	530.0/290.0	2.943
45	540.0/295.0	3.863
46	545.0/300.0	4.642
47	550.0/305.0	4.728
48	560.0/310.0	4.175
49	570.0/315.0	4.577
50	580.0/320.0	4.341
51	585.0/325.0	4.178

Data points
	220.0	225.0	230.0	235.0	240.0	245.0	250.0	255.0	260.0	265.0	270.0	275.0	280.0	285.0	290.0	295.0	300.0	305.0	310.0	315.0	320.0	325.0	330.0	335.0	340.0	345.0	350.0	355.0	360.0	365.0	370.0	375.0	380.0	385.0	390.0	395.0	400.0	405.0	410.0	415.0	420.0	425.0	430.0	435.0	440.0	445.0	450.0	455.0	460.0	465.0	470.0	475.0	480.0	485.0	490.0	495.0	500.0	505.0	510.0	515.0	520.0	525.0	530.0	535.0	540.0	545.0	550.0	555.0	560.0	565.0	570.0	575.0	580.0	585.0	590.0	595.0	600.0
230.0	86.61	1212	3113	888.1	43.40	6.461	5.772	5.010	3.840	3.648	3.292	2.926	2.652	2.246	1.725	1.618	1.212	1.295	1.238	0.988	0.885	0.877	0.777	0.742	0.768	0.693	0.740	0.579	0.631	0.658	0.603	0.553	0.490	0.484	0.471	0.405	0.446	0.446	0.436	0.427	0.561	0.823	0.820	0.544	0.369	0.344	1.244	6.126	10.35	7.244	2.688	0.707	0.280	0.284	0.268	0.244	0.296	0.271	0.279	0.262	0.258	0.288	0.283	0.300	0.257	0.299	0.285	0.252	0.265	0.245	0.266	0.332	0.269	0.282	0.300	0.278	0.300
235.0	200.4	346.8	1696	2740	600.7	55.30	6.254	5.352	4.701	4.236	3.130	2.762	2.982	2.270	1.941	1.841	1.451	1.248	1.222	1.225	1.013	0.962	0.805	0.758	0.857	0.779	0.727	0.596	0.587	0.570	0.628	0.557	0.540	0.433	0.485	0.368	0.477	0.505	0.405	0.432	0.497	0.561	0.569	0.703	0.780	0.517	0.545	1.747	3.686	6.408	9.066	9.105	4.130	1.053	0.358	0.260	0.272	0.298	0.271	0.271	0.268	0.307	0.276	0.266	0.307	0.328	0.240	0.264	0.327	0.301	0.234	0.269	0.307	0.286	0.309	0.363	0.332
240.0	258.8	228.0	488.6	2166	2778	456.1	28.95	5.938	4.854	3.578	3.955	3.679	2.775	2.376	1.992	1.755	1.521	1.449	1.250	1.260	0.966	0.933	0.836	0.799	0.713	0.801	0.647	0.611	0.579	0.578	0.551	0.561	0.585	0.596	0.493	0.484	0.422	0.478	0.472	0.474	0.451	0.469	0.449	0.569	0.844	0.862	0.720	0.751	1.139	1.947	4.443	10.73	13.09	8.940	3.310	0.708	0.298	0.288	0.292	0.275	0.300	0.297	0.326	0.261	0.298	0.274	0.342	0.258	0.282	0.291	0.278	0.287	0.290	0.307	0.349	0.293	0.296
245.0	160.8	302.4	197.2	704.0	2835	2755	331.5	13.90	5.826	4.858	4.674	3.499	3.181	2.356	1.821	1.628	2.037	1.336	1.286	1.251	1.027	1.107	0.793	0.894	0.729	0.757	0.697	0.650	0.589	0.599	0.567	0.565	0.598	0.530	0.444	0.530	0.408	0.524	0.386	0.493	0.411	0.426	0.477	0.425	0.552	0.851	1.089	0.876	0.635	0.661	1.219	3.484	8.725	14.74	14.53	8.034	2.146	0.425	0.288	0.289	0.284	0.292	0.291	0.278	0.283	0.300	0.325	0.278	0.294	0.322	0.269	0.281	0.287	0.259	0.302	0.340	0.258
250.0	68.44	196.1	273.1	261.4	886.5	2593	3275	1121	63.60	7.065	5.160	4.109	3.497	2.656	2.253	1.731	1.893	1.442	1.445	1.221	1.031	1.078	0.960	0.807	0.802	0.796	0.732	0.716	0.628	0.648	0.607	0.620	0.525	0.508	0.464	0.499	0.414	0.475	0.421	0.436	0.421	0.376	0.420	0.387	0.411	0.518	0.630	0.871	1.002	0.864	0.748	1.117	2.313	4.805	8.801	13.00	17.05	15.17	8.274	2.495	0.418	0.310	0.298	0.266	0.263	0.287	0.271	0.306	0.311	0.312	0.271	0.297	0.293	0.275	0.274	0.288	0.270
255.0	43.26	65.62	170.6	332.7	297.8	665.2	2482	4975	1502	57.39	6.681	5.385	4.506	3.578	2.623	2.174	1.789	1.532	1.327	1.285	1.086	0.980	0.921	0.819	0.799	0.773	0.814	0.717	0.732	0.663	0.780	0.625	0.567	0.475	0.454	0.507	0.391	0.554	0.487	0.437	0.438	0.424	0.438	0.373	0.345	0.401	0.408	0.471	0.608	0.881	1.269	1.503	1.040	1.392	2.276	3.318	6.339	13.97	25.65	25.54	12.69	2.851	0.420	0.317	0.279	0.316	0.286	0.317	0.297	0.339	0.280	0.351	0.280	0.307	0.288	0.273	0.289
260.0	38.50	34.87	70.02	269.2	327.8	217.4	769.6	4056	5411	267.6	24.65	6.743	5.150	3.882	3.279	2.301	2.068	1.653	1.510	1.337	1.218	1.036	1.016	0.836	0.912	0.806	0.850	0.702	0.746	0.670	0.593	0.669	0.523	0.540	0.486	0.469	0.492	0.485	0.463	0.419	0.417	0.447	0.429	0.382	0.372	0.358	0.384	0.351	0.362	0.481	0.890	1.624	1.651	1.189	0.911	1.087	1.792	4.028	11.18	24.27	32.06	24.88	10.24	1.455	0.354	0.295	0.335	0.289	0.309	0.320	0.276	0.321	0.284	0.327	0.251	0.348	0.321
265.0	38.91	31.76	32.93	131.8	378.1	262.4	225.1	1379	5709	5212	207.2	12.24	6.251	4.720	3.407	2.899	2.233	1.892	1.710	1.321	1.122	1.084	1.091	0.870	0.896	0.792	0.891	0.665	0.787	0.688	0.637	0.681	0.568	0.585	0.505	0.474	0.498	0.474	0.444	0.373	0.455	0.500	0.467	0.434	0.388	0.412	0.344	0.352	0.383	0.372	0.477	0.925	1.668	1.990	1.391	0.846	0.829	1.300	2.952	7.160	17.39	34.75	32.98	21.38	5.964	0.625	0.376	0.365	0.362	0.319	0.338	0.348	0.303	0.347	0.290	0.351	0.334
270.0	44.51	37.15	30.06	55.23	199.8	406.3	295.1	375.2	1849	5345	6242	802.7	42.06	6.330	4.516	3.654	2.673	2.239	1.891	1.556	1.387	1.317	1.147	1.050	1.029	0.866	0.806	0.719	0.746	0.777	0.728	0.746	0.690	0.583	0.594	0.562	0.539	0.521	0.474	0.484	0.498	0.524	0.454	0.505	0.438	0.469	0.356	0.375	0.390	0.361	0.331	0.557	0.814	1.189	1.874	1.995	1.794	1.200	1.168	2.014	4.453	10.09	17.72	29.56	31.60	32.15	15.07	5.297	0.646	0.454	0.383	0.346	0.308	0.356	0.355	0.346	0.415
275.0	77.52	61.77	41.35	41.18	94.08	227.4	510.1	326.8	459.0	1352	4869	8979	1071	29.16	6.634	4.479	3.374	2.511	2.214	1.889	1.428	1.409	1.413	1.228	1.130	0.995	0.845	0.791	0.846	0.789	0.801	0.724	0.733	0.688	0.671	0.614	0.708	0.548	0.539	0.551	0.457	0.539	0.450	0.536	0.555	0.509	0.396	0.520	0.421	0.360	0.311	0.435	0.518	0.643	0.972	1.218	2.303	3.003	1.966	1.178	1.404	2.666	4.383	7.094	9.905	23.37	46.27	51.49	22.72	5.206	0.596	0.382	0.334	0.349	0.387	0.331	0.378
280.0	103.1	89.31	61.21	47.14	68.13	132.1	357.1	548.6	233.6	348.3	1454	7528	8116	145.8	14.48	6.101	4.140	3.308	2.770	2.168	1.574	1.498	1.379	1.260	1.191	1.097	0.944	0.873	0.908	0.839	0.779	0.790	0.684	0.812	0.718	0.735	0.746	0.627	0.614	0.623	0.509	0.560	0.557	0.584	0.566	0.536	0.468	0.609	0.558	0.417	0.301	0.431	0.495	0.622	0.717	0.807	1.260	2.281	3.432	2.670	1.471	1.000	1.496	1.983	2.709	6.182	16.66	37.13	55.26	32.36	16.89	2.365	0.468	0.387	0.402	0.400	0.372
285.0	154.9	117.1	95.04	62.78	71.88	93.96	175.3	499.7	344.9	160.9	389.4	2438	9091	6157	104.8	9.811	5.377	3.820	2.787	2.206	1.829	1.678	1.462	1.413	1.200	1.094	0.991	0.974	0.919	0.770	0.750	0.750	0.766	0.903	0.831	0.861	0.881	0.731	0.877	0.640	0.560	0.672	0.625	0.697	0.590	0.580	0.567	0.634	0.556	0.452	0.355	0.522	0.530	0.538	0.571	0.656	0.853	1.080	2.043	3.223	3.533	1.799	0.980	0.863	1.110	1.915	4.246	9.808	22.81	42.52	58.69	28.90	10.81	1.041	0.419	0.424	0.421
290.0	240.5	210.6	155.1	96.42	80.46	92.94	110.3	224.1	478.9	431.4	221.4	652.1	2799	6741	6319	423.8	21.39	5.465	3.816	2.913	2.402	2.039	1.686	1.566	1.354	1.179	1.093	1.063	0.958	0.869	0.861	0.872	0.702	0.924	0.949	0.932	1.089	0.880	0.939	0.804	0.779	0.725	0.701	0.790	0.731	0.698	0.748	0.809	0.705	0.616	0.496	0.580	0.542	0.544	0.553	0.646	0.739	0.715	1.018	1.491	2.214	2.919	2.943	2.235	1.326	1.186	1.629	2.834	5.863	11.32	22.63	33.20	42.88	38.77	18.72	8.467	1.247
295.0	334.7	292.0	225.1	139.0	97.82	102.8	106.0	135.0	239.0	591.6	553.8	318.5	759.6	1711	4910	6486	585.4	16.33	5.214	4.181	2.720	2.488	2.027	1.660	1.496	1.196	1.271	1.109	0.994	1.001	0.887	0.869	0.802	0.918	1.149	1.108	1.255	1.167	1.189	0.881	0.960	1.048	0.951	0.947	0.932	0.993	0.945	0.993	0.925	0.694	0.715	0.637	0.574	0.684	0.654	0.692	0.874	0.683	0.759	0.941	1.130	1.439	2.007	3.734	3.863	2.703	1.497	1.613	2.205	3.482	5.807	8.202	11.54	19.32	41.01	57.38	29.21
300.0	385.9	351.5	274.0	181.1	119.8	109.4	122.6	140.5	187.5	391.1	821.3	465.8	334.2	513.7	1431	6310	5427	83.72	9.038	5.423	3.692	2.851	2.075	1.840	1.488	1.587	1.209	1.221	1.103	0.960	0.996	0.951	0.899	0.949	1.174	1.283	1.415	1.183	1.238	1.163	0.963	1.043	0.881	1.068	1.054	1.099	1.071	1.144	1.061	0.829	0.719	0.796	0.688	0.827	0.696	0.720	0.741	0.851	0.956	0.861	0.984	1.110	1.431	2.199	3.449	4.642	3.504	1.797	1.716	1.824	2.348	2.654	3.322	5.178	12.42	31.25	53.16
305.0	428.8	413.1	322.8	211.1	155.0	136.7	144.0	175.2	211.7	308.6	666.7	834.3	377.9	290.7	435.5	2050	7294	4158	62.42	6.475	4.653	3.218	2.385	1.948	1.815	1.586	1.345	1.224	1.078	1.139	0.946	1.048	0.918	1.014	1.208	1.415	1.600	1.414	1.343	1.296	1.235	1.124	1.023	1.104	1.124	1.301	1.159	1.303	1.102	0.870	0.844	0.881	0.758	0.883	0.710	0.851	0.775	0.933	1.082	1.140	1.206	1.126	1.390	1.867	2.381	3.399	4.728	4.410	2.616	1.817	1.905	1.627	1.836	2.150	3.596	8.249	18.61
310.0	484.0	485.8	370.7	237.2	173.5	154.6	169.7	205.8	246.4	317.4	470.6	754.9	735.5	364.3	249.2	549.9	2276	5187	4711	288.5	14.76	4.451	3.085	2.416	2.137	1.609	1.374	1.401	1.175	1.292	1.026	0.997	0.894	1.111	1.166	1.470	1.551	1.353	1.414	1.395	1.371	1.181	1.237	1.208	1.321	1.328	1.279	1.474	1.263	0.955	0.846	0.967	0.873	0.877	0.872	0.850	1.052	1.009	1.101	1.260	1.306	1.392	1.555	1.821	2.097	2.361	2.981	3.818	4.175	4.032	3.054	1.952	1.637	1.648	1.711	2.697	4.867
315.0	521.4	534.9	408.9	264.6	187.2	169.4	194.1	237.2	278.0	340.7	436.1	529.2	724.8	683.5	279.0	233.8	578.8	1282	3909	4489	422.4	10.88	4.049	3.119	2.488	1.882	1.770	1.521	1.307	1.220	1.050	0.980	0.952	1.030	1.239	1.435	1.612	1.464	1.435	1.437	1.365	1.209	1.302	1.316	1.367	1.526	1.427	1.583	1.471	1.094	0.940	1.070	0.934	0.964	0.867	0.851	1.146	1.108	1.219	1.292	1.464	1.471	1.674	1.887	2.190	2.143	2.336	2.500	2.788	3.524	4.577	4.131	2.569	1.743	1.371	1.415	2.024
320.0	599.0	601.0	465.2	296.1	201.9	184.6	218.4	258.0	294.2	364.0	442.4	491.1	550.2	744.0	475.2	189.4	215.1	338.9	1115	4811	3956	62.05	7.006	4.061	3.225	2.354	1.860	1.695	1.526	1.259	1.166	0.994	1.066	0.985	1.221	1.349	1.553	1.594	1.434	1.345	1.307	1.217	1.233	1.470	1.616	1.702	1.554	1.590	1.590	1.159	1.053	1.089	0.952	0.946	0.991	1.011	1.132	1.255	1.303	1.406	1.457	1.650	1.663	1.918	2.118	2.068	2.123	2.427	2.599	2.537	3.377	4.064	4.341	3.103	1.692	1.455	1.454
325.0	663.8	673.2	548.8	331.7	224.2	204.0	229.9	270.6	309.1	384.7	452.3	490.7	495.4	575.2	642.5	280.2	150.9	140.4	290.4	1584	5500	3136	48.09	5.451	3.778	2.974	2.107	2.035	1.613	1.384	1.239	1.184	1.055	1.053	1.377	1.514	1.625	1.321	1.440	1.323	1.413	1.270	1.362	1.412	1.434	1.731	1.726	1.790	1.695	1.323	1.182	1.185	1.024	1.113	1.015	1.039	1.295	1.318	1.343	1.428	1.686	1.744	1.752	2.000	2.064	2.267	2.134	2.392	2.695	2.287	2.674	3.076	3.644	4.178	3.255	1.868	1.401
330.0	710.0	727.4	642.9	409.6	267.2	226.0	243.6	287.1	325.5	402.0	468.1	505.1	499.5	472.9	513.0	472.9	236.7	117.4	118.2	394.6	1745	4036	3677	232.9	12.44	3.745	2.760	2.123	1.810	1.557	1.423	1.293	1.256	1.161	1.242	1.458	1.576	1.440	1.376	1.393	1.342	1.421	1.436	1.475	1.593	1.864	1.840	2.009	2.011	1.565	1.320	1.443	1.237	1.139	1.155	1.064	1.219	1.325	1.440	1.508	1.675	1.736	1.964	2.196	2.126	2.365	2.290	2.419	2.711	2.436	2.543	2.405	2.591	3.062	3.108	3.232	2.732
335.0	747.1	769.8	705.8	465.6	319.0	273.2	274.9	303.1	348.5	419.1	487.2	522.6	516.0	463.3	403.4	403.7	431.5	191.2	99.40	142.0	426.5	1001	3237	3617	354.9	9.520	3.694	2.812	2.002	1.965	1.687	1.452	1.428	1.157	1.310	1.348	1.619	1.469	1.428	1.525	1.329	1.406	1.504	1.635	1.643	1.992	2.045	2.039	2.170	1.735	1.557	1.423	1.366	1.260	1.272	1.202	1.341	1.576	1.443	1.604	1.552	1.691	1.776	2.234	2.255	2.477	2.494	2.488	2.723	2.535	2.441	2.627	2.377	2.615	2.383	2.305	2.828
340.0	772.8	821.0	711.2	521.3	372.9	288.8	292.5	320.8	357.2	418.2	488.3	519.5	520.4	466.9	388.8	330.9	414.8	341.2	132.6	99.93	145.0	259.2	932.1	4021	3297	53.54	5.920	3.572	2.809	2.281	1.730	1.406	1.399	1.478	1.422	1.346	1.560	1.441	1.390	1.492	1.384	1.446	1.455	1.537	1.695	1.886	1.949	2.028	2.349	1.782	1.434	1.585	1.581	1.371	1.252	1.371	1.443	1.554	1.370	1.646	1.786	1.992	1.907	2.232	2.202	2.520	2.451	2.490	2.765	2.562	2.414	2.692	2.467	2.317	2.078	2.006	2.041
345.0	753.6	780.3	733.6	557.6	393.8	317.7	309.2	329.2	371.9	432.3	484.2	522.3	520.5	474.9	394.0	316.6	317.5	401.1	230.4	111.7	95.73	104.9	244.5	1323	4559	2758	44.51	4.787	3.175	2.278	1.801	1.601	1.295	1.444	1.322	1.326	1.599	1.572	1.651	1.461	1.359	1.459	1.571	1.701	1.751	1.948	1.945	2.222	2.255	1.825	1.612	1.815	1.685	1.531	1.422	1.430	1.501	1.460	1.673	1.665	1.815	2.027	2.080	2.229	2.141	2.569	2.519	2.675	2.549	2.722	2.425	2.455	2.481	2.406	2.081	1.960	2.159
350.0	743.0	775.0	717.1	573.7	434.8	364.2	339.1	355.4	382.5	431.2	481.9	516.6	517.2	475.2	406.3	328.8	287.8	308.7	336.3	216.9	117.8	92.75	106.7	337.0	1431	3282	3110	215.0	13.06	3.133	2.427	1.864	1.392	1.532	1.525	1.420	1.505	1.470	1.557	1.430	1.354	1.393	1.535	1.542	1.695	1.991	1.871	2.183	2.190	1.887	1.855	1.896	1.753	1.679	1.564	1.595	1.670	1.704	1.768	1.691	1.983	1.946	2.052	2.224	2.293	2.460	2.414	2.623	2.444	2.555	2.469	2.441	2.525	2.467	2.366	2.123	2.089
355.0	731.1	770.8	695.6	582.1	462.2	411.1	374.1	391.1	405.4	448.3	486.4	513.4	510.0	478.7	418.0	355.9	303.2	275.6	284.3	338.1	214.0	122.7	102.8	135.2	362.0	809.8	2485	3254	346.3	11.79	3.368	2.397	1.634	1.579	1.390	1.269	1.380	1.431	1.548	1.386	1.358	1.519	1.449	1.712	1.631	1.836	1.905	2.157	2.090	1.809	1.759	1.995	1.826	1.881	1.746	1.717	1.757	1.875	1.824	1.812	2.013	1.965	2.131	2.209	2.324	2.368	2.479	2.357	2.583	2.447	2.430	2.636	2.717	2.488	2.420	2.184	2.009
360.0	747.4	740.5	693.3	590.9	492.9	438.6	421.1	414.8	425.9	465.0	494.4	518.0	510.7	486.9	430.0	371.2	324.8	293.0	270.3	319.9	324.2	177.6	123.8	107.6	134.0	222.2	698.2	3111	3090	281.9	6.762	3.184	2.154	1.780	1.608	1.465	1.450	1.425	1.449	1.506	1.423	1.518	1.509	1.599	1.602	1.915	1.762	1.992	2.068	1.940	1.755	1.888	1.900	1.813	1.860	1.894	1.969	1.926	1.916	2.088	2.148	2.166	2.120	2.111	2.272	2.453	2.490	2.385	2.431	2.558	2.521	2.527	2.670	2.612	2.379	2.363	2.353
365.0	734.2	738.7	684.7	613.8	537.3	464.7	453.1	439.6	453.8	481.2	506.9	516.4	515.1	485.1	442.1	388.4	347.9	313.8	280.9	280.7	349.5	272.5	161.5	122.6	106.3	101.4	196.7	978.8	3734	2751	45.57	4.545	2.663	1.873	1.520	1.560	1.616	1.442	1.385	1.440	1.525	1.478	1.528	1.556	1.613	1.861	1.877	1.951	2.013	1.830	1.850	1.988	1.979	2.195	2.064	1.917	1.937	1.994	2.174	2.161	2.277	2.302	2.256	2.417	2.492	2.324	2.491	2.496	2.442	2.476	2.845	2.450	2.580	2.605	2.415	2.512	2.382
370.0	718.7	742.9	699.2	626.6	567.9	519.0	499.2	484.5	492.9	500.6	525.2	525.3	524.7	495.2	454.5	412.4	377.5	349.6	315.6	297.8	304.9	334.2	270.0	171.1	126.4	103.4	102.1	262.8	1126	2855	2955	753.7	13.85	2.776	2.001	1.763	1.722	1.657	1.458	1.453	1.462	1.459	1.580	1.552	1.813	1.877	1.878	2.082	2.014	1.867	1.828	2.195	2.175	2.161	2.302	2.219	2.115	2.307	2.219	2.235	2.339	2.409	2.531	2.425	2.529	2.533	2.522	2.482	2.440	2.719	2.629	2.576	2.682	2.659	2.632	2.590	2.537
375.0	739.9	763.9	724.4	661.7	599.2	562.8	538.2	533.1	523.8	532.1	542.5	545.6	536.5	501.1	470.4	434.6	406.1	380.2	350.9	327.1	309.5	306.7	340.1	267.2	168.0	131.7	107.1	119.7	293.3	696.7	2096	3710	326.5	14.69	2.948	2.102	1.972	1.710	1.680	1.512	1.749	1.428	1.716	1.467	1.698	1.809	1.747	2.006	1.887	1.854	1.788	2.240	2.208	2.234	2.367	2.360	2.410	2.417	2.462	2.484	2.556	2.401	2.493	2.194	2.652	2.577	2.594	2.657	2.620	2.664	2.589	2.610	2.707	2.680	2.672	2.603	2.724
380.0	748.2	766.3	725.2	683.2	639.8	596.0	571.0	562.4	555.0	553.1	555.7	559.5	538.2	519.0	484.1	445.5	424.6	404.0	375.5	352.4	327.8	301.2	321.8	335.8	226.2	157.7	123.8	102.7	121.5	194.4	574.2	2734	2739	264.7	6.826	2.646	2.146	2.061	1.675	1.699	1.654	1.704	1.754	1.665	1.722	1.829	1.851	2.008	1.869	1.925	1.853	2.379	2.327	2.290	2.412	2.391	2.702	2.567	2.438	2.653	2.432	2.452	2.635	2.589	2.701	2.622	2.541	2.555	2.563	2.957	2.465	2.833	2.783	2.930	2.772	2.670	2.880
385.0	766.3	776.3	739.5	691.4	654.1	630.1	598.4	582.5	572.5	572.7	569.6	575.1	547.5	525.5	496.3	458.3	437.7	420.1	398.2	374.3	348.9	321.7	309.4	337.3	304.7	196.3	147.2	117.1	96.67	91.59	163.3	799.8	2884	2391	39.71	4.331	2.586	2.364	1.872	1.774	1.666	1.614	1.786	1.641	1.861	1.946	1.889	2.029	2.075	2.003	1.940	2.320	2.369	2.456	2.532	2.325	2.681	2.620	2.400	2.555	2.474	2.826	2.560	2.635	2.719	2.554	2.558	2.675	2.595	2.865	2.593	2.903	2.953	3.004	2.769	2.751	3.024
390.0	755.6	803.5	759.4	714.8	682.1	639.3	626.8	609.9	607.5	593.9	587.9	580.5	560.9	533.8	504.2	468.2	450.3	437.2	416.2	395.8	374.1	349.1	322.4	316.0	329.5	282.3	193.8	147.3	115.4	92.97	87.86	213.6	823.4	2089	2270	675.0	13.59	2.882	2.318	2.013	1.858	1.811	1.802	1.647	1.867	2.066	1.951	2.116	2.097	2.020	1.994	2.345	2.498	2.556	2.666	2.525	2.823	2.547	2.606	2.763	2.704	2.893	2.704	2.840	2.805	2.787	2.723	2.825	2.677	2.888	2.866	3.063	2.879	3.028	2.932	2.889	2.966
395.0	774.7	805.5	761.1	741.6	698.3	670.1	670.4	640.5	626.9	622.4	606.9	590.2	574.8	538.4	513.0	481.5	458.5	447.8	434.7	416.0	390.3	374.7	346.9	325.8	309.9	318.7	276.7	190.3	146.9	115.3	90.70	96.18	217.2	501.8	1339	2799	284.7	16.52	3.023	2.296	2.038	1.956	1.974	1.984	2.078	1.977	1.895	2.143	2.142	2.050	2.074	2.551	2.621	2.817	2.626	2.735	2.854	2.714	2.813	2.850	2.893	3.083	2.951	2.938	2.797	2.747	2.886	2.878	2.638	2.755	2.709	3.062	3.066	3.096	2.944	3.063	3.178
400.0	780.3	808.7	768.8	757.7	720.6	693.6	689.6	661.7	644.9	643.1	618.7	597.5	577.9	551.5	518.5	483.8	467.9	457.2	439.8	425.7	403.9	386.1	360.7	338.2	314.4	304.2	318.8	245.2	172.8	137.9	105.2	82.14	89.77	141.3	353.3	1768	2311	248.0	9.459	2.876	2.266	2.155	2.023	1.983	2.107	2.043	1.920	2.193	2.184	2.219	2.029	2.461	2.675	2.771	2.716	2.724	2.840	2.942	2.681	2.899	3.084	2.930	2.971	2.938	2.866	2.751	2.841	2.995	2.873	2.885	2.997	2.898	3.072	3.149	2.952	3.059	3.366
405.0	830.3	805.8	775.1	750.2	735.1	708.4	694.2	683.6	663.9	643.4	632.0	601.4	581.6	552.9	514.2	483.3	466.7	462.6	446.6	431.2	410.6	390.6	373.6	349.3	323.6	300.0	308.9	298.4	211.4	158.6	124.3	92.28	72.65	68.69	104.7	481.9	1929	2079	193.4	5.117	2.669	2.417	2.183	2.168	2.193	2.200	2.022	2.342	2.154	2.050	2.089	2.651	2.675	2.613	2.768	2.646	3.000	3.091	2.791	3.046	3.088	2.988	2.836	3.067	2.824	2.797	2.803	2.945	2.820	2.752	2.893	2.941	3.016	2.928	2.969	3.033	3.403
410.0	800.8	824.1	789.7	745.2	734.8	707.6	705.2	695.4	678.5	658.0	642.6	610.4	581.3	550.0	510.2	479.5	464.6	457.1	441.8	427.9	410.4	397.2	382.2	361.9	337.2	311.7	296.9	300.6	273.0	199.8	147.0	111.6	83.63	63.80	57.60	132.0	522.0	1490	1833	611.0	14.00	2.847	2.332	2.331	2.192	2.177	2.242	2.318	2.280	2.071	2.008	2.645	2.578	2.805	2.789	2.686	2.882	3.150	3.095	3.220	2.926	3.116	2.871	3.001	2.926	2.860	3.062	2.890	2.949	2.971	2.906	2.950	2.965	2.953	2.871	2.901	3.182
