Sample:	'1
File name:	t2025022704¶þ²ã³Ø4  2Íò±¶.FD3
Run date:	'10:57:35, 02/28/2025
Operator:	Administrator
Comment:	'

Instrument
Model:	F-2700 FL Spectrophotometer
Serial number:	23B8-004
ROM Version:	4J14000 07

Instrument parameters
Measurement type:	3-D scan
Data mode:	Fluorescence
EX  Start WL:	220.0 nm
EX  End WL:	600.0 nm
EX Sampling interval:	5.0 nm
EM  Start WL:	230.0 nm
EM  End WL:	650.0 nm
EM Sampling interval:	5.0 nm
Scan speed:	12000 nm/min
EX Slit:	5.0 nm
EM Slit:	5.0 nm
PMT Voltage:	700 V
Response:	Auto 
Corrected spectra:	Off
Contour interval:	50.000

Peak integration
Integration method:	Rectangular
Sensitivity:	1
Threshold:	1.000

Peaks
No.	ApexEX/EM(nm)	Height(Data)
1	225.0/490.0	187.7
2	230.0/250.0	314.4
3	230.0/500.0	163.5
4	235.0/255.0	378.4
5	235.0/515.0	121.5
6	240.0/265.0	473.6
7	240.0/525.0	126.5
8	245.0/270.0	544.1
9	245.0/540.0	129.5
10	250.0/275.0	743.5
11	250.0/550.0	118.7
12	255.0/565.0	138.2
13	260.0/575.0	200.6
14	265.0/585.0	270.5
15	270.0/300.0	3386
16	270.0/595.0	252.6
17	290.0/325.0	480.1
18	295.0/330.0	305.3
19	300.0/335.0	291.3
20	305.0/345.0	249.6
21	310.0/350.0	179.8
22	315.0/355.0	177.5
23	320.0/360.0	159.9
24	325.0/370.0	123.2
25	330.0/375.0	115.1
26	335.0/380.0	122.5
27	340.0/385.0	100.1
28	350.0/400.0	84.76
29	355.0/405.0	75.81
30	360.0/410.0	57.72
31	365.0/420.0	59.16
32	370.0/425.0	56.76
33	375.0/430.0	42.96
34	380.0/440.0	40.10
35	385.0/300.0	7.940
36	385.0/445.0	37.64
37	390.0/450.0	28.73
38	395.0/460.0	25.83
39	400.0/465.0	23.83
40	405.0/470.0	17.43
41	410.0/475.0	15.56
42	415.0/485.0	14.83
43	420.0/490.0	11.80
44	425.0/500.0	11.15
45	430.0/505.0	10.14
46	435.0/510.0	7.664
47	440.0/300.0	5.409
48	440.0/520.0	7.625
49	445.0/525.0	6.356
50	455.0/540.0	4.674
51	460.0/545.0	3.762
52	465.0/555.0	2.846
53	470.0/560.0	2.578
54	480.0/575.0	1.513
55	485.0/265.0	2.555
56	485.0/580.0	1.557
57	495.0/270.0	2.802
58	505.0/275.0	4.148
59	510.0/280.0	4.868
60	545.0/300.0	15.76
61	550.0/305.0	14.61
62	585.0/325.0	3.643

Data points
	220.0	225.0	230.0	235.0	240.0	245.0	250.0	255.0	260.0	265.0	270.0	275.0	280.0	285.0	290.0	295.0	300.0	305.0	310.0	315.0	320.0	325.0	330.0	335.0	340.0	345.0	350.0	355.0	360.0	365.0	370.0	375.0	380.0	385.0	390.0	395.0	400.0	405.0	410.0	415.0	420.0	425.0	430.0	435.0	440.0	445.0	450.0	455.0	460.0	465.0	470.0	475.0	480.0	485.0	490.0	495.0	500.0	505.0	510.0	515.0	520.0	525.0	530.0	535.0	540.0	545.0	550.0	555.0	560.0	565.0	570.0	575.0	580.0	585.0	590.0	595.0	600.0
230.0	90.03	920.6	2051	562.7	24.18	5.572	4.605	3.566	3.191	2.945	2.913	2.392	1.781	1.537	1.104	1.068	0.827	0.761	0.751	0.690	0.698	0.590	0.564	0.536	0.546	0.478	0.462	0.455	0.464	0.420	0.432	0.365	0.371	0.338	0.367	0.375	0.343	0.346	0.303	0.352	0.492	0.807	0.878	0.491	0.314	0.306	1.110	4.453	6.685	4.248	1.479	0.390	0.244	0.240	0.224	0.209	0.241	0.233	0.252	0.253	0.264	0.249	0.293	0.259	0.259	0.265	0.270	0.291	0.247	0.243	0.261	0.271	0.257	0.290	0.278	0.275	0.310
235.0	236.2	286.5	1223	1739	458.4	27.18	4.572	3.946	3.479	3.341	2.502	2.638	1.933	1.563	1.135	0.995	1.002	0.704	0.794	0.746	0.650	0.762	0.587	0.622	0.533	0.545	0.540	0.426	0.509	0.506	0.420	0.375	0.358	0.359	0.337	0.328	0.341	0.361	0.342	0.348	0.370	0.484	0.774	0.814	0.861	0.476	0.504	1.249	2.801	4.427	5.759	5.282	2.002	0.630	0.218	0.217	0.240	0.237	0.239	0.242	0.273	0.254	0.251	0.245	0.245	0.256	0.324	0.249	0.234	0.239	0.346	0.269	0.256	0.290	0.294	0.271	0.313
240.0	330.3	225.1	375.2	1534	1727	322.1	12.61	4.930	3.754	3.881	3.076	2.967	2.277	1.568	1.102	1.252	0.871	0.861	0.731	0.711	0.632	0.626	0.569	0.593	0.508	0.534	0.501	0.431	0.516	0.457	0.366	0.398	0.403	0.381	0.326	0.384	0.342	0.392	0.305	0.330	0.372	0.328	0.444	0.625	1.080	0.977	0.581	0.552	0.852	1.510	3.571	7.529	8.016	5.115	1.592	0.360	0.222	0.236	0.289	0.216	0.251	0.266	0.287	0.225	0.241	0.250	0.283	0.251	0.250	0.229	0.312	0.243	0.245	0.293	0.251	0.224	0.287
245.0	224.4	339.6	169.4	545.0	1945	1603	211.1	7.433	4.564	3.638	3.106	3.052	2.178	1.917	1.152	1.074	0.867	0.845	0.740	0.681	0.672	0.635	0.534	0.505	0.522	0.463	0.460	0.521	0.536	0.422	0.388	0.382	0.418	0.422	0.311	0.334	0.389	0.376	0.371	0.287	0.323	0.327	0.342	0.432	0.569	0.983	1.166	0.763	0.501	0.521	1.046	2.764	6.509	10.29	8.430	3.850	0.990	0.299	0.256	0.285	0.242	0.256	0.253	0.237	0.232	0.284	0.250	0.259	0.252	0.262	0.268	0.289	0.229	0.289	0.250	0.247	0.308
250.0	85.60	238.8	314.4	232.8	663.0	1751	1919	565.4	26.26	4.950	3.738	3.496	2.396	2.025	1.418	1.286	0.959	0.885	0.922	0.719	0.667	0.695	0.537	0.520	0.536	0.499	0.527	0.527	0.481	0.435	0.453	0.419	0.404	0.367	0.361	0.326	0.335	0.330	0.326	0.319	0.314	0.301	0.299	0.315	0.341	0.483	0.730	1.018	1.107	0.920	0.664	0.896	1.802	3.693	6.074	8.690	10.57	8.039	3.911	1.066	0.284	0.247	0.328	0.244	0.246	0.270	0.294	0.279	0.251	0.256	0.303	0.262	0.257	0.280	0.277	0.241	0.242
255.0	46.11	75.41	236.8	378.4	248.6	488.4	1750	2595	268.3	21.66	5.586	3.869	3.099	2.288	1.754	1.337	1.151	1.044	0.874	0.803	0.668	0.738	0.530	0.555	0.507	0.531	0.488	0.501	0.537	0.452	0.535	0.434	0.454	0.394	0.347	0.320	0.344	0.329	0.312	0.368	0.373	0.309	0.322	0.290	0.296	0.313	0.360	0.489	0.649	1.080	1.435	1.345	0.857	1.147	1.630	2.457	4.936	10.79	16.76	13.22	5.501	0.958	0.288	0.275	0.301	0.261	0.266	0.263	0.261	0.253	0.288	0.283	0.256	0.272	0.301	0.263	0.248
260.0	36.64	32.38	92.67	352.8	350.4	198.4	597.1	2592	2126	205.0	10.10	6.161	3.312	2.663	2.125	1.481	1.227	1.178	1.142	0.771	0.684	0.686	0.654	0.613	0.553	0.573	0.458	0.516	0.535	0.497	0.528	0.413	0.458	0.415	0.394	0.449	0.382	0.317	0.331	0.338	0.343	0.320	0.352	0.310	0.258	0.289	0.291	0.346	0.359	0.543	1.034	1.915	1.931	1.232	0.824	0.902	1.517	3.493	8.671	16.17	18.57	11.93	3.808	0.600	0.267	0.276	0.262	0.269	0.274	0.256	0.288	0.270	0.261	0.311	0.270	0.312	0.258
265.0	39.89	26.05	39.33	178.7	473.6	306.1	228.8	999.6	3266	1782	143.1	6.578	4.005	2.926	2.055	1.544	1.321	1.177	1.015	0.789	0.668	0.701	0.614	0.599	0.684	0.519	0.454	0.557	0.528	0.489	0.452	0.504	0.438	0.395	0.387	0.441	0.406	0.346	0.308	0.389	0.354	0.327	0.348	0.314	0.306	0.320	0.262	0.299	0.329	0.344	0.501	1.168	2.200	2.555	1.622	0.920	0.877	1.265	2.460	5.598	12.64	20.67	19.63	9.196	1.991	0.395	0.305	0.266	0.297	0.270	0.258	0.293	0.316	0.272	0.296	0.286	0.269
270.0	51.47	29.89	30.42	85.37	305.0	544.1	345.9	334.4	1163	2813	2764	559.5	19.81	4.143	2.464	1.820	1.485	1.239	1.052	0.907	0.748	0.780	0.689	0.610	0.597	0.560	0.520	0.564	0.532	0.536	0.476	0.480	0.455	0.481	0.421	0.423	0.409	0.389	0.374	0.452	0.390	0.365	0.369	0.350	0.343	0.335	0.309	0.322	0.304	0.288	0.326	0.592	1.076	1.811	2.367	2.802	2.208	1.447	1.207	1.818	3.382	6.662	11.59	16.93	18.21	15.21	7.455	1.760	0.445	0.343	0.291	0.283	0.320	0.274	0.283	0.278	0.308
275.0	167.8	95.71	62.85	90.74	195.6	408.9	743.5	374.4	405.9	874.5	2788	4186	159.4	15.78	3.751	2.176	1.963	1.445	1.116	1.042	1.010	0.842	0.741	0.674	0.680	0.578	0.536	0.635	0.474	0.556	0.514	0.686	0.564	0.812	0.796	0.611	0.744	0.618	0.532	0.570	0.575	0.566	0.563	0.656	0.513	0.571	0.442	0.404	0.375	0.303	0.308	0.554	0.838	1.109	1.364	2.299	3.493	4.148	2.741	1.463	1.501	2.186	3.374	4.825	7.241	14.67	24.31	23.08	10.21	1.979	0.413	0.304	0.296	0.332	0.274	0.302	0.343
280.0	557.0	321.6	202.4	173.9	224.4	349.2	667.8	882.7	362.4	680.4	1364	4169	3455	121.7	7.908	3.337	2.534	1.783	1.529	1.152	0.930	0.904	0.813	0.750	0.670	0.583	0.636	0.655	0.579	0.562	0.634	0.904	1.309	1.885	1.834	1.316	1.254	1.196	1.030	1.203	1.176	1.251	1.248	1.298	1.109	1.173	0.869	0.774	0.762	0.606	0.592	0.796	0.952	1.000	1.250	1.702	2.447	3.734	4.868	3.639	2.556	2.400	2.954	3.502	4.361	6.245	11.86	21.91	28.21	19.59	6.427	0.894	0.449	0.337	0.411	0.299	0.423
285.0	1143	699.2	454.2	343.6	298.9	364.2	557.0	1103	1141	1137	1340	2168	4536	2469	77.21	4.799	2.988	2.631	1.989	1.206	1.159	0.972	0.991	0.832	0.675	0.570	0.672	0.722	0.682	0.617	0.609	1.418	2.595	3.529	3.440	2.385	2.150	2.033	1.985	2.241	2.269	2.202	2.234	2.401	2.229	2.115	1.663	1.476	1.440	1.003	1.054	1.208	1.276	1.253	1.350	1.696	2.090	2.676	4.111	5.814	6.200	4.786	4.992	5.316	5.966	6.139	7.024	9.783	15.93	25.36	26.18	14.79	3.621	0.638	0.444	0.390	0.414
290.0	1924	1265	841.2	613.8	447.3	420.7	594.6	1038	1796	2204	2060	1873	1958	3135	2205	312.7	9.778	3.007	2.367	1.744	1.268	1.092	0.967	1.010	0.793	0.713	0.763	0.724	0.671	0.629	0.884	2.047	4.426	5.759	5.426	4.193	3.549	3.173	3.208	3.295	3.421	3.549	3.649	3.923	3.721	3.520	2.899	2.748	2.307	1.872	1.819	2.059	1.737	1.614	1.688	1.805	2.352	2.802	3.765	4.997	7.081	9.072	10.34	10.13	9.687	9.308	8.878	8.658	8.332	9.326	12.54	17.21	19.14	17.33	10.15	2.965	0.658
295.0	2519	1732	1184	843.7	560.1	458.4	632.9	1074	1815	2895	2971	2155	1145	952.5	2304	3084	86.55	6.428	2.758	2.020	1.688	1.523	1.069	1.108	0.961	0.768	0.802	0.590	0.613	0.716	0.945	2.347	5.487	7.284	6.966	5.751	4.852	4.406	4.179	3.827	4.325	4.678	4.530	4.957	4.762	4.580	3.983	3.740	2.996	2.656	2.423	2.693	2.293	1.918	1.730	1.945	2.395	3.221	4.029	5.026	6.636	8.927	11.28	14.16	15.16	13.44	11.06	10.10	7.651	5.396	4.555	4.989	6.233	11.60	21.03	23.95	13.60
300.0	2669	1850	1289	902.2	587.4	441.9	627.7	1062	1753	2696	3386	2408	1008	416.2	746.4	2978	2401	66.54	4.260	2.196	2.183	1.561	1.315	1.119	1.069	0.977	0.815	0.707	0.689	0.719	1.073	2.649	5.355	7.940	7.713	6.202	5.251	4.745	4.241	4.379	4.464	4.784	5.196	5.042	5.409	4.771	4.071	3.933	3.652	3.029	2.717	2.861	2.368	1.984	1.787	2.010	2.518	3.253	4.134	5.310	6.366	8.677	10.53	12.81	15.59	15.76	13.61	11.05	7.514	4.617	3.149	2.562	2.313	3.529	7.482	16.16	24.07
305.0	2661	1840	1264	896.2	575.8	418.6	584.6	1001	1644	2393	3030	2693	1033	313.3	243.5	1036	3158	1741	45.16	3.048	2.218	1.713	1.512	1.218	1.016	0.931	0.743	0.761	0.816	0.746	1.108	2.789	5.301	7.864	7.597	6.076	5.138	4.831	4.209	4.331	3.917	4.481	4.834	5.053	5.284	4.697	4.192	3.872	3.531	2.954	2.790	2.856	2.269	1.869	1.604	1.762	2.396	2.884	3.749	5.028	6.179	7.912	9.704	11.23	13.18	14.33	14.61	13.21	8.539	4.631	2.705	2.063	1.703	1.657	2.358	4.598	9.686
310.0	2235	1629	1127	796.0	496.2	350.7	466.3	825.8	1368	1962	2315	2246	1286	368.9	135.1	268.8	1029	2201	1583	215.5	6.562	2.212	1.630	1.342	1.276	1.092	0.859	0.801	0.770	0.798	0.978	2.262	4.614	6.609	6.726	5.658	4.682	4.229	3.690	3.732	3.786	4.053	4.156	4.406	4.450	4.375	3.808	3.390	3.143	2.719	2.382	2.465	2.001	1.693	1.407	1.527	1.998	2.494	3.161	4.257	5.217	6.597	8.157	9.300	10.42	10.35	10.64	11.20	9.315	6.578	3.832	2.157	1.511	1.255	1.273	1.659	2.751
315.0	1783	1273	913.3	639.1	401.0	271.8	362.3	621.0	1033	1480	1716	1537	1056	667.3	136.1	94.49	248.3	553.7	1642	2255	62.37	4.602	2.213	1.575	1.275	1.098	0.903	0.860	0.837	0.760	0.910	1.852	3.817	5.408	5.311	4.676	4.085	3.444	3.139	2.966	3.002	3.071	3.452	3.607	3.430	3.303	3.176	2.824	2.551	2.150	2.021	2.037	1.618	1.371	1.246	1.255	1.478	1.754	2.507	3.188	3.868	5.331	6.123	7.126	7.907	7.642	7.431	7.579	6.202	5.096	5.024	4.181	2.213	1.366	0.911	1.014	1.241
320.0	1416	1078	734.5	529.7	316.0	210.3	288.9	489.2	807.7	1145	1324	1170	714.1	665.8	328.7	63.46	73.82	137.6	486.0	2056	1780	51.44	3.078	1.871	1.405	1.156	0.916	0.825	1.028	0.648	0.903	1.600	3.103	4.644	4.470	3.831	3.532	3.272	2.543	2.475	2.590	2.692	2.706	3.050	2.715	2.797	2.463	2.418	2.140	1.741	1.606	1.700	1.446	1.053	1.021	1.081	1.236	1.646	1.917	2.443	3.011	4.197	5.006	5.631	5.982	6.014	6.047	5.567	4.679	3.363	3.270	3.812	3.872	2.563	1.100	0.734	0.764
325.0	1112	861.5	602.5	427.3	264.4	169.9	226.2	377.5	623.4	887.0	1032	914.4	519.8	403.8	480.1	105.7	34.40	42.71	121.3	677.3	2188	1375	37.50	2.295	1.581	1.319	1.062	0.882	0.943	0.807	0.858	1.369	2.689	3.842	3.776	3.220	3.126	2.606	2.211	2.100	2.203	2.241	2.243	2.380	2.333	2.362	1.904	2.009	1.779	1.510	1.330	1.496	1.202	0.865	0.865	0.913	1.007	1.344	1.511	2.173	2.700	3.023	3.830	4.398	4.785	4.863	4.713	4.599	3.726	2.781	2.130	2.222	2.886	3.643	2.875	1.221	0.747
330.0	852.5	660.7	461.6	336.9	198.2	127.7	163.8	271.7	442.5	638.4	739.3	664.5	381.9	223.8	276.2	305.3	115.4	24.29	36.71	162.7	688.6	1581	1159	186.1	6.246	1.619	1.164	1.040	0.953	0.856	0.758	1.177	2.253	2.931	3.100	2.736	2.480	2.079	1.909	1.734	1.759	1.767	1.790	1.829	1.833	1.801	1.553	1.590	1.456	1.194	1.072	1.204	1.020	0.799	0.735	0.724	0.814	1.028	1.147	1.520	1.953	2.280	2.929	3.254	3.616	3.523	3.545	3.302	2.757	2.058	1.546	1.414	1.495	1.849	2.338	2.523	2.050
335.0	665.9	500.5	370.3	237.8	150.2	97.39	111.3	188.7	308.9	441.0	517.8	467.9	279.2	150.5	116.6	182.6	291.3	70.63	17.79	44.52	161.6	387.8	1106	1749	53.24	4.443	1.433	1.270	1.000	0.885	0.832	1.215	1.861	2.077	2.291	2.262	1.965	1.774	1.577	1.292	1.294	1.336	1.422	1.465	1.434	1.433	1.271	1.220	1.228	0.949	0.837	0.997	0.795	0.648	0.590	0.595	0.738	0.775	0.881	1.108	1.423	1.570	2.046	2.467	2.490	2.553	2.718	2.316	1.919	1.536	1.281	1.100	0.953	1.005	1.022	1.209	1.793
340.0	528.5	411.0	297.0	193.1	122.0	77.73	87.44	142.0	231.4	328.6	388.7	359.5	222.6	118.7	71.23	75.03	225.7	216.8	35.24	17.56	43.76	94.77	314.9	1486	1444	46.36	2.640	1.395	1.080	0.970	0.892	1.175	1.443	1.868	1.901	1.856	1.536	1.481	1.305	1.145	1.154	1.183	1.182	1.265	1.178	1.258	1.077	1.097	1.071	0.834	0.819	0.777	0.672	0.553	0.520	0.473	0.615	0.658	0.794	0.886	1.071	1.329	1.623	1.851	1.874	1.953	2.138	1.927	1.682	1.216	1.063	0.939	0.711	0.730	0.629	0.756	0.880
345.0	429.3	326.5	240.9	166.7	98.88	61.58	69.17	111.5	172.7	250.8	298.8	279.1	178.8	99.86	57.16	39.58	98.09	249.6	79.83	16.81	16.84	28.82	78.32	462.9	1616	1104	35.74	1.772	1.287	1.166	1.044	1.091	1.475	1.602	1.692	1.636	1.442	1.324	1.257	1.021	0.996	1.046	1.042	0.953	1.000	1.106	0.961	0.908	0.897	0.751	0.668	0.672	0.584	0.476	0.483	0.458	0.546	0.534	0.652	0.843	0.994	1.065	1.254	1.480	1.496	1.536	1.659	1.621	1.386	0.990	0.889	0.817	0.736	0.535	0.586	0.623	0.617
350.0	336.8	269.3	194.8	136.8	79.11	51.26	55.01	82.13	123.9	179.4	216.2	204.2	137.9	82.06	46.74	28.55	38.00	108.1	179.8	101.7	20.21	13.51	24.38	110.7	486.8	1095	864.1	174.0	7.816	1.365	1.150	1.034	1.221	1.376	1.466	1.304	1.183	1.164	0.985	0.864	0.858	0.855	0.803	0.872	0.871	0.807	0.805	0.765	0.675	0.565	0.577	0.527	0.552	0.426	0.427	0.441	0.494	0.469	0.540	0.664	0.784	0.885	0.985	1.065	1.176	1.167	1.227	1.219	1.123	0.879	0.712	0.762	0.666	0.595	0.518	0.521	0.485
355.0	286.3	226.6	156.1	107.7	63.17	41.31	42.33	59.18	87.45	127.2	151.1	144.1	106.3	66.55	39.96	24.45	21.92	36.59	80.68	177.5	65.75	13.93	11.93	30.44	113.7	262.0	693.5	1331	256.7	5.728	1.421	1.198	1.137	1.365	1.348	1.095	1.103	0.958	0.797	0.827	0.746	0.690	0.804	0.761	0.639	0.673	0.624	0.713	0.628	0.467	0.476	0.467	0.479	0.377	0.375	0.369	0.398	0.415	0.477	0.585	0.573	0.686	0.757	0.837	0.906	0.948	0.926	0.970	0.910	0.773	0.700	0.614	0.653	0.492	0.474	0.492	0.451
360.0	253.4	187.5	134.2	93.41	58.61	37.21	34.04	48.14	71.69	99.20	119.5	117.5	88.01	58.02	36.55	22.78	18.53	20.02	31.67	112.2	159.9	44.75	9.254	12.41	30.69	63.48	187.4	980.5	1308	46.41	2.652	1.349	1.058	1.322	1.147	0.999	1.023	0.879	0.765	0.661	0.814	0.645	0.625	0.745	0.607	0.647	0.594	0.616	0.579	0.513	0.404	0.424	0.433	0.421	0.369	0.377	0.378	0.435	0.434	0.521	0.542	0.621	0.537	0.755	0.755	0.849	0.753	0.810	0.797	0.680	0.624	0.536	0.574	0.443	0.423	0.440	0.395
365.0	223.7	178.6	117.7	78.57	49.42	33.74	30.87	40.49	58.09	81.26	97.43	95.06	74.60	50.70	33.17	21.50	17.28	15.82	18.14	45.21	144.3	121.1	20.73	8.004	11.66	18.78	47.00	283.2	1261	977.4	37.97	1.936	1.196	1.096	1.085	0.962	0.992	0.840	0.718	0.616	0.717	0.637	0.620	0.655	0.707	0.632	0.509	0.542	0.525	0.492	0.338	0.387	0.357	0.403	0.350	0.310	0.379	0.416	0.381	0.508	0.385	0.503	0.579	0.702	0.605	0.719	0.719	0.772	0.606	0.732	0.519	0.503	0.584	0.448	0.409	0.403	0.441
370.0	201.7	146.7	105.3	71.86	43.23	29.22	27.99	34.19	46.38	61.82	76.29	76.97	60.39	43.53	29.60	20.73	17.16	14.93	14.60	20.35	57.28	123.2	89.88	21.37	7.012	8.132	14.52	67.30	361.2	817.1	717.1	169.0	8.900	1.299	1.202	0.974	0.910	0.805	0.739	0.638	0.594	0.556	0.521	0.629	0.581	0.564	0.482	0.489	0.473	0.425	0.342	0.409	0.417	0.342	0.347	0.347	0.379	0.400	0.376	0.418	0.398	0.482	0.542	0.586	0.566	0.631	0.632	0.617	0.597	0.555	0.501	0.479	0.472	0.449	0.417	0.461	0.436
375.0	158.4	122.2	93.92	61.93	39.93	27.47	24.93	27.91	35.92	50.08	60.58	62.19	49.67	37.13	26.51	19.42	17.74	14.60	14.30	13.97	21.84	46.99	115.1	85.08	13.87	5.101	6.379	18.29	84.02	192.0	498.9	1047	246.3	7.133	1.355	0.971	0.937	0.783	0.644	0.644	0.594	0.509	0.540	0.475	0.505	0.576	0.455	0.428	0.518	0.401	0.338	0.376	0.374	0.366	0.346	0.307	0.313	0.359	0.343	0.374	0.349	0.454	0.450	0.491	0.579	0.604	0.593	0.599	0.596	0.458	0.465	0.501	0.450	0.440	0.405	0.426	0.409
380.0	147.3	118.3	89.99	57.72	37.18	27.04	25.03	24.96	32.48	42.17	50.70	50.93	41.68	34.48	23.57	18.14	17.11	15.47	14.69	12.84	12.82	19.29	61.99	122.5	45.64	6.517	4.216	7.226	22.00	46.15	131.1	690.9	949.7	40.76	3.198	1.085	0.993	0.777	0.724	0.673	0.581	0.534	0.534	0.549	0.480	0.495	0.419	0.450	0.439	0.368	0.364	0.501	0.386	0.311	0.349	0.285	0.339	0.341	0.345	0.405	0.356	0.459	0.441	0.397	0.542	0.466	0.538	0.472	0.556	0.457	0.466	0.472	0.416	0.409	0.370	0.468	0.418
385.0	136.9	103.3	79.67	55.03	37.66	23.23	20.96	22.75	28.07	35.48	42.06	43.90	37.36	29.65	23.21	18.50	16.24	15.24	14.00	12.53	11.58	11.37	23.58	85.61	100.1	22.94	3.990	3.950	7.948	13.08	32.88	190.8	760.1	755.6	33.91	1.765	1.098	0.847	0.652	0.699	0.537	0.521	0.539	0.443	0.430	0.510	0.456	0.426	0.402	0.331	0.356	0.374	0.333	0.315	0.368	0.310	0.374	0.338	0.354	0.367	0.335	0.394	0.422	0.384	0.415	0.419	0.521	0.464	0.514	0.473	0.410	0.514	0.432	0.457	0.361	0.424	0.448
390.0	118.0	96.04	72.48	50.16	34.79	23.10	19.52	20.78	23.03	29.42	36.10	37.69	32.72	27.15	21.38	18.19	16.49	15.31	14.21	11.88	10.55	9.060	10.70	30.81	80.71	70.58	21.21	3.721	3.928	5.687	9.811	45.50	205.0	550.5	510.2	137.2	8.259	0.948	0.703	0.706	0.581	0.627	0.492	0.439	0.435	0.447	0.437	0.449	0.432	0.355	0.344	0.345	0.328	0.330	0.332	0.312	0.356	0.316	0.363	0.342	0.341	0.366	0.373	0.372	0.417	0.444	0.459	0.417	0.503	0.460	0.386	0.405	0.421	0.453	0.490	0.470	0.476
395.0	110.1	83.35	65.36	47.68	34.29	23.10	18.16	19.99	20.29	23.05	30.36	31.78	28.62	24.67	20.66	17.33	16.25	14.80	14.24	11.92	9.775	8.089	7.579	11.33	27.07	71.02	72.55	14.49	2.805	3.361	4.477	12.44	48.09	128.3	319.4	719.2	202.8	6.643	0.828	0.692	0.636	0.559	0.550	0.452	0.514	0.426	0.418	0.420	0.418	0.308	0.286	0.357	0.284	0.319	0.276	0.286	0.325	0.276	0.348	0.372	0.338	0.358	0.373	0.348	0.367	0.388	0.434	0.391	0.430	0.418	0.359	0.378	0.438	0.415	0.437	0.442	0.504
400.0	111.2	86.26	66.79	47.93	32.17	20.29	17.97	18.24	18.39	21.11	27.04	27.48	24.41	22.98	20.31	16.93	15.50	14.12	13.44	11.29	9.123	7.857	6.598	6.147	10.14	33.90	84.76	43.38	6.057	2.715	2.960	4.952	12.91	30.71	82.21	442.6	664.3	35.21	2.554	0.854	0.629	0.496	0.575	0.420	0.474	0.448	0.360	0.437	0.361	0.368	0.323	0.314	0.388	0.308	0.332	0.317	0.330	0.269	0.302	0.316	0.358	0.317	0.367	0.308	0.360	0.417	0.394	0.346	0.379	0.391	0.334	0.417	0.449	0.389	0.442	0.454	0.443
405.0	95.91	83.91	67.25	42.81	30.33	21.44	16.48	15.88	15.26	19.36	22.55	26.32	24.15	20.85	18.02	17.16	15.19	13.83	12.90	11.05	8.876	7.369	5.713	4.542	5.128	12.31	51.87	75.81	23.21	3.028	2.442	3.068	4.998	8.676	20.63	118.9	499.6	515.9	29.35	1.342	0.670	0.542	0.565	0.417	0.422	0.457	0.395	0.479	0.402	0.401	0.353	0.311	0.333	0.332	0.321	0.279	0.394	0.283	0.300	0.312	0.333	0.306	0.395	0.295	0.335	0.361	0.358	0.392	0.366	0.356	0.382	0.409	0.322	0.363	0.440	0.438	0.434
410.0	92.85	78.62	64.48	44.17	29.71	18.76	14.73	13.63	15.18	17.71	19.93	22.76	21.22	19.72	17.46	17.23	14.99	13.26	11.60	10.63	8.560	6.888	5.298	4.314	3.536	5.065	17.46	52.18	57.72	20.30	3.053	2.116	3.080	3.897	6.388	28.55	132.3	363.0	367.1	121.3	6.587	0.625	0.542	0.469	0.442	0.436	0.385	0.481	0.386	0.340	0.305	0.347	0.318	0.309	0.276	0.296	0.356	0.311	0.330	0.307	0.321	0.311	0.358	0.303	0.354	0.338	0.349	0.365	0.348	0.321	0.369	0.433	0.380	0.330	0.363	0.396	0.405
