Sample:	'1
File name:	t2025042402农业综合开发039桥.FD3
Run date:	'13:51:46, 04/27/2025
Operator:	Administrator
Comment:	'

Instrument
Model:	F-2700 FL Spectrophotometer
Serial number:	23B8-004
ROM Version:	4J14000 07

Instrument parameters
Measurement type:	3-D scan
Data mode:	Fluorescence
EX  Start WL:	220.0 nm
EX  End WL:	600.0 nm
EX Sampling interval:	5.0 nm
EM  Start WL:	230.0 nm
EM  End WL:	650.0 nm
EM Sampling interval:	5.0 nm
Scan speed:	12000 nm/min
EX Slit:	5.0 nm
EM Slit:	5.0 nm
PMT Voltage:	700 V
Response:	Auto 
Corrected spectra:	Off
Contour interval:	50.000

Peak integration
Integration method:	Rectangular
Sensitivity:	1
Threshold:	1.000

Peaks
No.	ApexEX/EM(nm)	Height(Data)
1	225.0/575.0	63.21
2	225.0/590.0	62.84
3	225.0/600.0	66.42
4	230.0/345.0	1433
5	230.0/560.0	59.54
6	235.0/510.0	242.5
7	240.0/525.0	217.9
8	245.0/535.0	179.1
9	250.0/550.0	149.2
10	255.0/280.0	528.1
11	255.0/565.0	127.1
12	260.0/290.0	534.1
13	260.0/575.0	107.2
14	265.0/295.0	737.2
15	265.0/585.0	96.45
16	270.0/300.0	1049
17	270.0/600.0	97.88
18	275.0/310.0	1194
19	275.0/335.0	1292
20	275.0/610.0	85.55
21	280.0/315.0	1230
22	280.0/625.0	80.94
23	285.0/320.0	1247
24	285.0/640.0	63.68
25	320.0/365.0	396.4
26	330.0/375.0	357.7
27	335.0/380.0	344.7
28	425.0/500.0	31.80
29	440.0/520.0	19.64
30	455.0/540.0	10.72
31	460.0/340.0	5.075
32	465.0/555.0	6.548
33	475.0/355.0	4.420
34	505.0/275.0	3.830
35	510.0/280.0	3.882
36	520.0/285.0	4.269
37	530.0/290.0	4.263
38	545.0/300.0	6.872
39	550.0/305.0	8.025
40	560.0/310.0	7.937
41	565.0/340.0	7.947
42	570.0/315.0	8.102
43	575.0/320.0	8.684
44	585.0/325.0	7.875

Data points
	220.0	225.0	230.0	235.0	240.0	245.0	250.0	255.0	260.0	265.0	270.0	275.0	280.0	285.0	290.0	295.0	300.0	305.0	310.0	315.0	320.0	325.0	330.0	335.0	340.0	345.0	350.0	355.0	360.0	365.0	370.0	375.0	380.0	385.0	390.0	395.0	400.0	405.0	410.0	415.0	420.0	425.0	430.0	435.0	440.0	445.0	450.0	455.0	460.0	465.0	470.0	475.0	480.0	485.0	490.0	495.0	500.0	505.0	510.0	515.0	520.0	525.0	530.0	535.0	540.0	545.0	550.0	555.0	560.0	565.0	570.0	575.0	580.0	585.0	590.0	595.0	600.0
230.0	56.96	1348	3518	1196	49.19	9.334	7.723	6.245	6.039	5.481	5.083	4.854	4.010	3.924	3.000	2.550	2.527	2.186	2.047	1.943	1.762	1.580	1.567	1.376	1.214	1.229	1.129	1.134	1.026	1.037	1.028	0.941	0.918	0.828	0.782	0.793	0.728	0.712	0.663	0.638	0.641	0.696	0.734	0.638	0.602	0.570	1.295	6.297	13.73	11.59	4.963	1.291	0.507	0.461	0.447	0.444	0.472	0.458	0.455	0.443	0.419	0.408	0.441	0.425	0.429	0.428	0.451	0.442	0.438	0.424	0.407	0.442	0.371	0.409	0.382	0.404	0.437
235.0	90.37	387.3	2470	4486	582.2	80.52	10.37	8.482	7.394	6.318	5.651	5.183	4.144	3.980	3.485	2.621	2.779	2.450	2.513	1.788	1.770	1.788	1.576	1.351	1.475	1.249	1.226	1.239	1.195	1.220	1.118	0.979	0.878	0.807	0.824	0.683	0.722	0.730	0.587	0.620	0.762	0.623	0.680	0.763	0.803	0.589	0.772	1.920	5.112	9.824	16.92	20.48	10.21	2.524	0.579	0.490	0.498	0.482	0.494	0.431	0.443	0.448	0.427	0.437	0.449	0.442	0.538	0.457	0.414	0.427	0.398	0.447	0.404	0.419	0.429	0.354	0.428
240.0	134.2	159.6	773.3	4085	4378	475.3	44.33	9.893	8.423	6.704	6.500	5.580	4.787	4.294	3.491	2.992	2.846	2.757	2.290	1.963	1.596	1.894	1.674	1.406	1.363	1.378	1.249	1.167	1.071	1.252	1.105	0.964	1.031	0.732	0.821	0.801	0.632	0.852	0.714	0.650	0.669	0.673	0.680	0.677	0.868	0.904	0.787	0.987	1.651	2.893	8.543	23.16	30.71	23.01	9.190	1.712	0.522	0.535	0.507	0.438	0.500	0.468	0.453	0.480	0.421	0.475	0.563	0.527	0.421	0.439	0.411	0.408	0.373	0.458	0.492	0.429	0.392
245.0	105.3	178.0	239.4	1453	5399	3765	366.6	20.79	10.98	9.357	7.615	6.143	4.898	4.445	3.857	2.963	3.139	2.503	2.273	1.719	1.749	1.819	1.588	1.490	1.325	1.363	1.343	1.134	1.190	1.137	1.127	1.056	0.970	0.754	0.888	0.813	0.688	0.780	0.761	0.625	0.739	0.706	0.689	0.768	0.803	0.954	1.148	0.877	0.903	0.996	2.286	7.527	19.93	36.82	32.09	21.11	6.831	1.044	0.519	0.563	0.541	0.491	0.439	0.475	0.427	0.493	0.533	0.424	0.426	0.457	0.433	0.436	0.393	0.446	0.455	0.393	0.404
250.0	60.01	151.1	236.5	411.5	1778	5177	5899	1396	90.43	12.93	9.047	8.154	6.112	5.365	4.192	3.415	3.441	2.627	2.577	2.062	1.844	1.692	1.823	1.535	1.464	1.411	1.343	1.225	1.312	1.220	1.114	1.055	0.964	0.849	0.895	0.886	0.741	0.743	0.828	0.687	0.727	0.729	0.661	0.698	0.694	0.691	0.770	0.898	1.269	1.117	1.121	2.216	5.060	11.28	19.99	32.48	40.02	44.45	16.95	6.819	1.012	0.515	0.485	0.530	0.450	0.469	0.491	0.452	0.443	0.471	0.494	0.450	0.434	0.479	0.413	0.460	0.516
255.0	49.24	63.80	181.1	337.5	479.9	1349	5529	9999.9	1928	107.6	12.89	11.98	7.908	6.210	5.760	4.037	3.622	2.945	2.765	2.276	2.090	1.934	1.799	1.698	1.572	1.445	1.579	1.530	1.367	1.210	1.278	1.067	1.037	0.931	1.149	0.908	0.789	0.750	0.901	0.668	0.759	0.777	0.710	0.725	0.670	0.699	0.628	0.649	0.825	1.137	1.513	1.810	1.774	2.926	4.969	7.945	14.63	40.06	67.51	74.06	26.07	7.709	0.899	0.600	0.493	0.574	0.570	0.586	0.460	0.484	0.507	0.522	0.470	0.440	0.424	0.482	0.502
260.0	44.20	42.68	83.61	289.1	331.5	359.9	1763	9869	9999.9	1535	51.27	14.12	10.24	7.408	5.990	4.563	4.673	3.508	2.877	2.815	2.334	2.174	2.022	1.569	1.556	1.600	1.415	1.606	1.610	1.284	1.373	1.076	1.017	0.984	1.212	0.818	0.719	0.829	0.825	0.716	0.831	0.776	0.712	0.724	0.680	0.581	0.569	0.625	0.626	0.678	1.062	1.996	2.044	1.762	1.676	2.238	3.853	10.76	28.10	66.09	89.01	36.08	21.20	3.532	0.662	0.609	0.521	0.589	0.613	0.446	0.478	0.547	0.494	0.425	0.523	0.534	0.469
265.0	44.57	37.40	48.65	149.7	370.3	249.1	440.6	3505	9999.9	9999.9	224.8	29.00	12.70	10.14	7.287	5.682	4.782	3.843	3.274	2.751	2.679	2.426	2.242	1.929	1.721	1.652	1.615	1.687	1.658	1.226	1.528	1.132	1.070	1.001	1.087	0.979	0.772	0.857	0.881	0.729	0.843	0.800	0.781	0.747	0.694	0.649	0.583	0.614	0.571	0.574	0.627	1.206	2.052	2.472	1.842	1.233	1.401	2.995	7.077	18.77	46.13	83.89	109.2	33.11	14.93	1.368	0.673	0.684	0.559	0.576	0.508	0.558	0.545	0.542	0.572	0.467	0.471
270.0	69.90	57.41	51.19	69.64	191.2	369.9	294.5	850.5	3735	9999.9	9999.9	3874	62.04	14.88	10.12	7.485	6.043	4.489	3.925	3.232	2.798	2.498	2.418	2.191	1.981	1.806	1.685	1.804	1.549	1.531	1.609	1.351	1.246	1.143	1.017	1.050	0.853	0.990	0.899	0.761	0.825	0.836	0.797	0.801	0.754	0.736	0.654	0.687	0.669	0.584	0.565	0.778	0.997	1.506	2.068	2.480	2.346	1.851	2.319	4.815	11.24	24.59	52.51	75.15	100.5	82.87	21.60	10.66	1.487	0.653	0.564	0.653	0.574	0.603	0.626	0.590	0.570
275.0	117.4	109.4	94.19	66.61	80.98	202.7	474.8	399.5	888.8	2600	9999.9	9999.9	1231	64.52	15.54	10.59	8.399	6.017	4.711	3.525	3.214	3.020	2.419	2.461	2.288	2.225	1.998	1.799	1.560	1.579	1.449	1.396	1.373	1.152	1.100	1.170	0.904	0.997	0.896	0.881	0.832	1.000	0.866	0.912	0.755	0.882	0.788	0.874	0.835	0.713	0.687	0.715	0.753	0.894	0.925	1.550	2.670	3.830	2.714	2.054	3.089	6.277	12.46	17.87	30.19	64.72	130.2	146.2	33.90	12.28	1.018	0.727	0.657	0.676	0.584	0.662	0.646
280.0	176.9	179.0	154.7	86.14	61.33	95.67	333.3	528.1	337.3	663.1	3047	9999.9	9999.9	903.6	36.10	14.85	10.99	7.526	6.366	4.182	3.601	3.372	2.560	2.641	2.304	2.093	2.028	2.001	1.624	1.823	1.607	1.619	1.464	1.262	1.310	1.354	1.123	1.137	0.955	0.854	1.058	0.963	0.996	0.998	0.940	1.003	1.000	1.052	1.022	0.849	0.716	0.735	0.768	0.912	0.757	0.973	1.554	2.815	3.882	3.367	2.088	2.208	3.576	4.966	7.504	16.67	47.14	111.8	159.3	136.6	27.08	5.549	0.915	0.763	0.691	0.693	0.691
285.0	237.1	281.3	227.1	125.5	70.74	71.39	158.1	510.6	348.9	275.7	804.8	4002	9999.9	8715	125.3	22.48	14.85	8.533	7.291	4.905	4.312	3.733	3.300	2.892	2.492	2.230	2.175	1.989	1.921	1.929	1.826	1.620	1.462	1.545	1.589	1.364	1.186	1.261	1.032	0.991	1.044	1.162	1.063	1.165	1.160	1.109	1.123	1.222	1.220	1.130	0.878	0.833	0.774	0.854	0.780	0.808	1.064	1.339	2.547	3.769	4.269	2.697	1.891	2.056	2.683	4.728	11.59	29.30	68.80	145.0	170.9	39.33	19.58	2.246	0.910	0.776	0.698
290.0	315.0	389.1	338.1	199.5	104.7	85.28	116.7	268.9	534.1	499.3	418.7	1116	3948	9999.9	9999.9	2507	44.29	13.32	10.50	6.818	5.482	4.752	4.105	3.273	2.988	2.502	2.357	2.145	2.107	1.882	1.870	1.648	1.654	1.547	1.641	1.477	1.397	1.322	1.204	1.066	1.067	1.170	1.243	1.249	1.327	1.401	1.368	1.523	1.584	1.381	1.187	1.175	0.950	0.877	0.853	0.910	1.083	1.137	1.437	2.050	3.047	3.999	4.263	3.468	2.354	2.477	4.208	8.064	17.00	38.37	69.58	94.97	136.1	113.5	76.46	14.55	2.566
295.0	404.0	507.4	464.9	286.8	156.8	132.0	146.2	210.2	348.9	737.2	734.0	599.7	1155	2674	9999.9	9999.9	724.6	41.89	15.81	9.667	7.226	5.629	4.912	4.327	3.622	2.811	2.863	2.452	2.435	2.111	1.958	1.997	1.762	1.566	1.890	1.566	1.438	1.455	1.422	1.313	1.244	1.155	1.257	1.382	1.508	1.594	1.690	1.888	1.977	1.687	1.353	1.451	1.209	1.120	1.128	1.114	1.218	1.383	1.340	1.702	2.063	2.404	3.402	5.453	5.637	4.226	3.363	3.832	6.083	10.42	17.18	22.91	35.96	68.58	151.3	196.4	41.37
300.0	459.5	574.0	552.4	345.2	196.8	175.4	194.8	248.1	331.9	597.9	1049	738.8	641.4	875.5	3022	9999.9	9999.9	559.5	27.80	13.17	9.535	7.244	5.998	4.954	3.838	3.373	2.888	2.831	2.589	2.267	2.088	2.066	1.802	1.688	1.887	1.784	1.545	1.450	1.399	1.302	1.282	1.281	1.358	1.470	1.505	1.916	1.958	2.289	2.122	1.903	1.670	1.671	1.470	1.262	1.298	1.378	1.465	1.594	1.599	1.748	1.971	2.398	2.691	3.979	5.646	6.872	5.769	4.311	4.243	5.099	6.005	7.125	9.877	17.75	46.93	119.3	181.8
305.0	497.2	671.8	631.3	394.7	248.7	221.2	263.1	316.3	398.1	565.4	966.2	1173	705.7	573.9	919.2	3835	9999.9	9999.9	79.76	18.42	12.01	8.721	7.241	5.427	4.345	3.558	3.394	3.148	2.614	2.383	2.392	2.069	1.906	1.879	1.914	1.797	1.718	1.521	1.579	1.396	1.337	1.511	1.475	1.539	1.643	1.939	2.273	2.579	2.537	2.144	1.889	1.921	1.584	1.452	1.456	1.578	1.753	1.826	1.916	2.163	2.304	2.616	3.112	3.572	4.463	5.899	8.025	7.425	5.387	4.548	4.271	4.007	4.583	6.086	12.35	30.07	69.08
310.0	573.7	777.6	725.8	465.7	299.2	276.8	328.3	408.2	505.3	651.3	874.1	1194	1157	709.8	543.7	1049	4023	9999.9	9999.9	1809	29.99	12.21	9.330	6.595	5.379	4.435	3.940	3.601	3.072	2.672	2.628	2.350	2.053	1.977	1.964	1.897	1.755	1.693	1.541	1.631	1.401	1.469	1.539	1.601	1.745	1.952	2.267	2.897	2.775	2.389	2.041	2.163	1.876	1.788	1.805	1.798	1.896	2.101	2.348	2.522	3.004	3.293	3.707	3.951	4.452	5.185	6.552	7.388	7.937	7.457	5.884	4.412	4.100	3.947	4.934	8.523	17.15
315.0	633.9	897.4	815.4	541.2	365.7	335.1	398.4	485.5	605.5	760.8	931.8	1104	1230	1119	602.8	481.9	1040	2540	9999.9	9999.9	519.3	29.40	13.43	8.816	6.524	5.002	4.518	3.996	3.457	3.243	2.806	2.429	2.017	2.069	2.093	1.898	1.754	1.819	1.745	1.592	1.718	1.584	1.653	1.783	1.947	2.332	2.577	3.243	3.123	2.696	2.334	2.327	2.110	2.015	1.957	2.227	2.200	2.716	2.731	2.933	3.356	3.688	4.293	4.421	5.068	5.490	5.910	6.501	6.927	7.317	8.102	7.538	5.457	4.246	3.696	4.056	5.716
320.0	725.2	1008	930.9	601.1	400.6	373.3	446.2	543.4	659.4	833.6	1008	1142	1164	1247	854.3	424.8	415.6	680.1	2911	9999.9	9999.9	417.8	22.36	11.39	8.472	5.964	5.087	4.389	3.880	3.283	3.169	2.523	2.349	2.367	2.146	2.087	1.968	1.889	1.726	1.740	1.562	1.814	1.610	1.813	2.111	2.739	2.781	3.386	3.333	2.876	2.597	2.740	2.343	2.255	2.090	2.151	2.432	3.127	2.914	3.007	3.638	3.981	4.608	4.774	5.366	5.574	6.667	6.364	6.754	6.847	7.293	8.684	7.933	5.529	4.190	3.282	3.504
325.0	806.0	1098	1112	702.7	460.4	421.7	481.7	585.4	703.3	888.4	1067	1204	1174	1148	1074	537.6	317.0	287.2	744.6	3741	9999.9	9999.9	63.23	15.81	10.29	7.067	5.954	5.024	4.290	3.704	3.606	2.923	2.758	2.353	2.132	2.148	1.964	1.962	1.737	1.773	1.679	1.675	1.858	2.043	2.075	2.629	3.251	3.802	3.925	3.386	2.918	2.969	2.532	2.398	2.188	2.213	2.693	3.137	3.114	3.287	4.046	4.329	4.936	5.121	5.731	6.062	6.850	6.785	7.018	6.751	6.924	7.154	7.791	7.875	6.052	4.215	3.025
330.0	860.5	1233	1273	869.2	549.7	475.9	522.8	620.8	749.5	931.3	1131	1256	1234	1106	987.8	763.9	423.7	239.0	280.9	926.7	3866	9999.9	9999.9	1467	24.93	10.73	8.128	6.328	5.033	4.424	3.896	3.095	2.812	2.513	2.330	2.189	2.014	2.078	1.735	1.842	1.673	1.699	1.941	2.056	2.182	2.863	3.457	4.393	4.723	3.832	3.376	3.513	2.880	2.581	2.460	2.460	2.818	3.277	3.407	3.575	3.993	4.468	5.105	5.520	6.076	6.358	7.005	7.268	7.525	7.611	7.182	6.957	6.599	6.696	6.470	6.234	5.166
335.0	857.9	1291	1360	992.8	633.2	537.1	558.2	657.9	776.0	963.5	1151	1292	1259	1124	919.8	722.3	647.5	335.5	214.1	316.1	934.6	2514	9999.9	9999.9	435.5	25.24	11.18	8.571	6.643	5.347	4.449	3.570	3.119	2.753	2.696	2.392	2.050	2.001	1.805	1.830	1.685	1.835	1.831	2.077	2.450	3.041	3.520	4.613	5.022	4.347	4.006	3.946	3.153	2.985	2.893	2.701	3.026	3.394	3.383	3.698	4.022	4.583	5.025	5.624	5.997	6.137	7.134	7.780	7.745	7.807	6.974	6.977	6.602	5.952	5.798	5.466	5.766
340.0	884.2	1284	1420	1048	698.1	576.1	585.5	672.7	781.0	951.5	1136	1267	1252	1127	917.4	666.4	634.7	494.1	243.9	199.1	299.5	623.0	2952	9999.9	9999.9	366.1	17.19	10.77	8.044	5.864	5.071	4.142	3.302	2.976	2.474	2.599	2.292	2.070	1.790	1.833	1.713	1.907	1.879	2.150	2.487	2.941	3.787	4.556	5.075	4.571	4.023	4.209	3.527	3.219	3.111	3.025	3.020	3.204	3.631	3.756	4.303	4.561	5.153	5.764	5.830	5.905	7.315	7.230	7.565	7.947	7.077	7.163	6.431	6.357	5.844	5.102	4.830
345.0	859.0	1303	1433	1110	741.1	615.1	597.1	680.2	770.1	928.0	1104	1224	1221	1102	904.1	654.3	545.7	550.5	350.7	195.9	170.6	213.0	719.9	3729	9999.9	9999.9	53.87	14.02	9.273	7.152	5.569	4.567	3.543	3.104	2.797	2.346	2.249	2.059	1.862	1.944	1.654	1.930	1.863	2.039	2.382	2.887	3.670	4.580	4.757	4.334	4.089	4.108	3.665	3.432	3.120	3.011	3.176	3.831	3.600	3.874	4.097	4.273	5.290	5.150	5.772	6.037	7.009	6.942	7.253	7.605	7.103	7.053	6.542	6.356	5.480	4.765	4.637
350.0	781.8	1190	1356	1089	787.9	640.8	622.3	675.6	756.1	898.9	1046	1149	1137	1042	872.3	652.7	515.5	456.7	447.7	303.5	177.5	145.3	235.6	895.5	3790	9999.9	9724	1383	22.49	9.581	7.098	5.417	3.919	3.315	3.109	2.586	2.354	2.179	2.137	1.801	1.686	1.770	1.891	2.164	2.306	2.852	3.404	4.466	4.518	4.188	4.065	4.405	3.689	3.572	3.415	3.203	3.296	3.507	3.721	3.781	4.140	4.358	5.015	5.164	5.728	5.776	6.207	6.781	6.890	7.013	6.689	6.813	6.393	6.027	5.493	4.875	4.636
355.0	709.1	1085	1247	1055	805.4	685.4	656.9	683.8	745.4	851.7	977.8	1070	1052	974.6	836.4	655.3	521.6	430.3	400.7	423.1	273.8	163.2	150.5	273.1	896.2	2472	9620	9999.9	410.9	24.10	10.21	6.509	4.676	4.071	3.345	3.058	2.498	2.409	2.297	1.818	1.932	1.912	1.833	2.191	2.295	2.834	3.282	3.721	4.417	3.846	3.799	4.420	3.769	3.643	3.596	3.341	3.606	3.798	3.721	4.055	4.285	4.532	4.618	4.950	5.462	5.722	6.193	6.061	6.313	6.371	6.279	6.555	6.025	5.758	5.361	4.649	4.695
360.0	686.4	1046	1150	1024	812.1	698.9	667.4	699.9	751.8	831.8	933.7	1000	997.0	924.6	812.1	648.5	535.1	438.7	381.0	395.5	378.3	217.8	154.2	153.0	266.5	599.9	2695	9999.9	9999.9	359.3	16.38	8.475	6.145	4.596	3.752	3.217	2.613	2.394	2.382	1.830	1.873	1.759	1.906	1.947	2.141	2.618	3.080	3.614	4.134	3.758	3.813	4.040	3.938	3.353	3.629	3.417	3.535	3.641	3.771	3.909	4.159	4.470	4.451	4.919	5.273	5.441	5.782	6.044	5.779	5.968	5.903	6.250	5.759	5.551	5.227	5.009	4.749
365.0	630.7	941.0	1078	990.9	828.3	715.2	689.1	708.6	743.6	815.5	901.8	962.0	947.8	888.2	783.2	641.4	546.5	457.9	397.5	360.1	396.4	315.9	185.2	144.3	141.0	192.3	649.5	3559	9999.9	9999.9	52.04	12.37	7.763	5.440	4.448	3.402	2.778	2.627	2.341	2.064	1.746	1.853	1.976	2.074	2.061	2.539	3.063	3.395	3.977	3.749	3.745	4.119	3.930	3.684	3.445	3.508	3.776	3.772	3.944	4.123	4.101	4.302	4.489	4.725	5.116	5.176	5.499	5.700	5.829	5.803	5.665	5.717	5.442	5.749	5.095	4.866	5.088
370.0	587.6	847.1	1014	955.2	830.4	730.9	704.4	710.5	743.8	797.0	857.8	897.9	881.7	830.3	748.0	636.4	553.3	479.6	421.0	370.2	353.7	367.1	290.3	183.8	137.9	123.3	205.0	845.1	3568	9999.9	9825	1294	21.63	7.968	5.656	4.086	3.365	2.930	2.459	2.246	1.951	2.074	1.906	1.969	2.128	2.443	2.790	3.359	3.589	3.409	3.339	4.064	3.903	3.669	3.652	3.813	3.937	3.926	3.842	4.104	4.176	4.364	4.541	4.646	4.851	4.870	5.118	5.267	5.166	5.173	5.377	5.490	5.593	5.276	5.036	4.788	4.716
375.0	527.8	774.1	915.7	895.4	836.2	761.1	718.2	712.9	732.6	772.7	809.4	842.4	830.9	780.9	705.2	627.0	554.7	492.6	443.5	395.9	355.3	331.7	357.7	278.8	171.9	132.4	124.6	247.0	839.4	2465	9431	9999.9	1950	22.52	7.791	5.714	4.180	3.496	2.700	2.407	2.174	2.149	2.105	2.137	2.100	2.391	2.580	3.155	3.317	3.164	3.163	3.987	3.779	3.765	3.737	3.834	3.815	3.924	3.852	4.148	4.243	4.387	4.484	4.519	4.623	4.823	4.733	5.054	4.981	5.282	5.063	5.143	5.027	4.950	4.945	4.789	4.699
380.0	525.2	748.7	873.1	866.3	823.3	771.2	716.8	724.6	720.0	752.3	778.8	810.4	785.2	741.7	684.0	608.9	552.3	498.7	452.2	409.8	364.3	330.3	335.8	344.7	225.5	152.8	121.2	127.4	240.5	592.5	2632	9999.9	9999.9	317.0	14.50	7.048	4.858	3.714	3.076	2.593	2.417	2.235	2.220	2.049	2.105	2.170	2.478	3.069	3.341	2.999	3.204	4.005	3.800	3.928	3.906	3.937	3.733	3.699	3.796	3.972	4.233	4.005	4.500	4.500	4.527	4.378	4.625	4.546	4.799	5.056	5.005	5.032	4.607	4.564	4.834	4.588	4.409
385.0	489.0	712.3	840.8	850.4	812.4	756.9	716.3	714.3	715.5	728.6	757.4	767.1	752.3	710.6	656.4	595.4	545.3	501.9	459.5	421.0	381.9	341.8	317.4	339.8	298.3	187.0	139.6	114.6	119.6	182.8	629.8	3217	9999.9	9314	43.80	10.04	5.938	4.440	3.650	3.066	2.448	2.481	2.178	2.154	2.119	2.198	2.379	2.893	3.115	2.921	3.114	4.074	3.850	3.787	3.824	3.772	4.005	3.826	4.070	4.166	4.243	4.077	4.526	4.386	4.392	4.634	4.556	4.279	4.456	4.595	4.624	4.689	4.630	4.774	4.720	4.356	4.275
390.0	473.8	655.4	793.8	822.8	803.1	749.2	722.7	711.2	701.6	709.1	722.3	735.3	710.1	674.1	629.5	574.3	532.5	495.2	462.4	430.3	393.9	359.9	327.1	311.2	316.7	268.8	179.8	135.6	112.5	105.5	189.8	757.2	3191	9413	7329	1129	18.30	6.347	4.626	3.610	2.996	2.697	2.265	2.233	2.193	2.396	2.533	2.906	3.061	2.913	3.006	3.764	3.767	3.692	3.729	3.798	3.881	3.964	3.790	3.865	4.228	3.874	4.117	4.173	4.326	4.211	4.477	4.236	4.464	4.466	4.617	4.581	4.634	4.522	4.465	4.431	4.380
395.0	474.0	621.0	739.0	789.8	793.1	745.6	725.2	702.2	686.4	700.4	688.5	697.4	673.4	644.1	600.5	548.8	515.6	483.3	459.7	432.3	403.2	370.7	345.2	313.1	295.4	301.2	258.3	172.6	132.3	107.2	105.8	213.9	742.3	2220	6194	9999.9	1799	22.44	6.155	4.609	3.757	3.034	2.433	2.385	2.515	2.330	2.583	2.871	3.127	2.895	3.027	3.556	3.772	3.682	3.852	3.733	3.981	3.912	3.644	3.899	3.990	3.691	4.023	4.201	4.161	3.988	4.218	4.118	3.845	4.167	4.199	4.181	4.350	4.050	4.023	4.009	4.251
400.0	440.8	623.9	738.5	754.6	764.5	735.5	711.5	697.2	672.8	673.8	667.3	675.9	654.7	625.7	576.9	530.6	502.2	474.8	451.8	428.8	406.0	375.4	353.5	322.9	296.9	284.0	294.1	219.2	154.7	122.5	98.25	104.0	203.8	523.3	1658	8438	9936	292.1	14.65	5.662	4.273	3.503	2.822	2.609	2.507	2.481	2.523	2.865	2.843	2.914	2.780	3.611	3.508	3.520	3.724	3.753	3.955	3.845	3.996	4.073	3.598	3.731	3.887	3.951	3.986	3.877	4.126	4.051	3.915	4.082	4.119	4.191	4.179	4.126	4.025	4.184	4.620
405.0	424.0	597.4	702.7	761.0	756.0	728.6	706.3	692.2	669.1	654.0	655.6	658.4	633.0	600.2	556.5	514.3	488.0	463.0	443.4	421.0	403.3	381.4	357.5	334.3	303.0	279.3	283.9	271.3	185.6	138.1	107.9	86.49	90.93	149.2	395.7	2430	9333	8296	241.8	9.426	4.860	4.144	3.224	2.696	2.495	2.419	2.569	2.951	2.740	2.829	2.786	3.541	3.461	3.599	3.795	3.799	3.964	3.531	3.991	4.218	3.730	3.866	3.979	3.795	3.701	3.930	3.712	3.847	4.048	3.829	4.035	4.006	4.024	3.996	4.061	4.192	4.392
410.0	387.1	571.5	679.7	733.3	739.5	712.4	706.6	681.9	655.5	642.0	635.5	626.3	605.0	576.3	533.5	492.4	466.2	446.7	429.4	407.4	392.0	374.5	357.2	338.4	311.0	284.8	267.4	271.1	242.1	173.4	126.7	94.83	77.13	74.35	117.4	565.4	2599	7116	7824	1104	18.16	5.594	4.012	3.220	2.842	2.694	2.664	2.835	2.814	2.759	2.763	3.459	3.271	3.567	3.759	3.762	4.000	3.800	3.927	4.062	3.688	3.701	3.963	3.781	3.713	3.666	3.713	3.718	3.944	3.824	3.764	3.804	3.921	3.916	3.793	4.040	3.890
415.0	381.5	538.5	647.4	699.4	710.4	695.4	682.2	671.9	646.4	618.1	612.8	606.3	576.4	546.7	506.6	464.5	442.2	423.2	408.1	389.0	379.1	365.2	348.9	336.3	314.1	290.4	264.9	252.6	252.4	226.0	153.0	109.9	82.80	65.26	62.22	152.9	598.0	1649	4748	9218	1833	22.87	5.592	4.134	3.242	3.038	2.774	2.953	2.754	2.674	2.734	3.411	3.316	3.369	3.638	3.726	3.907	3.872	3.755	3.939	3.623	3.807	4.051	3.587	3.634	3.717	3.779	3.668	3.769	3.712	3.593	3.822	3.789	3.681	3.831	3.862	3.553
