Sample:	'1
File name:	H2025090902入河排污口1号(友谊大桥东).FD3
Run date:	'17:09:51, 09/10/2025
Operator:	Administrator
Comment:	'

Instrument
Model:	F-2700 FL Spectrophotometer
Serial number:	23C7-003
ROM Version:	4J14000 07

Instrument parameters
Measurement type:	3-D scan
Data mode:	Fluorescence
EX  Start WL:	220.0 nm
EX  End WL:	600.0 nm
EX Sampling interval:	5.0 nm
EM  Start WL:	230.0 nm
EM  End WL:	650.0 nm
EM Sampling interval:	5.0 nm
Scan speed:	12000 nm/min
EX Slit:	5.0 nm
EM Slit:	5.0 nm
PMT Voltage:	700 V
Response:	Auto 
Corrected spectra:	Off
Contour interval:	50.000

Peak integration
Integration method:	Rectangular
Sensitivity:	1
Threshold:	1.000

Peaks
No.	ApexEX/EM(nm)	Height(Data)
1	225.0/310.0	322.8
2	225.0/580.0	34.76
3	225.0/595.0	34.07
4	225.0/630.0	28.78
5	225.0/640.0	26.64
6	230.0/335.0	261.6
7	230.0/500.0	218.6
8	235.0/510.0	199.6
9	240.0/260.0	220.0
10	240.0/520.0	170.9
11	245.0/270.0	213.3
12	250.0/275.0	267.8
13	250.0/405.0	446.6
14	250.0/545.0	123.2
15	255.0/280.0	347.6
16	255.0/420.0	448.7
17	255.0/560.0	103.1
18	260.0/285.0	351.1
19	260.0/430.0	440.9
20	260.0/570.0	85.77
21	265.0/440.0	434.8
22	265.0/585.0	83.82
23	270.0/300.0	897.1
24	270.0/595.0	81.72
25	275.0/305.0	1050
26	275.0/610.0	76.25
27	280.0/310.0	909.9
28	280.0/620.0	62.34
29	285.0/635.0	38.16
30	295.0/330.0	339.3
31	300.0/335.0	323.2
32	305.0/340.0	296.7
33	310.0/350.0	266.4
34	315.0/355.0	263.1
35	320.0/360.0	280.6
36	325.0/370.0	267.0
37	330.0/375.0	270.4
38	335.0/380.0	292.0
39	340.0/385.0	270.7
40	350.0/400.0	252.5
41	355.0/405.0	244.7
42	430.0/505.0	33.99
43	445.0/525.0	19.97
44	505.0/275.0	1.912
45	510.0/280.0	2.088
46	515.0/285.0	2.289
47	525.0/290.0	2.499
48	545.0/300.0	4.695
49	550.0/305.0	5.246
50	560.0/310.0	4.800
51	570.0/315.0	4.109
52	575.0/320.0	3.703
53	585.0/325.0	3.298

Data points
	220.0	225.0	230.0	235.0	240.0	245.0	250.0	255.0	260.0	265.0	270.0	275.0	280.0	285.0	290.0	295.0	300.0	305.0	310.0	315.0	320.0	325.0	330.0	335.0	340.0	345.0	350.0	355.0	360.0	365.0	370.0	375.0	380.0	385.0	390.0	395.0	400.0	405.0	410.0	415.0	420.0	425.0	430.0	435.0	440.0	445.0	450.0	455.0	460.0	465.0	470.0	475.0	480.0	485.0	490.0	495.0	500.0	505.0	510.0	515.0	520.0	525.0	530.0	535.0	540.0	545.0	550.0	555.0	560.0	565.0	570.0	575.0	580.0	585.0	590.0	595.0	600.0
230.0	27.38	345.8	1300	520.2	28.77	5.434	4.885	3.798	3.341	3.041	2.607	2.404	2.221	1.979	1.465	1.322	1.141	1.181	1.040	0.896	0.827	0.845	0.789	0.703	0.661	0.662	0.610	0.561	0.499	0.515	0.527	0.507	0.443	0.419	0.383	0.366	0.358	0.340	0.309	0.329	0.341	0.351	0.424	0.391	0.324	0.286	0.614	2.569	5.633	5.135	2.184	0.557	0.251	0.263	0.260	0.261	0.251	0.259	0.271	0.268	0.275	0.253	0.246	0.313	0.259	0.237	0.243	0.265	0.257	0.279	0.269	0.256	0.262	0.279	0.271	0.288	0.284
235.0	72.57	105.6	644.3	1414	430.2	46.57	5.338	4.404	3.941	3.459	2.950	2.373	2.606	2.041	1.427	1.396	1.289	1.169	1.030	1.096	0.908	0.897	0.756	0.737	0.608	0.691	0.682	0.633	0.507	0.660	0.462	0.518	0.479	0.444	0.427	0.307	0.379	0.332	0.353	0.358	0.340	0.352	0.443	0.413	0.455	0.395	0.390	0.804	2.059	4.095	5.863	6.567	3.874	0.865	0.317	0.273	0.248	0.237	0.257	0.258	0.240	0.390	0.198	0.313	0.197	0.281	0.264	0.220	0.246	0.240	0.251	0.280	0.303	0.293	0.287	0.328	0.286
240.0	86.08	83.47	176.3	929.1	1689	356.8	21.36	5.589	3.781	3.217	3.219	3.108	2.519	1.819	1.503	1.507	1.177	1.223	1.294	0.941	0.963	0.783	0.967	0.784	0.644	0.673	0.603	0.601	0.497	0.597	0.572	0.490	0.544	0.474	0.475	0.336	0.376	0.342	0.307	0.376	0.291	0.311	0.389	0.368	0.498	0.632	0.468	0.481	0.712	1.318	2.976	6.949	9.970	7.077	2.912	0.557	0.295	0.259	0.235	0.264	0.280	0.324	0.294	0.259	0.181	0.248	0.264	0.316	0.216	0.274	0.324	0.246	0.285	0.246	0.320	0.279	0.305
245.0	54.70	132.1	96.94	269.3	1340	1816	265.4	10.43	4.154	3.496	3.219	3.109	2.476	2.010	1.703	1.490	1.189	1.175	1.071	0.875	0.991	0.853	0.821	0.734	0.686	0.637	0.770	0.555	0.534	0.597	0.527	0.499	0.536	0.409	0.428	0.312	0.401	0.325	0.303	0.369	0.285	0.289	0.373	0.323	0.446	0.451	0.595	0.648	0.460	0.543	0.926	2.384	6.179	10.82	10.99	5.731	1.749	0.323	0.279	0.278	0.274	0.276	0.244	0.249	0.249	0.266	0.270	0.294	0.254	0.249	0.320	0.226	0.304	0.244	0.242	0.302	0.290
250.0	26.66	76.57	150.3	137.3	380.1	1261	1902	885.6	64.42	4.528	3.980	2.881	2.875	2.426	1.993	1.541	1.336	1.240	1.033	0.968	0.900	0.950	0.812	0.820	0.727	0.706	0.641	0.494	0.657	0.609	0.578	0.569	0.497	0.380	0.471	0.386	0.390	0.360	0.344	0.344	0.331	0.315	0.345	0.297	0.343	0.316	0.400	0.612	0.718	0.754	0.574	0.791	1.668	3.539	6.442	9.390	11.40	9.762	5.994	1.877	0.398	0.280	0.273	0.246	0.241	0.282	0.306	0.223	0.280	0.235	0.326	0.285	0.311	0.273	0.246	0.309	0.299
255.0	18.88	28.52	88.89	202.6	167.5	305.0	1021	2626	1227	70.10	4.958	3.633	3.062	2.634	2.341	1.671	1.563	1.468	1.104	1.038	1.011	0.958	0.878	0.864	0.799	0.662	0.651	0.632	0.688	0.598	0.593	0.476	0.608	0.494	0.436	0.471	0.351	0.318	0.384	0.315	0.362	0.348	0.421	0.282	0.332	0.350	0.338	0.352	0.386	0.660	0.879	1.167	0.870	1.042	1.705	2.391	4.510	10.25	18.16	17.38	7.998	1.740	0.336	0.330	0.377	0.289	0.255	0.258	0.232	0.283	0.298	0.278	0.273	0.291	0.247	0.261	0.318
260.0	17.40	16.47	35.19	148.7	220.0	116.6	268.8	1619	2878	924.0	30.55	4.318	3.323	2.559	2.509	1.602	1.620	1.293	1.230	1.262	1.095	0.939	0.869	0.935	0.760	0.758	0.672	0.681	0.691	0.625	0.488	0.524	0.513	0.584	0.402	0.390	0.411	0.313	0.453	0.436	0.385	0.363	0.393	0.303	0.396	0.332	0.341	0.327	0.212	0.348	0.613	1.146	1.436	0.902	0.692	0.767	1.331	2.897	8.492	17.59	21.81	15.45	5.413	0.767	0.393	0.282	0.255	0.311	0.282	0.256	0.315	0.297	0.287	0.275	0.275	0.275	0.310
265.0	15.64	14.39	17.54	57.96	215.1	180.9	86.28	458.2	2189	3067	181.6	12.43	4.592	3.296	2.415	2.036	2.017	1.429	1.542	1.181	1.134	0.976	0.834	0.833	0.836	0.757	0.647	0.743	0.696	0.642	0.553	0.548	0.556	0.553	0.392	0.398	0.359	0.389	0.469	0.389	0.308	0.339	0.337	0.306	0.314	0.344	0.294	0.258	0.227	0.313	0.282	0.630	1.079	1.479	1.115	0.606	0.624	0.894	2.244	5.552	12.67	22.52	23.66	12.51	2.874	0.449	0.327	0.331	0.306	0.231	0.301	0.301	0.310	0.260	0.273	0.264	0.285
270.0	18.79	16.22	13.47	19.75	85.14	213.3	191.0	138.4	611.3	2159	3065	676.0	48.52	4.509	2.974	2.313	2.104	1.544	1.469	1.194	1.209	1.129	0.997	0.851	0.884	0.776	0.717	0.691	0.715	0.669	0.583	0.596	0.569	0.494	0.449	0.412	0.383	0.394	0.358	0.341	0.315	0.330	0.328	0.328	0.388	0.308	0.264	0.293	0.290	0.246	0.212	0.338	0.513	0.843	1.242	1.487	1.211	0.801	0.806	1.595	3.235	7.065	13.06	19.29	22.15	16.93	9.291	2.421	0.429	0.297	0.310	0.323	0.303	0.256	0.262	0.294	0.308
275.0	25.82	20.52	15.08	13.34	26.42	77.90	267.8	225.1	167.7	520.6	1708	4150	973.8	50.24	4.318	2.877	2.658	1.760	1.366	1.342	1.182	1.193	1.005	0.903	0.808	0.762	0.708	0.713	0.681	0.580	0.590	0.633	0.557	0.573	0.433	0.492	0.431	0.441	0.380	0.363	0.346	0.344	0.295	0.392	0.359	0.342	0.289	0.336	0.332	0.265	0.254	0.261	0.301	0.399	0.485	0.733	1.556	1.912	1.388	0.854	1.017	1.891	3.244	4.744	7.875	17.81	31.39	24.89	11.98	2.162	0.401	0.459	0.290	0.277	0.368	0.274	0.284
280.0	28.59	32.93	21.50	14.65	17.58	29.40	144.3	347.6	161.8	149.8	467.8	2720	4513	672.6	20.10	3.839	2.970	2.069	1.494	1.453	1.369	1.176	0.939	0.849	0.948	0.843	0.749	0.708	0.641	0.596	0.632	0.683	0.621	0.562	0.427	0.504	0.433	0.476	0.425	0.374	0.360	0.315	0.326	0.304	0.350	0.311	0.358	0.383	0.349	0.273	0.240	0.289	0.282	0.319	0.361	0.400	0.727	1.494	2.088	1.791	1.031	0.745	0.995	1.424	2.142	4.843	13.38	28.00	37.27	22.02	6.666	0.874	0.340	0.391	0.358	0.307	0.306
285.0	48.70	61.35	46.99	27.66	19.02	18.64	55.21	269.0	351.1	124.9	174.7	825.4	3743	3918	101.8	8.828	3.389	2.667	2.098	1.599	1.390	1.239	1.162	0.886	0.991	0.792	0.778	0.776	0.717	0.711	0.572	0.643	0.655	0.576	0.492	0.463	0.444	0.457	0.431	0.425	0.405	0.312	0.319	0.394	0.372	0.334	0.490	0.491	0.435	0.350	0.273	0.287	0.345	0.302	0.362	0.307	0.420	0.724	1.337	2.289	2.174	1.167	0.677	0.725	0.938	1.557	3.566	8.379	20.80	36.53	28.60	16.32	3.062	0.464	0.374	0.351	0.334
290.0	102.5	130.9	112.3	62.86	34.47	28.25	45.10	124.9	342.5	380.9	280.2	389.2	1179	3105	3531	374.6	27.27	3.546	2.638	1.913	1.584	1.409	1.244	1.024	1.081	0.844	0.913	0.818	0.774	0.589	0.622	0.572	0.653	0.627	0.634	0.567	0.499	0.501	0.431	0.403	0.416	0.372	0.412	0.423	0.481	0.575	0.572	0.578	0.573	0.444	0.364	0.373	0.388	0.327	0.421	0.351	0.394	0.506	0.704	1.184	1.869	2.499	2.447	1.828	1.376	1.385	1.750	2.965	5.802	11.20	17.83	28.24	28.75	25.84	10.98	2.828	0.539
295.0	158.5	213.9	194.6	107.5	57.01	47.86	59.13	106.8	219.5	514.4	704.5	492.0	586.7	888.5	2014	4502	549.7	29.82	3.725	2.668	2.043	1.733	1.392	1.073	1.216	0.950	1.046	0.924	0.915	0.696	0.696	0.604	0.771	0.653	0.667	0.697	0.601	0.477	0.539	0.447	0.418	0.502	0.446	0.538	0.652	0.701	0.786	0.826	0.933	0.617	0.552	0.474	0.447	0.374	0.400	0.364	0.495	0.607	0.636	0.832	1.124	1.527	2.504	3.681	3.920	2.417	2.291	2.417	2.909	3.974	5.224	7.353	9.562	23.13	41.16	28.74	15.97
300.0	199.4	282.4	241.8	136.7	72.42	62.31	74.12	125.8	212.3	422.8	897.1	758.7	540.2	420.9	569.9	2939	4401	409.4	12.34	3.245	2.391	1.877	1.731	1.286	1.034	1.126	0.912	0.820	0.935	0.827	0.721	0.715	0.731	0.596	0.590	0.710	0.614	0.604	0.495	0.522	0.437	0.513	0.468	0.642	0.693	0.763	0.870	0.940	0.989	0.732	0.604	0.586	0.485	0.514	0.576	0.489	0.550	0.594	0.765	0.801	1.063	1.239	1.849	2.740	4.150	4.695	3.625	2.801	2.592	2.456	2.608	2.569	2.818	6.140	15.77	34.50	49.55
305.0	224.9	312.7	276.2	156.1	84.35	67.71	90.01	140.7	230.7	398.4	745.5	1050	649.1	344.3	214.0	808.4	3728	3634	63.54	5.423	3.133	2.150	1.738	1.409	1.377	1.209	0.999	1.079	0.878	0.935	0.832	0.747	0.668	0.623	0.621	0.648	0.683	0.616	0.595	0.541	0.590	0.575	0.568	0.520	0.720	0.806	0.844	1.073	1.085	0.744	0.602	0.619	0.533	0.464	0.524	0.501	0.596	0.593	0.730	0.833	1.092	1.307	1.781	2.329	3.229	4.251	5.246	4.504	3.144	2.523	2.171	1.509	1.396	1.846	4.130	9.604	24.44
310.0	240.7	322.8	281.5	162.1	93.91	75.91	98.08	149.0	241.1	391.7	605.7	886.8	909.9	422.8	147.4	223.7	990.4	2884	3365	950.2	19.64	3.210	2.221	1.785	1.541	1.371	1.119	1.035	0.863	0.908	0.749	0.742	0.716	0.686	0.640	0.710	0.737	0.608	0.653	0.584	0.571	0.569	0.600	0.628	0.682	0.796	0.948	1.127	1.101	0.798	0.684	0.650	0.590	0.513	0.598	0.552	0.618	0.666	0.774	1.007	1.209	1.363	1.736	2.211	2.645	2.911	3.767	4.545	4.800	4.059	2.670	1.706	1.029	1.041	1.445	2.599	5.999
315.0	230.1	307.8	275.6	163.8	96.35	82.99	101.5	148.3	232.3	367.7	532.1	661.9	748.3	658.5	195.4	103.7	255.2	677.8	1843	4236	403.1	20.69	3.093	2.229	1.676	1.399	1.298	1.061	0.983	0.934	0.930	0.871	0.678	0.690	0.690	0.684	0.713	0.569	0.599	0.560	0.547	0.504	0.618	0.695	0.628	0.949	0.891	1.118	1.030	0.881	0.651	0.733	0.561	0.500	0.539	0.529	0.640	0.736	0.850	0.963	1.083	1.435	1.712	1.870	2.288	2.594	2.790	3.194	3.409	4.063	4.109	2.742	1.565	0.932	0.875	1.076	1.802
320.0	202.9	288.0	263.7	158.3	96.03	86.50	102.1	147.4	226.1	346.9	479.3	572.6	566.8	610.3	370.3	97.73	97.46	178.4	469.3	2613	3402	315.8	9.665	2.836	2.073	1.688	1.360	1.206	1.035	1.005	0.925	0.850	0.766	0.715	0.691	0.732	0.710	0.589	0.602	0.550	0.535	0.522	0.568	0.664	0.711	0.986	0.909	1.093	0.925	0.895	0.692	0.651	0.541	0.500	0.535	0.586	0.719	0.763	0.765	0.993	1.054	1.291	1.511	1.944	2.074	2.279	2.467	2.848	2.886	2.762	3.209	3.703	2.940	1.480	0.948	0.735	0.894
325.0	195.1	271.4	257.3	165.6	101.0	88.61	105.4	147.9	214.1	326.5	435.5	511.3	486.3	419.4	473.4	202.8	73.39	73.52	129.1	695.5	3060	2935	49.63	4.910	2.379	2.063	1.391	1.372	1.192	1.082	0.889	0.817	0.796	0.802	0.707	0.783	0.683	0.515	0.603	0.564	0.590	0.549	0.564	0.518	0.730	0.816	0.890	1.015	0.986	0.889	0.704	0.634	0.599	0.510	0.552	0.576	0.754	0.728	0.833	0.984	1.141	1.334	1.523	1.804	1.969	2.189	2.257	2.368	2.498	2.378	2.105	2.407	3.240	3.298	1.786	1.091	0.798
330.0	183.5	265.3	260.2	173.0	119.5	105.6	117.4	149.6	203.3	289.3	388.3	445.3	420.4	317.9	304.0	339.3	168.8	67.60	63.53	180.7	809.7	2403	2894	888.6	16.76	2.706	1.836	1.551	1.311	1.031	1.025	0.819	0.831	0.783	0.734	0.787	0.683	0.565	0.606	0.562	0.556	0.526	0.571	0.573	0.695	0.734	0.809	1.007	1.041	0.903	0.714	0.684	0.660	0.582	0.612	0.623	0.756	0.746	0.825	1.016	1.115	1.215	1.469	1.611	1.725	1.971	2.167	2.167	2.150	2.106	1.835	1.628	1.792	2.168	2.360	2.574	1.907
335.0	168.1	254.4	261.6	186.4	145.8	125.8	136.7	157.4	199.4	269.8	343.0	390.5	377.8	286.3	216.7	226.7	323.2	163.5	64.40	77.76	208.2	566.9	1550	3734	353.1	19.69	2.635	1.880	1.628	1.213	1.179	0.896	0.907	0.770	0.708	0.670	0.725	0.589	0.546	0.504	0.578	0.475	0.564	0.616	0.751	0.859	0.844	1.073	1.023	0.981	0.729	0.913	0.783	0.677	0.866	0.687	0.737	0.846	0.987	0.993	1.009	1.165	1.379	1.439	1.582	1.634	1.819	1.928	2.037	1.954	1.675	1.483	1.473	1.545	1.482	1.899	2.639
340.0	155.5	245.6	259.3	203.7	164.2	154.9	157.3	170.5	197.7	256.7	318.2	362.3	349.5	276.2	203.0	176.9	258.4	296.7	107.2	65.87	83.69	154.5	397.7	2228	2909	300.7	10.12	2.488	1.919	1.459	1.208	0.978	1.009	0.804	0.710	0.620	0.708	0.604	0.486	0.558	0.507	0.546	0.552	0.614	0.707	0.859	0.779	1.032	0.982	0.944	0.777	0.881	0.869	0.810	0.805	0.824	0.751	0.946	0.963	1.002	0.964	1.184	1.307	1.681	1.415	1.575	1.637	1.772	1.854	1.847	1.619	1.549	1.381	1.470	1.370	1.349	1.625
345.0	161.0	241.3	253.8	220.7	189.7	177.3	176.2	183.2	202.4	250.0	303.5	336.7	331.9	272.2	207.0	175.6	182.5	296.7	216.4	85.53	66.46	73.60	118.5	593.6	2529	2630	44.56	4.953	2.613	1.647	1.319	1.155	1.050	0.839	0.706	0.691	0.643	0.573	0.455	0.525	0.503	0.527	0.517	0.611	0.719	0.832	0.844	0.962	1.015	0.950	0.857	0.905	0.956	0.948	0.891	0.941	0.806	0.944	1.126	1.079	1.010	1.227	1.326	1.419	1.374	1.599	1.602	1.608	1.763	1.740	1.571	1.429	1.425	1.369	1.367	1.278	1.393
350.0	156.1	231.0	259.8	244.1	218.4	208.6	201.4	199.9	218.2	248.8	291.4	316.6	313.2	272.0	224.9	191.1	174.1	202.4	266.4	201.3	98.13	73.63	73.16	167.9	671.4	1938	2467	835.2	16.48	2.591	1.634	1.400	1.051	0.890	0.735	0.723	0.617	0.591	0.552	0.507	0.497	0.569	0.531	0.540	0.717	0.811	0.814	0.964	0.994	0.931	0.921	1.030	1.046	1.128	1.030	1.003	1.084	1.080	1.138	1.187	1.169	1.280	1.350	1.336	1.412	1.483	1.570	1.614	1.714	1.685	1.648	1.558	1.515	1.425	1.433	1.429	1.464
355.0	160.0	231.5	273.6	262.8	256.0	243.7	235.0	228.6	233.1	262.1	287.4	312.1	306.8	277.4	242.6	211.3	193.9	186.9	198.5	263.1	205.8	104.9	84.81	90.23	189.9	464.3	1180	3002	333.3	20.04	2.551	1.733	1.227	0.927	0.920	0.687	0.751	0.642	0.532	0.502	0.494	0.619	0.603	0.602	0.657	0.729	0.801	0.989	0.993	0.982	0.956	1.199	1.085	1.240	1.258	1.080	1.165	1.263	1.166	1.304	1.303	1.360	1.276	1.366	1.420	1.587	1.637	1.561	1.604	1.824	1.563	1.596	1.710	1.467	1.441	1.471	1.672
360.0	167.8	239.9	276.3	277.4	285.9	273.0	264.9	258.0	257.3	270.9	292.4	307.7	304.0	282.5	255.8	227.3	212.7	200.2	189.4	222.1	280.6	166.5	105.9	90.58	95.60	141.1	305.2	1629	2682	297.9	11.10	2.326	1.449	1.036	0.969	0.895	0.804	0.593	0.579	0.572	0.551	0.632	0.629	0.679	0.672	0.833	0.834	0.993	1.078	1.028	1.030	1.324	1.263	1.287	1.387	1.307	1.351	1.381	1.155	1.320	1.484	1.429	1.404	1.409	1.457	1.642	1.447	1.764	1.695	1.670	1.483	1.700	1.643	1.616	1.559	1.599	1.727
365.0	157.1	236.8	290.7	299.9	301.5	301.0	292.9	284.1	273.1	286.8	302.1	314.9	307.3	290.9	270.4	245.2	229.2	217.3	204.7	201.4	261.6	257.4	144.4	106.9	88.09	81.09	103.6	429.9	1976	2510	235.4	5.560	1.907	1.376	1.107	0.893	0.743	0.680	0.602	0.638	0.635	0.606	0.629	0.643	0.713	0.811	0.801	1.013	1.076	1.006	1.066	1.197	1.370	1.396	1.404	1.353	1.469	1.400	1.374	1.216	1.445	1.499	1.416	1.386	1.594	1.596	1.505	1.622	1.762	1.817	1.738	1.758	1.591	1.599	1.756	1.636	1.737
370.0	164.8	247.3	290.4	317.9	327.3	332.4	327.3	314.4	299.8	304.9	320.7	321.9	318.7	302.3	284.3	267.2	254.2	243.9	232.1	220.7	230.0	267.0	243.5	154.0	111.0	88.72	75.02	131.9	516.1	1613	2219	837.3	16.17	2.144	1.378	0.991	0.825	0.747	0.628	0.670	0.683	0.570	0.639	0.675	0.772	0.838	0.844	1.080	1.109	1.058	1.166	1.301	1.499	1.454	1.538	1.392	1.470	1.473	1.449	1.569	1.451	1.598	1.525	1.527	1.683	1.521	1.612	1.681	1.778	1.675	1.835	1.767	1.718	1.814	1.736	1.733	1.920
375.0	172.8	251.8	314.4	339.0	356.6	359.7	352.6	334.9	325.6	323.6	340.3	340.2	332.9	323.6	302.9	289.6	277.2	270.8	259.1	250.8	238.2	237.7	270.4	250.5	154.2	112.7	86.86	81.85	152.1	387.5	911.9	2532	1174	20.53	2.046	1.205	1.028	0.796	0.696	0.753	0.609	0.736	0.683	0.649	0.712	0.839	0.908	1.112	1.239	1.157	1.149	1.500	1.597	1.527	1.705	1.542	1.615	1.562	1.566	1.609	1.557	1.683	1.553	1.695	1.691	1.624	1.690	1.817	1.781	1.810	1.931	1.843	1.841	1.878	1.903	1.949	1.929
380.0	177.8	252.2	322.1	353.5	376.7	387.5	369.3	360.6	348.9	348.3	348.7	352.6	343.9	328.0	311.5	300.3	292.8	286.7	277.0	265.9	254.1	243.7	247.2	292.0	217.2	137.5	105.1	82.76	82.18	120.7	233.9	1221	2506	274.7	12.79	1.929	1.269	0.967	0.699	0.797	0.652	0.778	0.689	0.725	0.668	0.930	0.938	1.022	1.146	1.223	1.131	1.448	1.633	1.552	1.740	1.716	1.632	1.755	1.575	1.547	1.727	1.716	1.691	1.678	1.728	1.678	1.741	1.774	1.818	1.817	1.763	1.934	1.922	1.969	2.081	1.917	2.121
385.0	184.4	262.1	338.0	367.8	391.8	398.1	390.8	371.5	362.5	361.9	365.4	359.2	353.2	338.3	323.1	309.1	305.1	300.6	292.9	281.8	269.6	255.7	244.9	267.9	270.7	180.3	124.4	95.83	78.70	70.78	82.08	315.4	1458	2090	219.1	5.794	1.623	1.173	0.825	0.767	0.731	0.802	0.777	0.765	0.733	0.906	0.969	1.044	1.147	1.181	1.254	1.619	1.714	1.665	1.664	1.724	1.854	1.746	1.732	1.641	1.763	1.774	1.806	1.830	1.853	1.923	1.800	1.836	1.819	1.994	1.934	1.954	1.941	1.999	2.199	1.937	2.061
390.0	190.8	273.5	352.4	378.4	401.1	411.3	409.2	401.4	388.1	378.6	380.2	373.4	363.9	350.6	334.8	322.4	318.1	313.4	306.8	296.6	287.8	274.4	259.4	251.9	259.8	245.4	170.5	120.9	96.53	77.20	61.56	100.4	369.0	1115	1598	668.1	14.69	1.824	1.038	0.939	0.817	0.787	0.763	0.826	0.863	0.906	0.998	1.191	1.291	1.237	1.285	1.636	1.665	1.688	1.790	1.700	1.896	1.820	1.876	1.846	1.798	1.886	2.004	1.854	1.864	1.891	1.907	1.759	1.912	1.938	1.929	2.032	2.031	2.120	2.101	2.159	2.186
395.0	196.8	288.7	363.4	392.6	420.5	424.5	426.0	417.3	401.5	398.0	391.0	380.3	374.3	359.6	344.3	329.8	326.3	321.8	318.8	310.6	299.5	288.1	275.2	257.2	244.5	246.5	240.7	160.9	121.5	96.05	73.35	64.81	110.8	268.4	566.0	1672	975.6	19.85	1.714	1.240	1.061	0.907	0.784	0.772	0.938	1.004	1.059	1.186	1.313	1.327	1.343	1.549	1.842	1.746	1.863	1.868	1.886	1.931	1.900	1.909	1.892	1.971	2.043	1.835	1.987	1.924	1.903	1.946	1.941	1.896	2.012	2.021	2.158	2.089	2.153	2.080	2.000
400.0	206.8	305.6	381.6	406.0	426.8	435.8	444.4	423.5	417.4	410.7	404.8	391.3	382.5	365.8	346.1	331.3	326.3	325.7	320.8	317.2	308.6	298.2	283.8	266.9	249.1	235.7	252.5	214.2	145.2	113.6	88.10	67.17	61.05	85.26	146.0	706.2	1761	243.2	12.42	1.689	1.165	0.885	0.944	0.972	0.955	0.970	1.154	1.289	1.291	1.290	1.415	1.614	1.766	1.753	1.834	1.776	1.938	2.052	1.995	2.007	2.003	1.945	2.116	1.982	2.167	1.988	1.846	1.898	2.126	1.966	1.961	1.970	2.062	1.954	2.170	2.096	2.210
405.0	205.6	298.4	377.7	400.9	418.2	440.6	446.6	434.7	424.8	417.4	408.4	393.5	383.7	365.3	348.7	332.0	328.4	325.6	324.0	319.0	312.3	302.6	290.5	272.9	255.5	234.5	232.1	244.7	181.6	129.8	101.9	76.32	59.22	50.60	54.40	180.0	874.0	1503	202.4	6.296	1.577	1.065	1.000	0.845	0.981	1.005	1.177	1.341	1.339	1.363	1.430	1.652	1.742	1.751	1.849	1.757	2.010	1.963	2.061	1.905	2.157	2.082	1.958	2.004	2.062	2.022	1.882	1.930	2.107	2.001	1.991	1.980	1.918	1.967	1.978	2.163	2.387
410.0	210.6	299.5	367.5	408.1	424.5	435.8	445.8	443.6	429.2	424.3	416.3	405.9	385.3	368.7	345.7	334.0	325.3	321.8	319.6	315.9	309.6	301.4	292.8	277.6	264.1	241.1	225.1	226.4	222.9	168.8	120.7	92.18	69.11	52.52	40.97	60.96	218.2	709.4	1114	529.9	14.95	1.552	1.183	0.951	0.964	0.944	1.124	1.340	1.367	1.375	1.349	1.603	1.777	1.684	1.875	1.870	2.044	1.942	2.015	1.950	2.169	2.077	1.936	1.996	2.010	2.010	1.943	2.018	1.995	2.026	1.948	2.068	2.078	2.002	2.020	2.206	2.304
