Sample:	'1
File name:	G2025051413晋控明水循环水3.FD3
Run date:	'14:14:52, 05/21/2025
Operator:	Administrator
Comment:	'

Instrument
Model:	F-2700 FL Spectrophotometer
Serial number:	23B8-004
ROM Version:	4J14000 07

Instrument parameters
Measurement type:	3-D scan
Data mode:	Fluorescence
EX  Start WL:	220.0 nm
EX  End WL:	600.0 nm
EX Sampling interval:	5.0 nm
EM  Start WL:	230.0 nm
EM  End WL:	650.0 nm
EM Sampling interval:	5.0 nm
Scan speed:	12000 nm/min
EX Slit:	5.0 nm
EM Slit:	5.0 nm
PMT Voltage:	700 V
Response:	Auto 
Corrected spectra:	Off
Contour interval:	50.000

Peak integration
Integration method:	Rectangular
Sensitivity:	1
Threshold:	1.000

Peaks
No.	ApexEX/EM(nm)	Height(Data)
1	225.0/585.0	21.90
2	240.0/525.0	126.7
3	240.0/595.0	15.91
4	245.0/385.0	2303
5	245.0/400.0	1856
6	245.0/540.0	143.2
7	245.0/615.0	14.47
8	250.0/550.0	118.9
9	255.0/280.0	535.4
10	255.0/565.0	111.4
11	260.0/290.0	486.8
12	260.0/575.0	92.46
13	265.0/295.0	593.6
14	265.0/585.0	79.05
15	270.0/300.0	748.0
16	270.0/600.0	70.61
17	275.0/305.0	667.3
18	275.0/340.0	335.0
19	275.0/610.0	56.33
20	280.0/385.0	4531
21	280.0/400.0	3525
22	280.0/625.0	47.87
23	285.0/320.0	625.4
24	285.0/635.0	37.59
25	290.0/325.0	551.4
26	295.0/330.0	422.3
27	300.0/335.0	398.7
28	305.0/345.0	364.6
29	310.0/350.0	298.3
30	315.0/355.0	293.4
31	320.0/365.0	286.6
32	355.0/385.0	2524
33	355.0/405.0	2088
34	375.0/400.0	2430
35	415.0/485.0	31.18
36	430.0/505.0	19.26
37	440.0/520.0	13.67
38	445.0/525.0	11.72
39	455.0/540.0	7.555
40	465.0/555.0	4.319
41	470.0/560.0	3.772
42	490.0/385.0	9.872
43	505.0/275.0	3.104
44	510.0/280.0	3.205
45	520.0/285.0	3.321
46	525.0/290.0	3.141
47	540.0/295.0	3.778
48	545.0/300.0	4.066
49	545.0/385.0	13.39
50	550.0/305.0	4.306
51	560.0/310.0	3.773
52	570.0/315.0	3.969
53	570.0/385.0	24.00
54	580.0/320.0	3.685
55	585.0/325.0	3.646

Data points
	220.0	225.0	230.0	235.0	240.0	245.0	250.0	255.0	260.0	265.0	270.0	275.0	280.0	285.0	290.0	295.0	300.0	305.0	310.0	315.0	320.0	325.0	330.0	335.0	340.0	345.0	350.0	355.0	360.0	365.0	370.0	375.0	380.0	385.0	390.0	395.0	400.0	405.0	410.0	415.0	420.0	425.0	430.0	435.0	440.0	445.0	450.0	455.0	460.0	465.0	470.0	475.0	480.0	485.0	490.0	495.0	500.0	505.0	510.0	515.0	520.0	525.0	530.0	535.0	540.0	545.0	550.0	555.0	560.0	565.0	570.0	575.0	580.0	585.0	590.0	595.0	600.0
230.0	23.98	92.68	214.2	125.2	19.01	7.327	6.219	5.766	5.436	5.063	4.454	4.330	3.792	3.106	2.597	2.223	1.873	1.732	1.644	1.524	1.362	1.388	1.342	1.270	1.184	1.135	1.134	1.224	1.094	1.150	1.189	1.068	0.897	0.726	0.598	0.592	0.578	0.556	0.536	0.488	0.490	0.448	0.427	0.416	0.425	0.376	0.426	0.580	0.761	0.726	0.706	0.429	0.285	0.278	0.301	0.312	0.294	0.277	0.271	0.288	0.286	0.276	0.300	0.266	0.271	0.301	0.279	0.280	0.269	0.260	0.331	0.286	0.277	0.307	0.253	0.263	0.291
235.0	25.54	38.49	210.0	771.1	496.1	67.30	8.244	6.544	5.174	5.167	5.560	4.879	4.604	3.553	2.973	2.335	1.619	1.915	1.499	1.788	1.338	1.441	1.310	1.268	1.251	1.197	1.283	1.140	1.296	1.089	1.047	1.080	0.991	0.784	0.691	0.520	0.552	0.502	0.525	0.485	0.489	0.502	0.485	0.456	0.395	0.413	0.415	0.411	0.463	0.816	2.047	4.059	3.399	1.133	0.388	0.319	0.389	0.320	0.257	0.293	0.263	0.295	0.267	0.293	0.288	0.271	0.340	0.257	0.303	0.249	0.296	0.303	0.261	0.337	0.291	0.268	0.328
240.0	32.84	33.28	84.32	982.8	2702	494.0	47.22	9.572	6.568	5.705	5.505	5.052	4.323	3.649	3.027	2.437	2.130	2.051	1.694	1.610	1.617	1.286	1.367	1.294	1.353	1.378	1.340	1.270	1.144	1.092	1.118	1.029	0.887	0.643	0.806	0.538	0.595	0.559	0.585	0.590	0.554	0.456	0.462	0.395	0.440	0.392	0.367	0.378	0.379	0.500	1.362	5.047	10.73	11.21	5.368	1.051	0.320	0.320	0.300	0.260	0.311	0.309	0.331	0.306	0.332	0.291	0.378	0.253	0.273	0.282	0.262	0.279	0.279	0.338	0.253	0.310	0.272
245.0	45.60	35.68	43.30	392.1	3228	3849	400.5	25.55	8.901	7.691	6.790	5.574	4.620	3.924	2.973	2.707	2.295	2.196	1.923	1.733	1.694	1.448	1.462	1.372	1.475	1.291	1.170	1.349	1.134	1.068	1.221	1.224	0.856	0.708	0.694	0.643	0.540	0.576	0.597	0.542	0.543	0.491	0.535	0.486	0.506	0.414	0.447	0.381	0.374	0.347	0.596	1.946	7.495	18.17	23.05	14.47	4.585	0.638	0.384	0.325	0.327	0.387	0.327	0.320	0.306	0.359	0.359	0.330	0.237	0.301	0.263	0.284	0.310	0.272	0.342	0.347	0.332
250.0	40.40	45.30	69.96	133.1	1065	4402	5810	1514	102.7	11.39	9.091	7.445	5.456	4.469	3.642	2.944	2.589	2.407	2.003	1.849	1.702	1.602	1.588	1.482	1.466	1.446	1.423	1.427	1.378	1.146	1.287	1.168	0.956	0.782	0.720	0.602	0.613	0.620	0.605	0.544	0.551	0.499	0.548	0.493	0.497	0.455	0.508	0.424	0.471	0.533	0.440	0.763	2.053	5.866	13.36	23.26	30.84	31.13	14.17	5.122	0.697	0.435	0.327	0.412	0.364	0.398	0.369	0.325	0.276	0.314	0.288	0.346	0.315	0.281	0.298	0.334	0.308
255.0	39.48	42.61	68.40	160.9	305.6	1111	4979	9999.9	2162	116.7	13.05	10.31	7.365	5.813	4.149	3.458	3.037	2.411	2.069	1.746	1.846	1.591	1.634	1.771	1.585	1.601	1.442	1.496	1.342	1.241	1.400	1.248	0.864	0.856	0.649	0.643	0.674	0.648	0.591	0.560	0.597	0.551	0.536	0.481	0.511	0.467	0.522	0.427	0.435	0.516	0.737	0.924	0.970	1.598	3.349	5.738	11.20	29.50	56.09	57.11	21.87	5.302	0.534	0.480	0.372	0.379	0.366	0.346	0.294	0.351	0.346	0.310	0.277	0.302	0.306	0.318	0.360
260.0	41.52	32.92	45.51	163.3	245.7	306.1	1508	8825	9999.9	1617	55.08	14.36	9.805	6.644	4.565	3.964	3.342	2.748	2.534	2.115	2.103	1.692	1.743	1.743	1.639	1.555	1.596	1.441	1.264	1.288	1.463	1.532	1.051	0.887	0.767	0.697	0.694	0.732	0.574	0.587	0.566	0.493	0.605	0.550	0.441	0.548	0.520	0.410	0.462	0.428	0.606	1.117	1.333	0.998	1.190	1.631	2.947	8.029	23.68	54.32	74.93	30.98	17.48	2.791	0.412	0.385	0.422	0.326	0.418	0.354	0.322	0.298	0.347	0.308	0.354	0.342	0.459
265.0	46.39	39.02	36.67	88.90	286.8	237.3	384.8	2978	9999.9	9999.9	239.1	25.90	13.06	9.009	6.379	4.770	4.002	3.229	2.627	2.491	2.257	1.767	1.772	1.891	1.741	1.549	1.705	1.470	1.276	1.572	1.466	1.389	1.053	1.034	0.745	0.855	0.761	0.655	0.646	0.552	0.668	0.572	0.572	0.510	0.544	0.511	0.522	0.493	0.453	0.367	0.398	0.751	1.331	1.576	1.338	0.891	1.065	2.167	5.826	15.89	40.02	71.64	89.64	28.49	11.34	1.072	0.470	0.395	0.426	0.389	0.405	0.365	0.375	0.389	0.350	0.356	0.350
270.0	58.11	43.24	33.21	43.05	152.8	349.3	293.7	733.6	3606	9999.9	9999.9	3432	63.91	13.83	9.365	6.457	4.804	3.797	3.321	2.955	2.485	2.255	1.984	1.969	1.995	1.673	1.770	1.661	1.514	1.489	1.514	1.471	1.165	1.042	0.800	0.838	0.778	0.710	0.697	0.606	0.612	0.614	0.654	0.597	0.622	0.621	0.557	0.498	0.422	0.385	0.420	0.535	0.728	1.143	1.693	2.008	1.720	1.323	1.799	4.017	9.720	21.13	44.36	65.01	84.65	68.09	18.03	8.516	1.179	0.506	0.508	0.438	0.466	0.361	0.410	0.407	0.401
275.0	57.54	47.45	36.99	35.84	65.07	181.3	463.5	382.2	866.3	2630	9999.9	9999.9	1263	60.80	13.95	9.259	6.980	5.377	4.154	3.650	3.070	2.804	2.635	2.350	2.138	2.010	2.072	1.876	1.633	1.537	1.753	1.911	1.316	1.137	0.949	0.876	0.826	0.754	0.771	0.702	0.631	0.648	0.659	0.657	0.660	0.596	0.515	0.441	0.501	0.401	0.439	0.514	0.515	0.677	0.740	1.207	2.246	3.104	2.101	1.717	2.637	5.222	10.47	15.36	25.59	56.54	107.2	119.3	28.50	10.01	0.835	0.535	0.631	0.407	0.557	0.433	0.383
280.0	67.22	51.55	43.48	41.12	48.94	85.95	326.6	535.4	327.1	660.8	3109	9999.9	9999.9	891.1	30.60	13.55	8.908	6.663	5.064	4.253	3.646	3.125	2.674	2.419	2.349	2.255	2.147	1.800	1.676	1.709	1.784	1.843	1.420	1.152	1.023	0.940	0.832	0.887	0.778	0.686	0.608	0.709	0.616	0.626	0.646	0.637	0.592	0.516	0.505	0.472	0.507	0.553	0.529	0.555	0.568	0.706	1.219	2.472	3.205	2.619	1.653	1.799	2.940	4.045	6.427	14.37	38.79	93.28	127.3	107.8	22.77	4.337	0.654	0.571	0.513	0.498	0.510
285.0	67.25	55.56	50.18	45.35	49.20	60.73	146.4	492.4	360.6	245.5	787.8	4118	9999.9	8727	123.3	18.98	11.78	8.108	6.225	5.026	4.175	3.320	2.802	2.470	2.509	2.248	2.275	2.054	1.768	1.784	1.845	1.999	1.540	1.194	1.152	1.123	0.914	0.873	0.811	0.679	0.668	0.730	0.581	0.649	0.631	0.633	0.581	0.627	0.577	0.433	0.533	0.563	0.501	0.496	0.560	0.645	0.817	1.168	2.035	3.107	3.321	2.068	1.442	1.487	2.085	3.884	9.399	24.43	56.11	115.6	137.0	33.49	16.84	1.778	0.637	0.476	0.549
290.0	67.47	61.07	55.70	51.01	55.53	60.82	87.34	220.7	486.8	440.6	306.4	1030	4167	9999.9	9999.9	2168	37.40	12.80	8.345	6.464	4.990	4.076	3.312	3.018	2.856	2.556	2.250	2.325	1.960	1.893	1.978	1.821	1.547	1.347	1.204	1.139	1.001	0.917	0.822	0.712	0.700	0.758	0.684	0.596	0.641	0.615	0.557	0.652	0.599	0.525	0.527	0.589	0.499	0.591	0.546	0.674	0.696	0.806	1.121	1.552	2.308	3.141	3.090	2.228	1.546	1.731	2.827	6.132	13.38	30.13	55.33	74.19	104.2	82.39	61.22	12.33	2.235
295.0	67.15	62.54	58.26	58.56	67.94	73.30	81.82	120.0	224.2	593.6	506.2	361.9	1024	2579	9999.9	9999.9	695.5	36.49	12.13	8.870	6.106	5.179	4.415	3.448	3.118	2.841	2.487	2.400	2.347	2.057	2.084	1.936	1.548	1.338	1.193	1.117	1.021	0.900	0.920	0.823	0.745	0.797	0.677	0.577	0.707	0.671	0.652	0.570	0.600	0.518	0.593	0.686	0.642	0.621	0.641	0.656	0.689	0.772	0.816	1.010	1.147	1.527	1.858	3.467	3.778	2.291	1.622	2.223	3.741	7.427	13.00	17.37	26.90	47.18	110.4	142.8	35.05
300.0	72.32	67.12	63.00	71.67	80.86	87.45	91.40	115.8	153.1	368.6	748.0	274.6	350.6	664.9	2980	9999.9	9999.9	517.2	21.17	11.72	7.967	6.118	5.298	3.874	3.772	3.150	2.766	2.970	2.401	2.204	2.220	2.066	1.600	1.469	1.266	1.145	1.149	0.974	0.950	0.875	0.743	0.833	0.864	0.672	0.642	0.705	0.692	0.583	0.499	0.540	0.585	0.645	0.688	0.677	0.767	0.626	0.738	0.817	0.940	1.011	1.004	1.143	1.274	2.036	3.483	4.066	3.275	1.791	1.822	2.570	3.625	4.615	6.812	11.58	32.49	81.04	132.0
305.0	80.65	67.77	61.16	80.07	88.91	103.0	114.8	137.8	171.8	255.6	595.3	667.3	244.0	263.3	762.5	3927	9999.9	5273	76.71	16.51	10.36	7.537	5.881	4.556	3.982	3.419	3.124	3.107	2.535	2.412	2.246	2.112	1.844	1.529	1.380	1.213	1.130	0.996	0.963	0.973	0.846	0.867	0.734	0.783	0.688	0.659	0.700	0.605	0.538	0.563	0.611	0.670	0.739	0.804	0.873	0.804	0.901	0.911	1.044	1.223	1.131	1.060	1.476	1.462	2.121	3.239	4.306	3.751	2.333	1.889	1.780	2.055	2.460	3.432	8.102	20.01	46.68
310.0	78.38	67.88	68.65	83.71	100.4	119.2	137.9	159.2	192.0	241.0	362.4	624.1	593.3	267.5	282.6	973.9	4029	9999.9	9999.9	1665	28.19	11.24	7.607	5.805	4.932	3.984	3.669	3.113	2.868	2.635	2.270	2.246	1.979	1.639	1.475	1.297	1.162	1.027	1.168	0.868	0.867	0.821	0.787	0.762	0.725	0.685	0.684	0.624	0.654	0.577	0.578	0.667	0.813	0.787	0.876	0.901	1.009	1.024	1.087	1.174	1.147	1.166	1.499	1.456	1.717	2.126	2.636	3.241	3.773	3.459	2.480	1.803	1.540	1.762	2.693	5.238	11.32
315.0	94.96	75.09	69.96	85.16	110.7	138.6	152.5	172.6	206.2	246.5	293.8	384.7	572.8	561.9	230.1	314.8	978.4	2539	9999.9	9999.9	504.9	27.97	11.51	8.377	6.316	4.900	4.182	3.751	3.243	3.112	3.033	2.335	2.115	1.835	1.480	1.459	1.322	1.195	1.085	0.958	0.961	0.886	0.876	0.833	0.848	0.783	0.711	0.657	0.758	0.634	0.608	0.732	0.773	0.975	0.992	1.004	1.149	1.150	1.125	1.131	1.261	1.370	1.608	1.613	1.721	1.801	2.094	2.041	2.370	2.846	3.969	3.463	2.175	1.571	1.637	2.051	3.329
320.0	90.13	82.29	75.60	91.56	119.0	142.1	159.2	183.5	218.1	255.8	294.5	328.4	399.7	625.4	387.8	192.5	307.6	634.8	2934	9999.9	9999.9	406.4	19.33	10.90	8.005	5.960	4.783	4.097	3.862	3.665	3.301	2.778	2.434	1.896	1.679	1.345	1.372	1.340	1.235	1.024	0.939	0.975	1.037	0.857	0.873	0.815	0.739	0.732	0.734	0.639	0.564	0.840	0.913	1.075	1.024	1.038	1.063	1.321	1.345	1.190	1.236	1.405	1.486	1.678	1.705	1.821	1.866	1.762	2.002	2.166	2.675	3.634	3.685	2.717	1.845	1.522	1.792
325.0	103.0	81.07	83.51	101.5	128.2	145.5	169.0	194.6	231.9	260.5	301.5	325.6	325.5	443.9	551.4	245.6	166.4	212.1	713.1	3815	9999.9	9999.9	61.22	14.85	10.36	7.504	5.691	4.617	4.083	3.835	3.679	3.154	2.213	2.080	1.814	1.403	1.450	1.168	1.260	1.142	0.991	1.044	1.021	0.856	0.801	0.863	0.745	0.720	0.696	0.676	0.705	0.834	0.853	0.991	0.965	1.096	1.065	1.271	1.212	1.356	1.251	1.408	1.506	1.672	1.810	1.869	1.828	1.765	1.874	1.993	1.959	2.524	3.197	3.646	3.100	1.729	1.596
330.0	103.2	91.38	94.79	123.5	148.0	164.2	181.0	202.1	231.6	267.6	301.1	320.5	317.1	319.2	406.2	422.3	220.7	128.9	215.6	907.3	3877	9999.9	9999.9	1457	25.01	10.56	7.745	5.905	4.935	4.386	4.008	3.434	2.472	2.082	1.993	1.610	1.520	1.367	1.309	1.185	0.978	1.073	1.114	0.849	0.898	0.861	0.728	0.752	0.750	0.683	0.706	1.014	0.935	1.012	1.070	1.198	1.275	1.230	1.265	1.311	1.311	1.437	1.629	1.659	1.730	1.732	1.736	1.739	1.790	1.855	1.766	2.017	2.112	2.394	2.815	2.981	2.728
335.0	110.6	88.50	98.30	143.4	169.6	181.7	198.0	212.9	233.0	270.1	313.2	328.6	324.6	297.0	285.6	339.6	398.7	177.5	118.5	255.2	905.7	2521	9999.9	9999.9	433.8	26.62	11.09	8.260	5.958	4.983	4.627	3.832	2.943	2.374	2.266	1.791	1.632	1.550	1.225	1.133	1.065	1.088	1.040	0.926	1.002	0.866	0.783	0.678	0.786	0.743	0.775	1.023	1.131	1.033	1.013	1.200	1.396	1.256	1.339	1.271	1.369	1.573	1.669	1.523	1.677	1.868	1.782	1.861	1.839	1.933	1.703	1.957	1.890	1.853	1.825	2.181	2.747
340.0	122.1	93.88	112.6	149.6	189.0	192.7	203.0	218.8	238.7	269.9	311.1	335.0	322.3	304.0	257.0	248.7	365.1	307.8	124.2	118.8	250.5	603.4	2921	9999.9	9999.9	372.8	17.69	10.09	7.656	6.019	5.053	4.510	3.095	2.446	2.403	1.828	1.701	1.582	1.416	1.236	1.173	1.102	1.077	1.059	1.086	0.880	0.779	0.845	0.862	0.833	0.889	1.011	1.258	1.165	1.255	1.306	1.304	1.272	1.378	1.344	1.442	1.552	1.581	1.660	1.653	1.905	1.744	1.741	1.846	1.867	1.827	1.758	1.829	1.815	1.690	1.669	1.876
345.0	124.4	102.1	113.0	159.2	207.5	207.9	219.8	226.5	247.5	273.5	307.5	330.0	323.7	296.5	254.9	218.5	255.6	364.6	207.1	103.0	110.5	179.4	695.0	3729	9999.9	9999.9	54.39	14.01	9.292	7.050	5.495	4.908	3.506	2.769	2.321	2.059	1.897	1.668	1.429	1.327	1.120	1.229	1.162	1.116	1.049	0.850	0.791	0.856	0.905	0.775	0.844	1.119	1.228	1.109	1.254	1.363	1.353	1.412	1.439	1.466	1.376	1.585	1.588	1.624	1.827	1.790	1.834	1.755	1.855	1.907	1.746	1.764	1.699	1.779	1.724	1.524	1.509
350.0	117.4	95.80	107.7	173.1	230.2	238.5	245.1	244.5	254.8	281.9	310.8	330.3	320.6	301.2	257.8	221.1	206.9	253.3	298.3	188.4	100.8	96.58	201.1	878.1	3718	9999.9	9202	1379	23.59	9.595	7.350	5.957	4.072	3.306	2.486	2.031	1.828	1.588	1.528	1.272	1.187	1.143	1.066	1.030	1.000	0.829	0.818	0.807	0.779	0.740	0.812	1.105	1.248	1.263	1.363	1.389	1.379	1.475	1.489	1.483	1.460	1.609	1.589	1.617	1.850	1.817	1.926	1.739	1.868	1.914	1.897	1.680	1.883	1.783	1.671	1.652	1.609
355.0	117.5	97.78	111.2	186.8	255.6	277.1	276.1	271.3	282.2	303.1	321.6	332.4	328.0	303.7	271.4	231.0	209.6	200.8	226.7	293.4	171.8	96.88	102.9	242.6	865.3	2450	8749	9999.9	2106	28.14	11.07	8.857	5.698	3.554	3.109	2.327	1.922	1.744	1.604	1.404	1.220	1.244	0.934	0.974	0.996	0.785	0.886	0.870	0.860	0.808	0.895	1.245	1.296	1.541	1.492	1.516	1.517	1.495	1.643	1.588	1.618	1.641	1.624	1.639	1.717	1.892	1.897	1.853	1.873	1.905	1.800	1.770	1.792	1.881	1.572	1.711	1.643
360.0	120.8	101.1	117.6	198.8	269.7	308.2	303.6	304.0	304.5	321.7	337.8	345.2	345.7	320.1	276.2	241.4	217.5	197.9	192.5	256.4	272.6	135.8	93.97	111.3	238.9	586.2	2430	9999.9	9999.9	376.0	23.54	13.03	7.551	4.473	3.307	2.500	2.009	1.835	1.687	1.505	1.268	1.251	1.262	0.985	1.002	0.941	0.821	0.838	0.873	0.849	0.914	1.286	1.347	1.502	1.464	1.554	1.611	1.550	1.663	1.632	1.697	1.833	1.762	1.864	2.070	1.795	1.986	1.928	1.969	1.930	1.902	1.791	1.941	2.010	1.514	1.873	1.971
365.0	118.4	94.32	120.4	208.3	306.3	344.8	338.6	332.4	333.4	356.8	363.4	371.2	374.6	338.4	288.2	249.0	229.2	205.8	194.2	206.9	286.6	224.6	119.0	99.95	115.8	181.3	596.4	3271	9999.9	9999.9	303.9	32.03	13.64	6.475	3.997	3.012	2.573	2.182	1.846	1.468	1.369	1.270	1.134	1.146	1.047	0.840	0.803	0.923	0.879	0.803	0.913	1.371	1.383	1.589	1.636	1.713	1.697	1.730	1.726	1.652	1.803	1.864	1.902	1.937	2.227	2.134	2.084	2.015	2.053	1.993	2.032	2.005	1.914	2.049	1.717	1.888	1.787
370.0	119.0	105.1	157.2	314.4	501.0	509.7	429.4	396.8	440.3	507.4	624.4	616.9	798.4	569.0	331.6	276.2	256.3	240.6	228.2	229.8	264.2	308.3	283.8	237.2	212.5	235.4	374.5	978.6	3479	9999.9	9999.9	1516	138.0	27.00	8.895	4.488	3.291	2.517	2.102	1.715	1.506	1.376	1.228	1.169	1.135	0.964	0.856	0.880	0.922	0.905	1.204	1.759	2.129	2.490	2.720	2.330	2.259	2.137	2.108	2.125	2.208	2.258	2.521	2.560	2.955	3.390	3.131	2.821	3.259	4.392	4.570	3.012	2.396	2.103	1.881	1.915	2.078
375.0	112.4	134.4	290.8	695.7	1255	1357	762.3	625.6	793.0	1019	1547	1502	2523	1234	477.9	348.5	322.0	314.6	314.5	344.6	403.2	438.7	620.0	756.5	661.2	736.1	1206	1466	1630	3255	9199	9999.9	2347	170.4	24.78	9.210	5.128	3.876	2.496	2.179	2.076	1.579	1.588	1.285	1.422	1.124	1.073	1.040	1.198	1.425	2.119	3.244	4.194	6.019	6.028	4.613	3.585	3.162	2.943	3.010	3.562	3.846	4.118	4.493	6.376	8.061	6.852	5.915	7.273	12.70	13.42	6.915	3.423	2.777	2.426	2.391	2.447
380.0	135.5	155.5	401.2	1007	1934	1998	1039	822.7	1055	1444	2318	2245	3881	2127	592.9	401.9	369.0	373.1	379.5	442.5	531.1	563.6	819.7	1168	1063	1170	1920	2169	1633	2071	4565	9999.9	9999.9	1692	40.74	13.11	7.325	4.290	3.251	2.535	2.305	1.934	1.863	1.452	1.519	1.306	1.247	1.242	1.379	1.841	2.713	4.560	6.414	8.513	9.008	6.532	4.985	3.923	3.746	3.748	4.485	5.302	5.470	6.306	9.293	11.84	9.980	8.573	10.85	19.81	21.03	9.988	4.643	3.313	2.956	2.816	2.660
385.0	139.1	156.4	444.1	1112	2224	2303	1178	916.6	1198	1638	2682	2594	4531	2521	648.0	428.6	394.1	397.5	413.6	487.5	594.5	645.4	901.0	1319	1298	1400	2264	2524	1792	1964	3471	5346	9999.9	9999.9	285.6	18.31	8.348	5.214	3.957	2.958	2.761	2.110	1.860	1.707	1.569	1.401	1.224	1.502	1.503	2.102	3.066	5.262	7.025	9.557	9.872	7.614	5.360	4.234	4.191	4.314	4.971	5.859	5.857	6.914	10.31	13.39	11.31	10.11	12.48	22.41	24.00	11.64	5.243	3.673	3.001	2.929	2.735
390.0	119.8	144.5	376.2	951.5	1844	1904	1032	836.3	1034	1369	2202	2103	3643	2076	573.7	392.1	362.7	366.7	377.5	435.5	517.5	554.1	751.6	1050	1078	1203	1841	2033	1422	1515	2515	2938	3471	8299	8700	1143	21.26	6.687	4.528	3.386	2.644	2.241	1.856	1.855	1.574	1.434	1.260	1.385	1.448	1.875	2.723	4.178	6.010	8.152	8.533	6.212	4.767	4.002	3.805	3.698	4.457	5.023	4.918	5.994	8.569	11.24	9.306	8.269	10.60	18.61	19.64	9.751	4.700	3.299	2.939	2.689	2.569
395.0	103.5	140.0	334.8	877.0	1683	1763	955.8	798.4	981.5	1277	2014	1929	3317	1891	538.1	376.3	348.3	354.1	361.3	416.0	488.3	527.5	706.6	965.4	956.4	1126	1756	1873	1312	1378	2239	2330	1375	2051	5145	9999.9	1948	24.63	6.212	3.995	3.306	2.663	2.046	1.874	1.583	1.647	1.324	1.327	1.454	1.811	2.519	3.902	5.474	7.444	7.789	5.984	4.518	3.727	3.490	3.569	4.201	4.564	4.779	5.774	8.022	10.43	8.657	7.569	9.696	16.73	17.78	8.920	4.231	3.223	2.698	2.672	2.485
400.0	104.2	134.6	352.2	920.9	1779	1856	1008	818.9	1024	1354	2140	2070	3525	1997	550.2	378.3	349.9	361.0	368.4	428.1	511.1	553.9	744.9	1033	1009	1170	1908	2058	1426	1492	2407	2430	986.4	628.6	1319	6520	9285	1472	18.31	5.268	3.831	2.950	2.381	1.942	1.882	1.513	1.333	1.332	1.559	1.844	2.661	4.069	5.707	8.374	8.340	6.176	4.471	3.867	3.637	3.873	4.481	4.887	5.115	6.140	8.163	10.46	9.626	7.924	10.40	17.99	18.67	9.352	4.313	3.122	2.517	2.767	2.676
405.0	105.7	136.1	338.4	922.3	1769	1846	1003	813.1	1022	1342	2111	2046	3499	1982	539.2	372.0	340.1	353.9	365.1	422.4	511.2	549.7	742.2	1023	1005	1147	1877	2088	1439	1498	2398	2414	891.7	311.0	334.8	1744	7284	7823	265.7	10.57	4.792	3.472	2.487	2.195	2.050	1.607	1.303	1.415	1.544	1.978	2.716	4.282	5.850	8.057	8.055	6.139	4.558	3.914	3.671	3.731	4.407	4.871	4.737	6.094	7.961	10.27	9.078	7.508	9.756	17.31	18.53	9.522	4.494	3.167	2.675	2.543	2.680
410.0	86.79	100.3	262.1	708.5	1353	1414	827.4	695.4	836.1	1055	1620	1550	2567	1496	459.2	327.7	304.2	310.3	317.5	360.1	421.1	450.8	586.0	783.1	770.2	865.9	1366	1536	1113	1119	1741	1746	646.1	190.9	108.9	407.9	1917	5456	6463	1087	18.28	4.319	3.055	2.353	1.988	1.728	1.426	1.288	1.358	1.621	2.252	3.441	4.549	6.048	6.266	4.836	3.949	3.391	3.062	3.310	3.602	4.049	4.047	4.724	6.447	8.167	6.835	6.172	7.648	12.93	14.06	7.313	3.582	2.639	2.448	2.293	2.339
