Sample:	'1
File name:	g2025090304月四会四西南污水井.FD3
Run date:	'16:13:17, 09/03/2025
Operator:	Administrator
Comment:	'

Instrument
Model:	F-2700 FL Spectrophotometer
Serial number:	23B8-004
ROM Version:	4J14000 07

Instrument parameters
Measurement type:	3-D scan
Data mode:	Fluorescence
EX  Start WL:	220.0 nm
EX  End WL:	600.0 nm
EX Sampling interval:	5.0 nm
EM  Start WL:	230.0 nm
EM  End WL:	650.0 nm
EM Sampling interval:	5.0 nm
Scan speed:	12000 nm/min
EX Slit:	5.0 nm
EM Slit:	5.0 nm
PMT Voltage:	700 V
Response:	Auto 
Corrected spectra:	Off
Contour interval:	50.000

Peak integration
Integration method:	Rectangular
Sensitivity:	1
Threshold:	1.000

Peaks
No.	ApexEX/EM(nm)	Height(Data)
1	225.0/490.0	202.1
2	230.0/500.0	183.0
3	235.0/255.0	395.8
4	235.0/515.0	151.9
5	240.0/265.0	441.2
6	240.0/525.0	138.6
7	245.0/270.0	418.4
8	245.0/540.0	122.8
9	250.0/275.0	543.6
10	250.0/550.0	110.0
11	255.0/565.0	143.4
12	270.0/300.0	6164
13	270.0/600.0	442.7
14	275.0/305.0	6189
15	305.0/345.0	463.4
16	310.0/350.0	344.9
17	315.0/355.0	296.9
18	320.0/360.0	260.9
19	325.0/370.0	197.1
20	330.0/375.0	178.5
21	335.0/380.0	173.3
22	350.0/400.0	111.7
23	355.0/405.0	96.42
24	360.0/410.0	76.67
25	365.0/420.0	76.53
26	370.0/425.0	70.95
27	375.0/430.0	52.23
28	380.0/440.0	46.96
29	385.0/445.0	45.84
30	390.0/305.0	10.69
31	390.0/450.0	34.81
32	395.0/455.0	31.33
33	400.0/465.0	28.72
34	405.0/470.0	22.26
35	410.0/475.0	19.81
36	415.0/485.0	18.59
37	420.0/490.0	15.28
38	425.0/500.0	14.27
39	430.0/505.0	13.79
40	435.0/305.0	8.008
41	435.0/510.0	11.49
42	440.0/300.0	8.060
43	440.0/520.0	11.60
44	445.0/525.0	10.66
45	455.0/540.0	8.077
46	460.0/545.0	6.768
47	480.0/260.0	2.254
48	485.0/265.0	2.580
49	495.0/270.0	2.377
50	505.0/275.0	3.894
51	545.0/300.0	26.43
52	550.0/305.0	26.47

Data points
	220.0	225.0	230.0	235.0	240.0	245.0	250.0	255.0	260.0	265.0	270.0	275.0	280.0	285.0	290.0	295.0	300.0	305.0	310.0	315.0	320.0	325.0	330.0	335.0	340.0	345.0	350.0	355.0	360.0	365.0	370.0	375.0	380.0	385.0	390.0	395.0	400.0	405.0	410.0	415.0	420.0	425.0	430.0	435.0	440.0	445.0	450.0	455.0	460.0	465.0	470.0	475.0	480.0	485.0	490.0	495.0	500.0	505.0	510.0	515.0	520.0	525.0	530.0	535.0	540.0	545.0	550.0	555.0	560.0	565.0	570.0	575.0	580.0	585.0	590.0	595.0	600.0
230.0	82.96	699.2	1871	624.5	39.06	7.838	5.852	5.002	4.554	4.480	4.041	3.904	2.998	2.365	1.724	1.536	1.243	1.052	1.043	0.923	0.860	0.775	0.649	0.702	0.677	0.641	0.586	0.677	0.557	0.536	0.515	0.512	0.489	0.452	0.427	0.421	0.430	0.421	0.445	0.419	0.508	0.852	0.915	0.586	0.443	0.344	0.841	3.475	6.104	4.919	1.982	0.555	0.304	0.315	0.312	0.315	0.325	0.302	0.332	0.312	0.332	0.318	0.315	0.343	0.318	0.306	0.367	0.333	0.295	0.348	0.312	0.328	0.315	0.360	0.328	0.393	0.327
235.0	208.7	224.4	991.8	1761	561.1	49.20	6.419	5.659	4.482	4.428	4.421	3.935	3.406	2.615	1.963	1.507	1.118	1.136	1.223	1.063	0.910	0.800	0.647	0.662	0.616	0.671	0.653	0.619	0.595	0.523	0.512	0.605	0.518	0.457	0.421	0.386	0.425	0.412	0.411	0.441	0.428	0.573	0.783	0.804	0.820	0.592	0.503	1.070	2.199	3.747	5.679	6.498	3.320	0.972	0.396	0.310	0.319	0.292	0.315	0.303	0.323	0.311	0.340	0.310	0.283	0.381	0.363	0.321	0.290	0.284	0.332	0.312	0.305	0.334	0.301	0.343	0.358
240.0	272.0	209.2	304.6	1320	2438	402.2	24.98	6.062	5.500	5.035	4.265	3.774	3.082	2.795	2.052	1.648	1.246	1.102	0.942	0.948	0.755	0.804	0.798	0.752	0.608	0.617	0.645	0.743	0.611	0.482	0.530	0.538	0.485	0.453	0.485	0.529	0.376	0.493	0.484	0.438	0.412	0.397	0.531	0.547	0.924	1.072	0.660	0.618	0.744	1.191	2.754	6.604	8.548	6.395	2.601	0.685	0.340	0.284	0.310	0.308	0.324	0.294	0.307	0.299	0.347	0.302	0.359	0.284	0.388	0.355	0.349	0.367	0.409	0.368	0.365	0.358	0.324
245.0	168.8	304.2	176.4	430.9	2329	1882	299.9	12.04	6.046	5.183	5.211	4.492	3.309	2.330	1.940	1.586	1.384	1.227	0.980	0.959	0.761	0.710	0.782	0.728	0.719	0.614	0.726	0.821	0.716	0.487	0.483	0.489	0.421	0.454	0.478	0.408	0.375	0.385	0.443	0.465	0.426	0.361	0.386	0.384	0.586	0.914	1.139	1.209	0.649	0.523	0.898	2.180	5.057	8.775	9.835	6.033	2.186	0.449	0.364	0.333	0.316	0.333	0.321	0.324	0.329	0.281	0.385	0.324	0.350	0.383	0.314	0.390	0.324	0.383	0.331	0.386	0.416
250.0	74.42	203.8	311.1	231.2	709.4	1601	2169	823.5	57.89	6.454	6.360	4.777	3.608	2.568	2.134	1.694	1.386	1.341	1.097	1.070	0.808	0.888	0.722	0.766	0.706	0.659	0.687	0.630	0.607	0.550	0.534	0.499	0.484	0.418	0.505	0.438	0.389	0.402	0.448	0.397	0.400	0.429	0.466	0.360	0.406	0.535	0.612	1.073	1.222	1.099	0.815	0.853	1.457	2.781	5.174	7.890	10.47	10.09	6.232	2.106	0.501	0.333	0.342	0.339	0.335	0.298	0.353	0.316	0.347	0.354	0.331	0.358	0.333	0.381	0.351	0.346	0.359
255.0	49.84	70.88	198.2	395.8	289.9	405.9	1429	2862	1194	57.10	7.542	6.279	4.215	2.850	2.065	1.546	1.548	1.238	1.144	0.940	0.862	0.968	0.712	0.712	0.728	0.655	0.765	0.584	0.609	0.584	0.600	0.599	0.495	0.413	0.462	0.434	0.369	0.382	0.438	0.416	0.384	0.394	0.426	0.391	0.385	0.490	0.446	0.495	0.657	0.996	1.624	1.826	1.107	0.951	1.452	2.132	3.328	7.645	14.23	16.24	9.758	2.620	0.457	0.349	0.359	0.336	0.349	0.355	0.357	0.308	0.318	0.360	0.397	0.355	0.326	0.372	0.347
260.0	38.45	38.31	72.11	309.3	400.5	165.4	415.7	2129	3383	261.3	29.80	7.251	4.781	3.596	2.885	1.840	1.664	1.430	1.247	1.092	0.965	0.944	0.805	0.763	0.876	0.709	0.769	0.663	0.616	0.773	0.671	0.624	0.533	0.533	0.461	0.497	0.414	0.425	0.377	0.414	0.413	0.410	0.443	0.379	0.395	0.415	0.465	0.386	0.398	0.497	0.935	1.977	2.254	1.315	0.816	0.743	1.084	2.268	5.456	12.15	18.89	17.16	7.853	1.635	0.391	0.355	0.370	0.381	0.451	0.361	0.331	0.334	0.353	0.365	0.339	0.435	0.326
265.0	37.81	31.29	34.55	134.0	441.2	290.1	134.3	682.4	3032	3170	208.8	14.13	6.473	4.268	3.192	2.106	1.722	1.423	1.318	1.145	1.093	0.984	0.905	0.762	0.858	0.717	0.811	0.550	0.663	0.665	0.699	0.544	0.559	0.464	0.547	0.482	0.438	0.392	0.399	0.370	0.374	0.402	0.425	0.395	0.389	0.388	0.391	0.405	0.377	0.313	0.437	0.966	1.878	2.580	2.015	0.889	0.678	0.816	1.613	3.440	8.197	16.50	21.46	16.18	5.580	0.911	0.368	0.383	0.383	0.429	0.372	0.351	0.321	0.351	0.384	0.397	0.300
270.0	55.11	33.90	26.36	47.06	188.0	418.4	299.1	213.9	930.5	2706	3038	767.5	49.63	6.776	3.661	2.359	2.165	1.604	1.430	1.301	0.992	0.997	0.825	0.767	0.844	0.662	0.755	0.634	0.672	0.654	0.641	0.569	0.608	0.601	0.570	0.533	0.505	0.499	0.449	0.481	0.431	0.436	0.492	0.446	0.426	0.435	0.349	0.336	0.321	0.312	0.339	0.492	0.770	1.293	2.017	2.377	2.174	1.340	0.864	1.176	2.263	4.649	8.659	14.49	18.25	18.03	11.92	4.552	0.978	0.464	0.401	0.342	0.353	0.387	0.373	0.373	0.378
275.0	203.5	118.7	58.52	39.98	67.10	183.7	543.6	356.5	377.5	855.9	2299	4779	1047	53.91	6.820	3.070	2.285	1.789	1.515	1.508	1.221	1.068	0.862	0.932	0.921	0.829	0.690	0.797	0.617	0.701	0.527	0.616	0.832	1.018	0.844	0.784	0.777	0.846	0.736	0.709	0.750	0.715	0.649	0.697	0.767	0.670	0.690	0.528	0.394	0.349	0.345	0.449	0.460	0.620	0.804	1.168	2.371	3.894	2.973	1.522	1.264	1.894	2.961	4.502	6.087	10.12	19.53	25.89	18.49	6.048	0.884	0.379	0.409	0.442	0.385	0.432	0.432
280.0	650.0	420.0	205.7	86.04	72.43	129.3	425.6	880.0	702.5	879.8	1389	3822	4751	745.9	25.88	4.706	2.822	2.320	1.956	1.553	1.429	1.133	1.089	1.037	0.969	0.889	0.862	0.777	0.625	0.657	0.687	0.970	1.386	1.888	2.042	1.810	1.721	1.586	1.501	1.475	1.463	1.625	1.565	1.526	1.457	1.431	1.258	1.001	0.738	0.470	0.510	0.526	0.498	0.611	0.648	0.829	1.376	2.490	4.171	4.628	3.379	2.610	3.299	4.035	4.765	5.713	9.067	17.00	27.18	29.02	13.49	2.909	0.662	0.453	0.430	0.485	0.397
285.0	1364	948.5	447.0	184.6	123.7	185.6	402.9	1062	1552	1624	1863	2492	4672	3967	117.6	11.30	4.110	2.642	2.053	1.822	1.372	1.336	1.191	0.993	1.071	0.975	0.934	0.815	0.795	0.673	0.906	1.412	2.538	3.273	3.886	3.392	3.369	2.935	2.534	2.539	2.476	2.633	2.694	3.080	2.985	2.729	2.166	1.943	1.439	0.932	0.753	0.673	0.625	0.752	0.885	1.018	1.403	1.877	3.446	5.451	7.298	6.839	6.005	6.893	7.758	8.283	8.611	10.14	13.93	22.53	28.00	22.99	8.754	1.594	0.567	0.559	0.512
290.0	2532	1804	910.7	378.7	240.0	309.3	566.6	1216	2326	3273	3508	3321	2844	3531	3359	428.0	26.55	4.482	2.770	2.493	1.878	1.819	1.457	1.321	1.196	1.104	0.981	0.889	0.899	0.796	1.074	1.819	3.549	5.600	6.601	6.277	5.747	5.171	4.298	4.237	4.377	4.524	4.874	5.054	5.126	4.900	4.239	3.446	2.511	1.633	1.274	1.127	0.970	1.111	1.342	1.576	1.957	2.582	3.819	5.442	7.703	10.81	13.03	14.17	14.42	14.53	14.14	13.60	12.96	12.36	13.10	16.82	20.16	20.68	15.25	6.606	1.813
295.0	3569	2570	1292	576.6	345.7	417.1	767.4	1494	2685	4367	5348	4619	2999	1626	2123	3976	605.2	25.42	4.615	2.992	2.564	1.929	1.592	1.562	1.417	1.167	1.012	0.968	0.919	0.864	1.190	2.224	4.897	7.806	9.377	8.523	7.895	7.252	6.085	5.695	5.614	5.901	6.947	6.838	7.145	6.871	5.843	4.813	3.589	2.558	1.811	1.580	1.468	1.413	1.592	2.090	2.566	3.352	4.833	6.469	8.612	12.07	14.75	19.02	23.03	22.00	20.54	19.03	16.85	12.62	9.169	7.856	6.994	9.197	17.35	26.45	21.19
300.0	4019	2950	1570	678.7	401.2	474.8	864.0	1611	2860	4545	6164	5584	3363	1368	812.2	2728	3577	441.3	11.51	3.564	2.816	2.058	1.815	1.681	1.551	1.304	1.105	1.019	1.015	1.081	1.102	2.284	5.772	9.091	10.48	9.839	8.811	7.786	6.684	6.520	6.100	6.730	7.539	7.997	8.060	7.800	6.583	5.909	4.162	2.942	2.009	1.878	1.637	1.553	1.719	1.996	2.973	4.031	5.181	6.742	9.142	12.43	15.38	19.30	23.55	26.43	26.25	23.15	18.89	14.84	9.761	6.570	4.312	4.029	5.872	12.67	23.43
305.0	4192	3097	1703	741.4	441.4	510.6	888.2	1636	2884	4499	6019	6189	3737	1467	534.8	891.7	3152	2917	69.58	6.258	3.239	2.692	2.092	1.819	1.615	1.424	1.423	1.162	1.028	1.048	1.089	2.374	5.316	8.976	10.69	10.53	9.577	7.992	7.192	6.754	6.541	7.085	7.842	8.008	7.823	7.683	7.075	5.955	4.428	2.988	2.310	2.106	1.606	1.662	1.757	2.105	2.998	4.111	5.398	6.828	9.341	12.26	15.49	19.69	22.53	24.83	26.47	25.81	21.75	15.69	10.39	6.809	4.442	3.110	2.896	4.226	8.128
310.0	3906	2964	1648	754.3	444.6	499.9	837.5	1519	2656	4143	5421	5707	4126	1736	606.2	410.0	985.8	2356	2486	285.8	17.78	3.173	2.186	2.051	1.780	1.413	1.374	1.298	1.152	1.095	1.128	2.326	5.257	8.600	10.17	9.777	9.381	7.923	6.693	6.213	6.286	6.641	6.974	7.572	7.463	7.623	6.502	5.818	4.391	3.025	2.215	2.131	1.700	1.600	1.817	2.119	2.925	3.836	5.013	6.573	8.555	11.50	14.25	17.65	20.39	22.47	22.77	23.50	21.95	17.73	12.60	8.114	5.066	3.512	2.756	2.633	3.177
315.0	3380	2645	1493	718.7	432.5	464.9	739.3	1320	2287	3562	4686	4846	3753	2136	811.2	398.3	382.3	619.7	1547	2948	424.1	14.33	3.061	2.715	1.967	1.703	1.442	1.223	1.297	1.054	1.217	2.153	4.686	7.582	9.166	8.985	8.431	6.944	5.997	5.480	5.502	5.871	6.162	6.552	6.545	6.977	5.635	5.331	4.308	2.736	2.029	2.076	1.667	1.752	1.780	2.065	2.646	3.554	4.380	5.802	7.081	9.823	12.51	15.47	17.31	18.81	19.76	19.71	18.68	15.73	13.35	10.43	6.773	4.147	3.144	2.754	2.481
320.0	3094	2349	1393	691.2	416.5	439.9	674.6	1165	1981	3106	4097	4256	3261	2102	1071	474.4	284.0	232.8	450.6	2078	2575	62.11	6.846	2.964	2.121	1.839	1.501	1.268	1.410	1.137	1.099	2.141	3.841	6.615	8.134	7.705	7.347	6.557	5.464	4.840	4.929	5.369	5.708	5.702	5.878	6.292	5.315	4.706	3.710	2.597	1.871	1.926	1.637	1.769	1.752	1.942	2.329	2.889	3.926	5.290	6.478	8.306	10.64	13.08	15.38	16.57	17.62	17.24	15.98	13.97	11.10	9.446	8.054	6.117	4.140	3.126	2.640
325.0	2679	2131	1329	661.9	414.3	419.6	613.9	1025	1729	2688	3549	3718	2918	1788	1274	642.7	296.8	165.3	162.2	633.6	2368	1962	51.48	4.109	2.330	1.760	1.660	1.383	1.228	1.177	1.149	1.825	3.571	5.943	6.872	6.758	6.726	5.998	5.150	4.307	4.203	4.437	4.701	5.064	5.410	5.116	4.928	4.422	3.470	2.603	1.829	1.839	1.579	1.507	1.634	1.812	2.257	2.905	3.611	4.377	5.828	7.436	9.357	11.30	13.53	14.27	15.36	14.81	14.14	12.32	10.07	7.742	6.916	7.305	6.073	4.050	3.053
330.0	2265	1888	1187	634.7	415.4	404.1	541.9	869.5	1410	2167	2879	3071	2455	1522	1046	836.8	443.3	183.0	118.3	196.5	707.0	1724	1894	226.1	13.10	2.378	1.898	1.425	1.265	1.255	1.167	1.579	3.085	4.786	5.849	5.539	5.570	4.959	4.191	3.691	3.681	3.921	4.085	4.288	4.437	4.606	4.234	3.845	3.134	2.360	1.925	1.895	1.601	1.678	1.518	1.711	2.170	2.508	3.181	3.836	4.752	5.967	7.506	9.261	10.84	11.88	12.53	12.28	11.99	10.59	8.728	6.976	5.946	5.455	5.354	5.220	4.629
335.0	1932	1653	1103	618.5	415.8	383.6	474.9	718.8	1137	1707	2269	2444	2020	1296	852.6	678.8	638.1	297.2	130.8	114.4	205.8	437.9	1267	2231	343.9	10.18	2.403	1.684	1.230	1.255	1.202	1.539	2.335	3.876	4.639	4.465	4.611	3.722	3.445	3.080	2.952	3.374	3.337	3.736	3.948	3.880	3.648	3.690	2.738	2.373	1.814	1.921	1.583	1.535	1.417	1.684	2.044	2.152	2.633	3.000	4.094	5.065	5.927	7.064	8.727	9.374	9.802	9.648	10.10	8.666	7.237	6.212	5.238	4.413	3.999	3.985	4.168
340.0	1707	1514	1038	595.0	406.8	368.0	446.2	638.9	955.7	1399	1866	2023	1714	1137	752.4	554.4	559.9	455.9	173.5	104.1	102.1	136.5	358.9	1641	2033	52.48	5.157	1.987	1.591	1.364	1.205	1.499	2.137	3.249	3.901	3.769	3.908	3.348	2.984	2.767	2.623	2.879	3.223	3.324	3.614	3.573	3.392	3.439	2.786	2.163	1.882	1.788	1.535	1.518	1.447	1.436	1.836	1.980	2.421	2.862	3.514	4.266	5.057	6.045	7.206	8.169	8.156	8.170	8.412	7.404	6.084	5.381	4.614	4.121	3.698	3.127	3.296
345.0	1463	1347	974.7	575.6	391.6	353.8	401.0	557.7	810.6	1168	1545	1675	1465	994.8	674.5	484.8	406.0	463.4	287.2	114.7	81.55	73.67	109.3	495.9	1932	1532	44.35	2.933	1.834	1.570	1.238	1.426	1.823	2.837	3.275	3.352	3.263	3.177	2.670	2.481	2.428	2.335	2.761	2.816	3.264	3.303	3.231	3.060	2.568	2.060	1.750	1.780	1.523	1.555	1.424	1.333	1.631	1.828	2.204	2.568	3.022	3.724	4.373	5.009	5.868	6.504	6.971	6.846	6.926	6.614	5.420	4.764	4.242	3.521	3.239	2.970	2.587
350.0	1243	1163	850.7	521.8	373.7	319.4	354.5	465.2	650.2	915.8	1201	1302	1142	818.0	568.6	412.6	312.1	302.0	344.9	218.1	90.51	63.66	56.31	131.8	564.8	1354	1579	196.3	10.97	1.887	1.411	1.402	1.761	2.542	2.762	2.814	2.654	2.572	2.185	2.142	2.015	2.050	2.281	2.446	2.525	2.754	2.748	2.761	2.324	1.913	1.670	1.614	1.500	1.559	1.285	1.357	1.511	1.653	1.867	2.180	2.575	3.018	3.578	3.992	4.838	5.062	5.569	5.493	5.401	5.150	4.494	4.210	3.494	3.041	2.859	2.606	2.287
355.0	1061	961.2	745.6	471.5	342.3	293.3	311.6	384.2	513.5	705.0	906.2	996.9	873.5	651.1	466.1	352.0	264.1	213.8	219.1	296.9	176.3	68.29	47.71	53.02	141.6	328.5	1069	1685	294.8	7.956	1.660	1.432	1.706	2.010	2.322	2.251	2.185	1.873	1.902	1.774	1.695	1.704	1.906	2.140	2.035	2.356	2.375	2.484	2.152	1.693	1.403	1.530	1.353	1.287	1.287	1.243	1.353	1.541	1.639	1.818	2.115	2.546	2.810	3.240	3.561	3.977	4.239	4.320	4.237	3.985	3.576	3.358	2.841	2.653	2.487	2.484	2.148
360.0	916.5	867.4	674.2	426.4	310.6	273.7	284.4	334.7	433.1	581.5	745.6	807.9	724.9	549.0	405.4	310.1	233.6	182.4	160.4	223.5	260.9	106.9	48.20	38.63	49.91	86.71	292.4	1258	1567	49.31	3.459	1.716	1.775	1.717	1.987	1.908	1.859	1.618	1.626	1.575	1.512	1.574	1.801	1.925	1.733	2.197	2.074	2.228	1.882	1.515	1.293	1.386	1.318	1.314	1.220	1.197	1.277	1.403	1.517	1.652	1.953	2.126	2.229	2.816	2.923	3.276	3.448	3.324	3.804	3.426	3.145	2.783	2.693	2.323	2.287	1.942	1.838
365.0	784.3	766.0	617.4	407.9	300.4	269.2	259.4	305.3	379.0	490.9	623.1	677.8	608.3	469.1	358.4	275.3	213.0	167.4	138.5	146.1	238.3	190.1	62.12	37.24	30.97	34.24	77.55	377.2	1531	1240	39.74	2.444	1.737	1.753	1.944	1.748	1.785	1.584	1.521	1.407	1.399	1.433	1.531	1.690	1.833	2.152	1.850	2.088	1.743	1.467	1.279	1.169	1.178	1.288	1.157	1.122	1.358	1.256	1.423	1.592	1.592	1.812	2.020	2.343	2.618	2.760	2.888	3.013	3.060	2.851	2.599	2.525	2.392	2.157	1.940	1.747	1.771
370.0	657.6	662.0	538.3	368.0	281.8	246.6	239.9	265.7	318.1	398.6	492.5	536.7	490.6	389.4	302.4	239.1	190.8	153.7	126.9	113.0	138.7	197.1	148.7	50.92	28.72	24.32	29.94	94.53	447.4	1144	904.0	173.6	9.456	2.003	1.960	1.587	1.709	1.483	1.329	1.245	1.224	1.273	1.324	1.522	1.583	1.690	1.588	1.749	1.597	1.284	1.153	1.235	1.175	1.251	1.099	1.072	1.234	1.269	1.302	1.453	1.480	1.544	1.804	1.973	2.112	2.407	2.397	2.444	2.576	2.204	2.128	2.105	1.854	1.791	1.738	1.692	1.628
375.0	556.3	543.4	457.4	332.7	258.2	230.1	224.6	238.8	269.5	325.7	398.2	426.3	392.9	323.1	256.3	205.9	169.4	143.1	115.3	100.1	94.22	110.7	178.5	127.3	37.97	23.60	20.44	31.57	107.9	276.1	743.4	1400	254.7	6.523	1.977	1.630	1.589	1.354	1.290	1.156	1.135	1.196	1.230	1.272	1.420	1.435	1.404	1.488	1.443	1.107	1.206	1.116	1.143	1.300	1.055	1.068	1.192	1.100	1.215	1.235	1.423	1.291	1.506	1.692	1.873	2.035	2.024	1.912	2.193	1.930	1.700	1.734	1.551	1.642	1.489	1.407	1.440
380.0	510.6	483.7	425.8	311.0	249.2	218.7	213.7	216.6	239.8	280.0	340.5	367.4	342.5	279.7	231.3	188.4	155.5	132.0	109.9	94.56	81.99	78.39	119.3	173.3	59.69	25.80	19.18	18.17	32.46	68.58	205.9	1062	1358	40.57	3.167	1.947	1.413	1.215	1.165	1.136	1.100	1.103	1.088	1.163	1.316	1.465	1.294	1.485	1.291	1.043	1.218	1.027	1.004	1.090	0.992	1.037	1.046	0.972	1.164	1.129	1.298	1.321	1.427	1.481	1.729	1.627	1.747	1.792	1.722	1.718	1.584	1.436	1.532	1.608	1.285	1.339	1.348
385.0	467.0	461.1	383.0	285.5	240.4	216.0	201.1	206.2	220.0	246.6	295.2	311.0	298.3	249.5	212.3	171.3	144.4	123.7	103.7	91.51	77.82	68.66	75.51	138.7	133.7	42.57	18.88	15.40	16.14	22.20	52.73	316.4	1331	934.4	32.08	2.163	1.493	1.284	1.179	1.199	1.047	1.075	1.061	1.084	1.232	1.128	1.303	1.344	1.222	1.156	1.081	1.049	0.970	0.961	1.015	0.993	1.076	1.017	1.053	1.111	1.123	1.193	1.234	1.265	1.548	1.663	1.398	1.463	1.604	1.591	1.522	1.402	1.305	1.276	1.299	1.205	1.270
390.0	424.9	412.2	355.4	270.3	215.0	195.8	187.9	184.4	195.8	213.6	250.5	268.7	254.9	222.1	184.5	155.2	132.5	112.3	96.80	85.25	74.19	64.85	58.30	74.61	119.1	105.2	36.04	15.65	12.82	12.45	17.28	76.21	384.4	835.8	678.5	142.6	7.854	1.507	1.259	1.146	1.016	1.122	1.026	1.050	1.118	1.132	1.222	1.281	1.092	0.966	0.892	0.982	0.903	1.011	0.945	0.906	1.075	0.919	1.086	1.014	1.053	1.021	1.032	1.180	1.329	1.376	1.252	1.340	1.333	1.368	1.394	1.285	1.271	1.227	1.372	1.127	1.156
395.0	371.7	371.2	317.3	243.6	209.3	188.2	175.5	174.0	170.7	185.9	214.8	228.7	224.0	193.9	166.5	137.4	120.2	103.2	89.51	79.82	70.15	61.55	52.44	49.97	59.82	105.0	92.97	27.38	12.22	10.41	10.25	21.58	90.22	199.3	515.6	1054	208.5	5.963	1.401	1.215	1.075	1.288	1.078	0.996	1.088	1.095	1.062	1.164	1.016	0.955	0.904	0.890	0.861	0.965	0.904	0.813	0.995	0.941	0.963	0.828	1.044	1.095	0.987	1.075	1.110	1.297	1.163	1.220	1.209	1.242	1.137	1.230	1.174	1.174	1.116	1.141	0.968
400.0	336.8	356.8	298.8	230.0	201.0	174.3	171.2	164.1	153.4	166.1	187.3	204.0	201.1	178.8	152.1	129.2	112.7	97.93	85.50	75.11	66.34	58.33	50.34	41.99	38.25	62.91	111.7	52.45	15.82	10.22	8.235	10.03	24.61	48.97	139.2	730.4	898.9	35.72	2.823	1.318	1.056	1.085	1.061	0.918	1.030	1.072	1.052	1.138	1.039	0.881	0.897	0.878	0.841	0.932	0.755	0.862	0.958	1.080	0.882	1.023	1.054	0.982	1.072	1.079	1.067	1.144	1.140	1.059	1.118	1.094	1.106	1.132	1.038	1.221	1.155	1.146	1.026
405.0	332.5	345.4	293.3	217.6	182.8	173.3	158.3	151.2	144.8	147.3	172.4	184.6	180.9	165.7	138.0	121.2	104.8	91.01	78.27	71.95	64.12	55.80	49.73	40.08	32.80	36.29	77.87	96.42	34.53	11.13	8.324	6.967	10.08	15.00	35.22	208.4	797.3	692.4	29.34	1.778	1.157	0.978	0.982	1.034	0.992	1.079	0.997	1.022	1.062	0.832	0.778	0.853	0.794	0.810	0.821	0.760	0.897	0.931	0.886	0.977	0.907	0.941	1.004	0.916	0.971	1.011	1.024	0.938	1.040	1.084	1.049	1.050	0.978	1.018	1.196	1.014	0.996
410.0	306.8	323.0	269.5	204.8	170.0	153.4	146.9	138.1	131.7	134.8	152.6	161.3	162.3	148.3	128.5	109.5	96.06	83.61	75.42	67.02	60.78	53.84	47.05	38.00	30.96	26.75	37.49	72.65	76.67	28.78	9.432	6.790	6.970	7.433	11.35	49.95	221.3	566.9	666.7	130.6	7.327	1.207	0.981	1.023	1.002	1.048	0.959	0.949	0.973	0.776	0.754	0.821	0.808	0.809	0.821	0.751	0.837	0.900	0.861	0.856	0.838	0.902	0.858	0.842	0.854	0.899	0.938	0.936	0.996	1.010	0.998	0.905	0.931	0.957	1.023	0.879	0.899
415.0	291.1	292.8	237.6	191.4	163.4	141.2	131.9	124.5	116.2	122.3	130.6	144.9	141.3	128.5	114.5	100.6	86.39	75.53	69.14	62.73	57.01	51.17	44.48	37.25	29.23	22.58	22.67	32.32	67.59	70.78	21.68	7.287	6.098	5.740	6.158	14.00	52.15	133.5	387.8	715.4	194.8	5.980	1.243	1.071	1.065	1.017	1.020	1.013	0.956	0.771	0.671	0.869	0.747	0.735	0.713	0.760	0.712	0.840	0.845	0.878	0.779	0.826	0.735	0.822	0.767	0.871	0.875	0.816	0.958	0.994	0.880	0.919	0.914	0.911	0.951	0.807	0.849
