Sample:	'1
File name:	Default_20230215_180222.FD3
Run date:	'17:56:01, 02/15/2023
Operator:	dsjg
Comment:	'

Instrument
Model:	F-2700 FL Spectrophotometer
Serial number:	2198-001
ROM Version:	4J14000 07

Instrument parameters
Measurement type:	3-D scan
Data mode:	Fluorescence
EX  Start WL:	220.0 nm
EX  End WL:	600.0 nm
EX Sampling interval:	5.0 nm
EM  Start WL:	230.0 nm
EM  End WL:	650.0 nm
EM Sampling interval:	5.0 nm
Scan speed:	12000 nm/min
EX Slit:	5.0 nm
EM Slit:	5.0 nm
PMT Voltage:	700 V
Response:	Auto 
Corrected spectra:	Off
Contour interval:	50.000

Peak integration
Integration method:	Rectangular
Sensitivity:	1
Threshold:	1.000

Peaks
No.	ApexEX/EM(nm)	Height(Data)
1	225.0/330.0	 3119
2	225.0/640.0	113.6
3	255.0/280.0	144.1
4	265.0/580.0	37.19
5	285.0/325.0	 5989
6	285.0/635.0	232.8
7	330.0/405.0	890.2
8	460.0/330.0	10.07
9	575.0/325.0	29.65

Data points
	220.0	225.0	230.0	235.0	240.0	245.0	250.0	255.0	260.0	265.0	270.0	275.0	280.0	285.0	290.0	295.0	300.0	305.0	310.0	315.0	320.0	325.0	330.0	335.0	340.0	345.0	350.0	355.0	360.0	365.0	370.0	375.0	380.0	385.0	390.0	395.0	400.0	405.0	410.0	415.0	420.0	425.0	430.0	435.0	440.0	445.0	450.0	455.0	460.0	465.0	470.0	475.0	480.0	485.0	490.0	495.0	500.0	505.0	510.0	515.0	520.0	525.0	530.0	535.0	540.0	545.0	550.0	555.0	560.0	565.0	570.0	575.0	580.0	585.0	590.0	595.0	600.0
230.0	102.8	894.2	 1360	250.8	6.348	2.472	1.701	1.441	1.507	1.253	1.575	1.923	2.154	1.824	1.748	1.376	1.186	0.857	0.636	0.616	0.561	0.539	0.527	0.505	0.510	0.415	0.426	0.437	0.332	0.325	0.313	0.282	0.295	0.259	0.200	0.299	0.344	0.277	0.252	0.257	0.212	0.262	0.241	0.192	0.160	0.145	0.478	2.460	5.563	5.057	2.030	0.378	0.115	0.106	0.078	0.076	0.078	0.051	0.053	0.061	0.068	0.036	0.044	0.035	0.038	0.042	0.056	0.028	0.024	0.039	0.040	0.013	0.029	0.017	0.005	0.010	0.038
235.0	50.45	275.1	 1154	 1486	301.0	10.55	1.866	2.513	1.491	1.814	2.064	1.807	2.514	2.058	1.735	1.562	1.283	1.006	0.659	0.719	0.682	0.513	0.531	0.654	0.538	0.339	0.465	0.327	0.269	0.231	0.334	0.294	0.337	0.236	0.181	0.203	0.315	0.265	0.277	0.190	0.243	0.216	0.193	0.309	0.268	0.230	0.245	0.736	1.812	3.511	5.491	6.700	3.625	0.845	0.100	0.099	0.071	0.054	0.054	0.047	0.077	0.047	0.060	0.017	0.016	0.038	0.077	0.029	0.056	0.016	-0.001	0.011	0.020	0.018	0.000	0.037	0.140
240.0	55.51	82.99	425.6	 1584	 1553	225.3	4.977	2.510	2.037	1.960	2.102	2.093	2.459	2.057	1.686	1.462	1.127	0.893	0.720	0.799	0.553	0.455	0.562	0.524	0.506	0.404	0.397	0.385	0.384	0.321	0.316	0.335	0.305	0.199	0.182	0.253	0.276	0.288	0.272	0.246	0.219	0.191	0.193	0.228	0.250	0.382	0.252	0.317	0.498	1.038	2.575	6.593	9.557	7.507	2.690	0.388	0.087	0.056	0.052	0.054	0.088	0.052	0.063	0.036	0.019	0.024	0.080	0.043	0.062	0.017	0.014	0.025	0.034	0.015	0.023	0.026	0.093
245.0	46.98	65.90	112.4	687.4	 2070	 1455	151.6	3.584	2.619	3.004	2.616	2.338	2.649	2.502	2.064	1.780	1.234	1.154	0.929	0.793	0.610	0.590	0.669	0.517	0.600	0.550	0.519	0.382	0.468	0.368	0.318	0.374	0.292	0.254	0.255	0.175	0.225	0.224	0.255	0.286	0.281	0.198	0.182	0.188	0.195	0.319	0.328	0.390	0.329	0.357	0.733	2.172	5.623	10.18	11.34	6.543	1.591	0.168	0.117	0.064	0.060	0.066	0.035	0.048	0.053	0.028	0.068	0.034	0.047	0.035	0.030	0.025	0.024	0.042	0.014	0.026	0.037
250.0	26.38	59.51	85.53	182.4	802.8	 1881	 1892	578.8	25.22	3.616	2.972	2.875	2.800	2.705	2.311	1.964	1.514	1.222	0.885	0.803	0.614	0.652	0.626	0.648	0.583	0.501	0.503	0.429	0.430	0.380	0.384	0.416	0.235	0.282	0.257	0.179	0.229	0.208	0.239	0.253	0.265	0.196	0.240	0.156	0.186	0.209	0.202	0.395	0.392	0.432	0.371	0.605	1.440	3.253	6.224	9.304	11.51	9.882	5.620	1.749	0.209	0.072	0.058	0.045	0.063	0.035	0.054	0.050	0.023	0.052	0.023	0.031	0.058	0.022	0.016	0.023	0.023
255.0	14.88	23.04	81.29	118.5	199.5	545.3	 1886	 2824	237.8	25.23	4.546	3.785	3.464	3.203	2.680	2.207	1.523	1.315	0.797	0.672	0.732	0.651	0.528	0.604	0.549	0.550	0.607	0.365	0.476	0.434	0.433	0.377	0.244	0.289	0.256	0.175	0.142	0.140	0.209	0.232	0.265	0.212	0.212	0.205	0.187	0.194	0.179	0.228	0.282	0.380	0.444	0.614	0.557	0.835	1.489	2.276	4.148	9.202	16.60	16.96	8.906	1.816	0.176	0.070	0.076	0.079	0.066	0.078	0.024	0.075	0.039	0.058	0.020	0.001	0.029	0.040	0.041
260.0	12.09	8.944	38.17	109.0	107.8	136.5	665.0	 2635	 2838	200.2	13.46	5.382	3.932	3.693	2.693	2.232	1.883	1.378	0.986	0.862	0.799	0.705	0.682	0.645	0.681	0.544	0.627	0.430	0.373	0.476	0.473	0.357	0.242	0.298	0.239	0.181	0.181	0.171	0.165	0.157	0.240	0.264	0.257	0.217	0.222	0.211	0.194	0.180	0.191	0.182	0.293	0.592	0.662	0.574	0.463	0.634	1.043	2.511	7.425	15.46	21.21	16.59	6.492	0.843	0.089	0.084	0.056	0.073	0.065	0.068	0.040	0.030	0.042	0.021	0.027	0.040	0.037
265.0	13.51	5.111	15.46	62.48	121.8	76.54	162.8	 1017	 3298	 2794	159.7	9.169	5.225	4.132	3.173	2.200	2.034	1.545	1.002	1.037	0.713	0.840	0.780	0.698	0.610	0.594	0.583	0.462	0.407	0.332	0.391	0.407	0.326	0.285	0.255	0.224	0.254	0.192	0.170	0.130	0.209	0.223	0.253	0.267	0.265	0.233	0.204	0.211	0.207	0.168	0.196	0.320	0.606	0.726	0.579	0.355	0.323	0.689	1.840	4.669	11.83	21.24	23.73	13.92	3.614	0.239	0.068	0.075	0.063	0.079	0.050	0.062	0.035	0.030	0.030	0.046	0.038
270.0	16.81	9.561	11.04	21.70	68.34	107.0	93.25	250.0	 1139	 2789	 2610	676.2	45.34	5.333	4.143	3.301	2.403	1.884	1.309	1.128	0.929	0.887	0.750	0.680	0.640	0.648	0.688	0.487	0.608	0.396	0.392	0.431	0.369	0.275	0.276	0.193	0.227	0.226	0.179	0.159	0.158	0.178	0.220	0.254	0.270	0.245	0.216	0.183	0.224	0.181	0.175	0.169	0.277	0.394	0.534	0.617	0.547	0.499	0.578	1.167	2.884	6.235	11.32	16.99	19.76	17.20	10.24	3.065	0.316	0.096	0.088	0.071	0.053	0.069	0.036	0.047	0.027
275.0	33.92	23.09	16.19	14.29	22.98	62.52	125.5	122.4	272.0	731.1	 2157	 4143	 1023	51.93	5.898	3.987	3.065	2.284	1.502	1.359	0.992	1.087	0.991	0.808	0.824	0.599	0.655	0.559	0.663	0.444	0.462	0.362	0.379	0.277	0.280	0.251	0.296	0.253	0.187	0.185	0.207	0.234	0.212	0.158	0.270	0.281	0.252	0.255	0.241	0.253	0.225	0.198	0.215	0.202	0.276	0.324	0.508	0.865	0.874	0.610	0.805	1.549	2.668	4.074	6.354	13.15	23.33	25.08	14.67	2.667	0.152	0.071	0.066	0.068	0.077	0.041	0.099
280.0	47.65	38.27	30.25	16.81	15.21	26.06	93.87	144.1	112.3	188.4	678.0	 2939	 4223	816.8	29.59	4.856	3.821	2.510	1.928	1.441	1.123	1.129	0.883	0.928	0.842	0.739	0.768	0.561	0.634	0.496	0.494	0.402	0.452	0.356	0.316	0.288	0.213	0.272	0.183	0.198	0.218	0.222	0.194	0.189	0.333	0.340	0.348	0.354	0.317	0.267	0.243	0.238	0.206	0.181	0.162	0.168	0.363	0.527	0.803	0.904	0.665	0.549	0.778	1.079	1.591	3.549	8.987	19.17	29.12	22.44	9.193	0.934	0.080	0.089	0.079	0.060	0.108
285.0	66.17	58.94	47.02	24.06	16.62	16.51	48.73	130.6	140.1	89.43	192.9	983.8	 3363	 4043	596.7	11.75	4.787	3.263	2.031	1.804	1.222	1.157	1.059	1.039	0.863	0.809	0.703	0.727	0.726	0.493	0.574	0.528	0.408	0.360	0.331	0.273	0.251	0.333	0.291	0.251	0.242	0.216	0.255	0.216	0.318	0.423	0.369	0.366	0.355	0.300	0.301	0.272	0.195	0.187	0.160	0.170	0.246	0.302	0.441	0.721	0.999	0.833	0.491	0.463	0.576	1.010	2.349	5.521	13.27	24.27	28.08	18.53	4.260	0.250	0.078	0.061	0.109
290.0	85.67	94.02	75.00	45.07	29.75	27.86	39.72	81.58	153.6	173.3	141.4	303.5	 1072	 2675	 3507	 1637	35.24	7.203	3.248	2.262	1.651	1.305	1.324	1.140	0.909	0.989	0.767	0.763	0.683	0.647	0.497	0.519	0.437	0.341	0.345	0.339	0.386	0.319	0.359	0.272	0.319	0.249	0.277	0.298	0.351	0.419	0.481	0.485	0.503	0.419	0.384	0.329	0.267	0.234	0.205	0.239	0.272	0.274	0.346	0.478	0.727	0.886	0.978	1.033	0.749	0.684	0.904	1.684	3.479	7.127	12.32	19.04	21.76	20.15	11.23	3.429	0.224
295.0	168.2	199.2	167.0	108.7	71.47	67.62	84.57	114.5	169.8	282.6	361.2	342.3	506.5	876.6	 1892	 4154	 2646	50.08	9.734	3.648	2.390	1.843	1.570	1.259	1.036	1.040	0.797	0.808	0.597	0.634	0.660	0.547	0.472	0.374	0.429	0.525	0.424	0.358	0.428	0.353	0.387	0.410	0.348	0.404	0.530	0.635	0.743	0.840	0.829	0.740	0.549	0.561	0.483	0.400	0.359	0.481	0.435	0.423	0.588	0.563	0.708	0.857	1.063	1.552	2.094	1.743	1.604	1.592	2.117	2.990	4.029	5.504	7.574	13.62	26.78	28.13	16.15
300.0	375.3	462.9	396.0	243.6	169.5	163.2	214.9	260.3	267.4	626.6	888.6	980.1	940.1	936.2	 1129	 2767	 5219	540.3	43.36	7.484	3.419	2.568	1.858	1.713	1.361	1.194	0.988	0.950	0.785	0.643	0.736	0.686	0.539	0.471	0.502	0.541	0.587	0.610	0.629	0.559	0.612	0.585	0.687	0.692	0.947	1.242	1.358	1.626	1.705	1.381	0.986	1.112	0.869	0.702	0.830	0.883	0.926	1.108	1.297	1.493	1.819	2.137	2.427	3.140	4.020	4.648	4.750	4.538	4.780	4.888	5.266	5.238	5.772	6.918	12.62	23.79	36.50
305.0	759.9	928.0	749.9	500.5	341.5	353.0	478.9	656.8	928.1	 1351	 1597	 2244	 2284	 2109	 1955	 2103	 3988	 5242	453.9	21.86	5.222	3.164	2.573	2.151	1.851	1.700	1.200	1.280	1.052	0.918	0.844	0.704	0.578	0.626	0.730	0.785	0.958	0.810	0.866	0.957	0.967	1.075	1.160	1.365	1.603	2.360	2.663	3.174	3.171	2.657	2.046	1.990	1.709	1.429	1.457	1.590	1.793	2.428	2.684	3.274	3.908	4.652	5.408	6.490	7.611	8.857	9.967	10.94	10.93	10.88	10.48	10.34	10.53	9.824	10.18	12.71	20.67
310.0	 1316	 1728	 1431	867.8	560.6	553.5	727.8	986.5	 1392	 1996	 2651	 3454	 3856	 3731	 3348	 2722	 2583	 3478	 3712	 1648	27.80	5.358	3.741	2.805	2.176	2.064	1.531	1.451	1.303	1.198	1.009	0.850	0.782	0.805	0.858	1.123	1.280	1.372	1.267	1.290	1.426	1.593	1.776	2.111	2.821	4.045	4.530	5.491	5.662	4.647	3.546	3.312	2.713	2.209	2.285	2.325	2.851	3.509	3.965	4.838	5.532	6.634	8.296	9.868	11.19	13.11	14.90	16.70	18.45	18.55	18.39	17.77	17.89	16.82	14.59	13.45	13.92
315.0	 1875	 2480	 2052	 1209	760.2	717.3	916.9	 1228	 1709	 2488	 3431	 4435	 5112	 5202	 4645	 3591	 2560	 1756	 1723	 4536	 2551	33.88	5.349	3.820	2.896	2.385	2.075	1.689	1.432	1.294	1.147	1.052	1.006	0.904	1.122	1.424	1.685	1.686	1.695	1.734	1.848	1.987	2.397	2.957	3.834	5.793	6.343	7.907	8.075	6.290	5.075	4.513	3.808	2.926	2.956	2.994	3.565	4.230	4.988	6.038	6.554	8.042	10.16	12.54	14.36	16.84	18.99	21.74	23.68	25.10	25.52	25.57	24.34	22.71	19.98	17.32	14.26
320.0	 2175	 2863	 2381	 1413	873.2	801.8	999.9	 1340	 1857	 2693	 3782	 4930	 5698	 5865	 5338	 4057	 2721	 1425	681.9	 2189	 5249	406.1	22.33	5.175	3.331	2.702	2.239	2.141	1.577	1.660	1.345	1.193	1.013	0.858	1.134	1.576	1.841	1.797	1.820	1.862	1.914	2.179	2.813	3.373	4.634	6.428	7.582	9.101	9.111	7.379	5.685	5.142	4.378	3.576	3.265	3.536	3.707	4.492	5.470	6.299	7.080	8.850	11.05	13.26	15.38	18.36	20.78	23.63	26.53	27.45	29.03	29.05	28.18	25.95	22.45	18.92	15.62
325.0	 2333	 3071	 2569	 1528	929.5	816.9	999.9	 1340	 1828	 2671	 3799	 4978	 5814	 5989	 5516	 4253	 2763	 1339	433.9	674.4	 2970	 4906	353.0	12.60	4.335	3.247	2.589	2.329	1.747	1.904	1.513	1.196	1.136	1.014	1.234	1.618	1.855	1.819	1.748	1.938	2.117	2.273	2.877	3.512	4.849	6.842	8.065	9.780	9.699	7.946	6.071	5.442	4.440	3.808	3.367	3.435	3.978	4.530	5.768	6.107	7.591	8.586	10.82	13.81	15.41	18.86	21.04	23.82	26.84	27.95	29.60	29.65	28.98	27.43	23.57	19.54	15.99
330.0	 2332	 3119	 2748	 1736	 1060	830.3	943.7	 1250	 1694	 2472	 3555	 4685	 5513	 5709	 5239	 4134	 2708	 1306	442.8	314.3	855.3	 2685	 3421	 1398	23.52	4.989	3.369	2.652	2.084	1.799	1.654	1.426	1.150	1.088	1.270	1.625	1.811	1.808	1.768	1.832	2.046	2.251	2.641	3.550	4.853	6.780	8.337	9.894	10.07	8.525	6.840	6.282	5.217	4.360	3.637	3.423	3.857	4.347	5.133	5.797	6.817	8.228	10.17	12.41	14.40	17.37	19.80	22.38	24.91	27.20	28.11	28.58	28.10	26.30	23.11	19.69	16.06
335.0	 2225	 3018	 2766	 1919	 1253	863.3	880.9	 1143	 1524	 2220	 3197	 4184	 4934	 5161	 4740	 3734	 2578	 1334	538.7	330.6	362.3	727.0	 1501	 4949	 2233	29.61	4.776	3.225	2.635	2.147	1.766	1.579	1.157	1.148	1.274	1.697	1.829	1.819	1.665	1.867	1.932	2.349	2.753	3.436	4.622	6.330	7.806	9.357	9.937	8.515	7.337	7.071	6.032	5.339	4.238	3.471	3.703	4.004	4.766	5.251	6.258	7.555	9.322	11.29	13.07	15.75	18.19	20.20	22.61	24.17	25.17	26.00	25.68	23.38	20.95	18.19	15.42
340.0	 2055	 2803	 2696	 1939	 1265	844.7	824.4	 1039	 1362	 1954	 2802	 3701	 4373	 4601	 4235	 3340	 2338	 1341	629.8	390.5	301.5	314.3	467.7	 2403	 5567	 1599	19.34	4.108	3.066	2.493	1.950	1.752	1.249	1.218	1.188	1.467	1.723	1.714	1.751	1.675	1.689	2.119	2.471	3.227	4.248	5.994	7.212	8.963	9.493	8.200	7.120	7.273	6.264	5.260	4.131	3.564	3.382	3.890	4.591	4.864	5.592	6.640	7.998	10.15	11.59	13.52	15.85	18.21	20.02	22.42	22.41	23.07	23.05	21.57	18.97	16.69	13.66
345.0	 1837	 2538	 2523	 1861	 1231	799.9	748.7	909.1	 1194	 1700	 2437	 3212	 3794	 4022	 3711	 2958	 2074	 1269	731.2	454.8	329.5	257.2	227.2	687.6	 3415	 5174	300.5	8.509	3.880	2.918	2.163	1.708	1.599	1.273	1.190	1.388	1.586	1.694	1.580	1.498	1.626	2.036	2.344	2.782	3.824	5.254	6.307	8.259	8.835	7.645	6.884	6.792	5.948	5.232	4.030	3.255	3.181	3.675	4.188	4.327	4.898	5.910	6.891	8.616	10.00	11.81	13.74	15.43	17.26	18.80	19.56	19.84	19.88	18.89	16.88	14.75	12.47
350.0	 1544	 2187	 2226	 1750	 1222	763.0	664.8	793.2	 1015	 1402	 1983	 2599	 3072	 3255	 3032	 2470	 1784	 1143	783.4	585.4	408.2	295.7	212.4	248.3	907.0	 2922	 3318	 1225	20.06	4.139	2.866	2.310	1.729	1.357	1.285	1.383	1.515	1.498	1.533	1.414	1.533	1.760	1.993	2.437	3.266	4.480	5.378	6.791	7.518	6.930	6.344	6.482	5.814	5.100	4.117	2.982	2.985	3.139	3.454	3.847	4.227	5.008	5.980	7.172	8.151	9.811	10.96	12.55	13.94	15.19	16.16	16.33	16.06	15.36	13.95	12.34	10.67
355.0	 1267	 1802	 1899	 1580	 1167	726.7	608.4	698.2	862.0	 1150	 1589	 2043	 2406	 2550	 2413	 2005	 1515	 1046	767.5	659.5	521.4	352.0	244.1	178.0	267.4	700.1	 1524	 4762	 1966	26.50	4.259	2.720	2.157	1.534	1.469	1.298	1.416	1.504	1.430	1.419	1.491	1.701	1.852	2.093	2.810	3.603	4.501	5.495	6.246	6.003	5.632	6.053	5.395	4.714	3.953	2.770	2.813	2.884	2.961	3.290	3.754	4.091	4.944	5.844	6.579	7.591	8.779	10.07	11.00	11.86	12.76	12.69	12.85	12.48	11.27	10.13	9.103
360.0	 1084	 1539	 1659	 1425	 1086	690.6	569.4	638.9	770.2	986.9	 1337	 1700	 1991	 2109	 2015	 1712	 1335	975.4	751.4	649.9	578.7	409.3	272.6	179.9	143.8	209.0	405.6	 2453	 5334	327.1	17.13	4.180	2.928	1.789	1.586	1.413	1.255	1.304	1.260	1.310	1.461	1.544	1.659	1.938	2.380	3.254	3.932	4.863	5.236	5.060	4.808	5.429	5.106	4.643	3.784	2.713	2.680	2.674	2.739	3.084	3.358	3.766	4.367	5.022	5.973	6.279	7.372	8.005	9.179	9.714	10.12	10.48	10.83	10.29	9.383	8.898	7.645
365.0	942.8	 1335	 1457	 1289	 1001	656.8	544.2	598.6	706.8	883.1	 1161	 1444	 1677	 1783	 1710	 1480	 1201	924.1	746.8	640.6	580.0	477.0	317.3	206.2	142.6	123.5	147.7	671.6	 3601	 4737	276.8	9.952	4.262	2.389	1.783	1.464	1.401	1.287	1.158	1.282	1.328	1.415	1.460	1.761	2.069	2.844	3.295	4.392	4.754	4.500	4.348	4.916	4.839	4.259	3.346	2.687	2.543	2.544	2.588	2.821	3.065	3.293	3.981	4.380	5.080	5.426	6.459	6.904	7.747	8.450	8.800	9.171	9.152	8.933	8.179	7.641	7.015
370.0	797.2	 1127	 1267	 1172	973.1	672.2	556.0	576.3	651.2	788.9	 1004	 1209	 1394	 1474	 1402	 1244	 1053	862.9	739.0	660.3	580.8	520.0	425.9	293.0	211.1	169.8	152.2	242.4	991.7	 3092	 3452	 1097	20.79	6.265	2.738	1.756	1.559	1.400	1.309	1.367	1.278	1.376	1.386	1.630	1.901	2.458	2.903	3.672	4.037	4.097	3.953	4.376	4.377	4.221	3.369	2.770	2.632	2.535	2.666	2.768	2.931	3.035	3.556	3.952	4.394	4.908	5.341	5.724	6.502	6.844	7.225	7.501	7.613	7.379	6.985	6.611	6.499
375.0	680.2	963.8	 1122	 1096	969.4	720.8	591.7	588.4	630.5	734.1	916.7	 1063	 1234	 1262	 1164	 1058	931.6	815.8	745.8	689.9	624.4	565.1	527.6	459.4	347.2	296.2	271.0	255.0	373.9	827.7	 1882	 4889	 1673	26.92	5.171	2.604	1.797	1.563	1.387	1.256	1.324	1.258	1.270	1.586	1.875	2.127	2.627	3.158	3.678	3.590	3.717	4.033	4.160	4.117	3.781	2.970	2.894	2.727	2.694	2.757	2.841	2.821	3.342	3.770	4.133	4.364	4.700	5.193	5.613	6.193	6.647	6.379	6.261	6.024	5.935	5.619	5.675
380.0	608.3	869.3	 1046	 1071	 1012	784.2	631.3	603.1	643.3	727.4	907.0	 1023	 1208	 1189	 1048	959.1	871.0	803.0	758.4	724.2	676.7	631.5	601.0	594.5	507.1	436.2	386.5	361.2	327.4	396.6	665.8	 2847	 4977	278.0	14.75	3.400	2.244	1.847	1.483	1.376	1.388	1.305	1.347	1.459	1.826	2.219	2.393	2.946	3.147	3.191	3.467	4.028	4.136	4.197	4.018	3.263	3.051	2.865	2.830	2.830	2.805	2.952	3.350	3.587	4.034	4.469	4.589	4.976	5.660	6.152	6.194	5.865	5.621	5.217	5.387	5.526	5.382
385.0	582.3	828.6	 1018	 1072	 1058	851.8	675.5	632.7	649.4	733.3	910.0	 1008	 1210	 1161	976.0	883.4	831.6	793.5	771.2	761.0	729.2	704.1	684.0	683.7	657.1	580.5	541.9	481.3	389.4	377.1	429.5	967.7	 3705	 3892	215.3	5.992	2.836	2.025	1.712	1.479	1.497	1.470	1.460	1.523	1.685	2.181	2.221	2.863	3.098	3.290	3.424	3.948	4.318	4.536	4.363	3.540	3.337	3.082	2.870	3.003	3.019	3.137	3.338	3.545	4.105	4.438	4.636	4.662	5.586	6.306	6.436	5.537	5.229	4.792	4.854	4.957	5.111
390.0	542.4	751.9	929.7	995.1	 1005	854.6	697.7	633.6	632.7	683.5	824.5	904.2	 1062	 1035	871.5	810.7	792.0	789.0	785.3	792.4	782.2	770.7	758.4	745.7	731.5	695.9	624.4	524.1	412.8	361.9	353.8	413.1	 1065	 2735	 2812	833.0	13.31	2.731	2.061	1.762	1.619	1.582	1.488	1.545	1.616	2.047	2.042	2.551	2.867	2.927	3.098	3.779	4.126	4.305	4.216	3.520	3.433	3.164	3.029	2.985	2.891	3.125	3.153	3.405	3.648	3.912	4.013	4.214	4.716	5.562	5.563	4.917	4.623	4.407	4.510	4.671	4.705
395.0	508.5	705.9	858.9	930.5	954.3	855.5	711.9	629.6	610.1	639.1	750.5	817.1	939.0	914.6	780.8	749.4	765.7	783.0	806.1	821.9	828.6	827.4	825.8	813.4	776.8	758.2	711.4	573.9	438.2	363.3	327.2	277.9	326.8	659.8	 1566	 3823	 1264	16.19	2.750	2.072	1.861	1.687	1.621	1.536	1.666	1.940	2.004	2.423	2.658	2.682	2.802	3.566	4.042	4.242	3.988	3.498	3.518	3.279	3.134	2.875	2.875	2.972	2.860	3.249	3.316	3.714	3.606	3.888	4.222	4.828	5.069	4.509	4.019	4.147	4.264	4.417	4.482
400.0	498.3	660.2	816.2	900.9	955.2	861.0	722.2	635.8	608.6	634.0	734.1	783.7	903.2	875.8	739.7	722.8	747.4	781.4	811.1	840.5	857.4	860.4	870.0	864.1	826.1	792.5	766.6	643.4	482.6	396.1	347.2	271.4	176.6	191.9	405.5	 2269	 3769	233.4	8.884	2.568	2.224	1.849	1.580	1.575	1.707	1.927	2.048	2.369	2.572	2.596	2.820	3.507	3.872	3.986	3.910	3.612	3.577	3.290	3.158	2.935	2.969	2.939	2.937	3.057	3.336	3.637	3.623	3.760	3.975	4.919	4.708	4.319	3.876	3.878	4.061	4.244	4.237
405.0	488.3	665.8	785.4	887.8	934.0	859.6	718.5	636.4	603.9	627.0	712.6	766.2	882.0	850.6	712.8	701.1	732.7	773.2	814.9	846.5	865.0	877.2	890.2	888.4	853.0	812.6	777.8	695.5	523.1	422.7	373.7	286.9	152.7	93.49	113.9	618.0	 2794	 2978	182.0	4.497	2.527	2.119	1.807	1.754	1.701	1.809	1.979	2.290	2.491	2.570	2.758	3.520	3.965	3.851	4.007	3.600	3.570	3.414	3.168	2.848	2.846	3.027	2.824	2.951	3.095	3.277	3.387	3.564	4.177	4.722	4.666	4.234	3.645	3.747	4.071	4.194	4.256
410.0	467.6	609.6	743.5	827.2	876.5	820.6	699.3	624.6	577.2	584.3	657.3	690.3	785.0	772.5	664.4	666.1	704.2	748.8	792.7	824.6	846.8	861.3	869.9	865.6	828.6	787.2	733.2	651.0	526.1	416.6	351.6	263.3	140.4	75.16	54.31	156.4	745.1	 2127	 2305	727.8	11.47	2.613	2.066	1.861	1.707	1.814	1.879	2.296	2.433	2.445	2.703	3.198	3.540	3.566	3.746	3.357	3.497	3.353	2.994	2.770	2.761	2.737	2.701	2.836	2.903	3.066	3.069	3.114	3.680	4.033	4.163	3.834	3.594	3.631	3.703	4.036	4.384
415.0	434.8	573.3	682.2	747.7	783.6	761.9	657.1	596.8	552.7	540.6	591.9	609.6	684.1	675.5	612.7	622.2	658.6	708.9	751.4	781.2	803.0	812.7	815.5	807.6	776.8	735.3	673.1	577.8	478.7	404.6	317.3	230.2	129.5	74.50	46.58	58.17	181.9	495.0	 1285	 2973	 1007	14.24	2.538	2.158	1.976	1.878	1.972	2.310	2.332	2.246	2.274	2.926	3.252	3.404	3.277	3.000	3.179	3.144	3.005	2.618	2.661	2.745	2.654	2.536	2.740	2.827	2.792	2.878	3.037	3.629	3.647	3.267	3.279	3.425	3.326	3.713	3.913
420.0	408.3	536.2	645.6	700.9	736.6	712.9	642.7	578.9	535.4	518.5	556.7	571.4	624.3	621.7	577.6	588.5	622.7	671.4	713.7	744.0	760.9	766.1	770.5	762.0	733.3	693.1	628.8	538.3	440.6	385.2	317.8	220.5	129.0	77.69	49.57	40.27	59.71	123.7	325.6	 1742	 2894	214.8	8.217	2.260	2.174	1.891	1.905	2.037	2.325	2.117	2.176	2.986	3.071	3.326	2.976	3.090	3.085	2.921	2.848	2.616	2.534	2.569	2.373	2.511	2.679	2.816	2.666	2.719	2.900	3.235	3.230	3.408	3.068	3.027	3.298	3.328	3.565
