Sample:	'1
File name:	y2025061804Ë®Å£º«º­¶´.FD3
Run date:	'09:46:17, 06/23/2025
Operator:	Administrator
Comment:	'

Instrument
Model:	F-2700 FL Spectrophotometer
Serial number:	23B8-004
ROM Version:	4J14000 07

Instrument parameters
Measurement type:	3-D scan
Data mode:	Fluorescence
EX  Start WL:	220.0 nm
EX  End WL:	600.0 nm
EX Sampling interval:	5.0 nm
EM  Start WL:	230.0 nm
EM  End WL:	650.0 nm
EM Sampling interval:	5.0 nm
Scan speed:	12000 nm/min
EX Slit:	5.0 nm
EM Slit:	5.0 nm
PMT Voltage:	700 V
Response:	Auto 
Corrected spectra:	Off
Contour interval:	50.000

Peak integration
Integration method:	Rectangular
Sensitivity:	1
Threshold:	1.000

Peaks
No.	ApexEX/EM(nm)	Height(Data)
1	225.0/585.0	63.36
2	230.0/345.0	1193
3	230.0/500.0	307.5
4	230.0/580.0	58.87
5	235.0/260.0	319.9
6	235.0/515.0	278.4
7	240.0/265.0	435.8
8	240.0/400.0	871.0
9	240.0/525.0	256.4
10	245.0/270.0	492.2
11	245.0/535.0	212.2
12	245.0/635.0	20.16
13	250.0/275.0	630.7
14	250.0/550.0	170.9
15	255.0/285.0	628.7
16	255.0/560.0	143.3
17	260.0/290.0	574.1
18	260.0/575.0	113.0
19	265.0/295.0	725.2
20	265.0/585.0	104.0
21	270.0/300.0	1004
22	270.0/405.0	731.8
23	270.0/600.0	94.22
24	275.0/305.0	1067
25	275.0/610.0	81.50
26	280.0/340.0	843.0
27	280.0/625.0	69.20
28	285.0/320.0	930.0
29	285.0/640.0	50.21
30	290.0/325.0	867.4
31	300.0/335.0	702.6
32	305.0/345.0	625.0
33	320.0/365.0	472.5
34	335.0/380.0	416.3
35	425.0/500.0	40.76
36	460.0/340.0	3.483
37	475.0/345.0	3.431
38	485.0/265.0	2.064
39	495.0/270.0	2.348
40	505.0/275.0	3.229
41	510.0/280.0	3.986
42	515.0/285.0	3.566
43	530.0/290.0	3.340
44	540.0/295.0	4.765
45	545.0/300.0	5.374
46	550.0/305.0	5.810
47	560.0/310.0	5.424
48	570.0/315.0	5.083
49	580.0/320.0	5.114
50	585.0/325.0	5.433

Data points
	220.0	225.0	230.0	235.0	240.0	245.0	250.0	255.0	260.0	265.0	270.0	275.0	280.0	285.0	290.0	295.0	300.0	305.0	310.0	315.0	320.0	325.0	330.0	335.0	340.0	345.0	350.0	355.0	360.0	365.0	370.0	375.0	380.0	385.0	390.0	395.0	400.0	405.0	410.0	415.0	420.0	425.0	430.0	435.0	440.0	445.0	450.0	455.0	460.0	465.0	470.0	475.0	480.0	485.0	490.0	495.0	500.0	505.0	510.0	515.0	520.0	525.0	530.0	535.0	540.0	545.0	550.0	555.0	560.0	565.0	570.0	575.0	580.0	585.0	590.0	595.0	600.0
230.0	64.14	922.3	1589	369.9	15.43	5.381	4.256	3.279	2.993	2.892	2.643	2.499	2.128	2.093	1.731	1.262	1.229	1.008	1.001	0.842	0.813	0.781	0.759	0.660	0.600	0.595	0.539	0.557	0.563	0.477	0.476	0.412	0.399	0.417	0.354	0.377	0.359	0.336	0.309	0.307	0.375	0.431	0.346	0.340	0.277	0.319	1.142	3.882	5.626	3.441	1.136	0.317	0.210	0.213	0.195	0.194	0.216	0.220	0.227	0.189	0.186	0.207	0.208	0.220	0.171	0.195	0.179	0.201	0.204	0.189	0.213	0.207	0.194	0.194	0.216	0.203	0.210
235.0	91.59	281.9	1363	1948	444.2	23.91	4.726	3.982	3.319	3.167	2.831	2.799	2.139	1.982	1.478	1.302	1.093	1.050	1.054	0.849	0.871	0.831	0.716	0.683	0.643	0.666	0.585	0.587	0.442	0.525	0.569	0.403	0.338	0.359	0.318	0.343	0.327	0.349	0.306	0.376	0.338	0.329	0.374	0.463	0.405	0.322	0.437	1.259	2.666	4.774	6.584	6.160	2.344	0.507	0.188	0.192	0.234	0.223	0.187	0.216	0.190	0.217	0.205	0.202	0.216	0.214	0.208	0.211	0.194	0.203	0.212	0.193	0.207	0.178	0.227	0.289	0.220
240.0	134.8	125.5	482.2	2122	2109	335.0	12.24	5.751	3.490	3.777	3.263	2.857	2.679	2.074	1.639	1.428	1.359	0.996	0.972	1.166	0.832	0.718	0.691	0.608	0.697	0.590	0.665	0.589	0.515	0.515	0.557	0.367	0.360	0.482	0.448	0.321	0.407	0.347	0.368	0.385	0.378	0.291	0.295	0.414	0.615	0.485	0.403	0.512	0.830	1.602	4.312	9.489	10.34	6.367	1.753	0.354	0.240	0.212	0.164	0.199	0.175	0.221	0.195	0.204	0.211	0.230	0.195	0.184	0.169	0.222	0.244	0.219	0.252	0.216	0.208	0.213	0.205
245.0	126.9	175.3	152.4	860.9	2850	2038	222.0	7.816	4.416	3.924	3.717	3.076	2.890	2.082	1.839	1.254	1.222	1.264	1.114	1.010	0.851	0.692	0.657	0.685	0.558	0.684	0.704	0.651	0.546	0.554	0.542	0.462	0.399	0.451	0.311	0.285	0.381	0.374	0.380	0.387	0.326	0.291	0.320	0.307	0.426	0.601	0.592	0.612	0.436	0.582	1.249	3.869	8.778	14.02	11.54	5.123	1.304	0.352	0.226	0.266	0.188	0.272	0.228	0.209	0.184	0.228	0.194	0.253	0.174	0.174	0.232	0.194	0.220	0.250	0.212	0.234	0.197
250.0	56.60	157.2	214.2	266.4	1041	2664	2573	785.5	33.67	6.347	4.446	3.651	3.062	2.215	2.010	1.647	1.527	1.504	1.253	0.993	0.941	0.800	0.772	0.760	0.677	0.662	0.725	0.584	0.657	0.560	0.612	0.524	0.443	0.392	0.360	0.299	0.383	0.401	0.320	0.357	0.346	0.340	0.340	0.277	0.365	0.419	0.431	0.746	0.848	0.732	0.612	1.101	2.368	5.012	8.457	12.72	15.43	12.22	6.142	1.435	0.323	0.254	0.267	0.243	0.203	0.237	0.221	0.214	0.191	0.196	0.238	0.190	0.199	0.229	0.189	0.253	0.188
255.0	31.25	60.55	194.7	297.7	307.6	759.3	2831	4346	297.5	29.41	6.554	5.377	3.769	2.611	2.376	1.950	1.741	1.336	1.180	1.350	1.066	0.735	0.751	0.746	0.676	0.681	0.709	0.594	0.557	0.603	0.523	0.483	0.513	0.461	0.443	0.390	0.412	0.348	0.380	0.345	0.425	0.348	0.379	0.346	0.309	0.274	0.349	0.414	0.528	0.881	1.167	1.212	0.935	1.385	2.157	3.356	6.877	16.09	25.44	21.47	8.758	1.437	0.270	0.308	0.225	0.248	0.210	0.250	0.209	0.194	0.220	0.256	0.262	0.220	0.195	0.241	0.211
260.0	32.05	32.05	90.39	319.9	304.1	239.4	1004	4419	4423	239.6	16.70	6.704	4.241	3.345	2.675	2.350	1.679	1.480	1.378	1.346	1.031	0.841	0.838	0.878	0.734	0.640	0.683	0.620	0.632	0.509	0.566	0.478	0.608	0.437	0.395	0.405	0.379	0.350	0.361	0.424	0.327	0.374	0.380	0.320	0.349	0.319	0.300	0.342	0.315	0.475	0.939	1.562	1.514	1.060	0.921	1.072	1.910	4.926	13.16	26.20	30.84	20.00	5.809	0.803	0.287	0.235	0.193	0.243	0.201	0.208	0.270	0.289	0.249	0.201	0.233	0.259	0.225
265.0	31.42	24.95	41.32	189.3	435.8	255.6	308.7	1736	5957	2056	178.5	10.06	6.256	4.166	2.987	2.813	2.180	1.852	1.386	1.219	1.135	0.965	0.916	0.824	0.728	0.853	0.771	0.715	0.653	0.523	0.699	0.569	0.502	0.452	0.410	0.380	0.450	0.369	0.363	0.387	0.319	0.399	0.448	0.380	0.400	0.290	0.314	0.326	0.270	0.301	0.478	1.066	1.890	2.064	1.522	0.896	0.887	1.504	3.559	8.604	20.90	35.08	29.80	16.72	3.111	0.423	0.281	0.241	0.238	0.221	0.264	0.215	0.222	0.250	0.238	0.293	0.243
270.0	48.29	39.92	42.19	90.26	279.6	492.2	334.8	487.7	2121	4969	4912	740.2	34.34	6.265	4.801	3.201	2.636	2.035	1.704	1.437	1.361	1.099	0.948	0.906	0.892	0.888	0.799	0.769	0.637	0.622	0.659	0.586	0.600	0.519	0.577	0.516	0.421	0.416	0.415	0.379	0.343	0.390	0.347	0.362	0.444	0.317	0.344	0.416	0.363	0.284	0.346	0.614	0.891	1.494	2.255	2.348	2.052	1.340	1.345	2.404	5.244	11.07	19.39	29.95	32.16	29.10	12.36	3.105	0.463	0.276	0.287	0.248	0.266	0.260	0.243	0.249	0.298
275.0	99.59	95.19	87.41	84.31	170.2	361.8	630.7	370.0	540.8	1343	5083	8577	982.1	29.68	6.949	4.436	3.585	2.678	2.472	1.731	1.573	1.294	1.067	0.915	0.882	0.848	0.915	0.790	0.673	0.792	0.692	0.627	0.650	0.523	0.677	0.517	0.547	0.576	0.441	0.384	0.390	0.361	0.442	0.495	0.506	0.477	0.463	0.461	0.469	0.467	0.447	0.431	0.651	0.863	1.256	1.715	3.144	3.229	2.344	1.380	1.697	2.861	4.776	7.440	11.51	26.56	48.71	31.84	18.54	2.978	0.421	0.317	0.280	0.268	0.213	0.274	0.244
280.0	156.6	161.9	145.8	115.7	145.4	247.5	504.9	624.2	274.4	371.2	1584	7684	7850	145.7	16.12	6.262	4.178	3.181	2.702	1.934	1.579	1.400	1.290	0.991	0.906	0.989	0.892	0.784	0.730	0.787	0.696	0.705	0.812	0.743	0.774	0.617	0.599	0.579	0.535	0.528	0.493	0.487	0.563	0.539	0.562	0.588	0.697	0.661	0.588	0.529	0.490	0.511	0.632	0.906	1.028	1.126	1.791	2.743	3.986	2.989	1.575	1.165	1.571	2.132	3.061	7.331	18.73	37.48	57.19	29.67	13.60	1.343	0.353	0.293	0.338	0.294	0.215
285.0	221.7	275.7	220.7	155.3	148.1	206.8	307.8	628.7	351.3	203.6	459.6	2554	9170	6135	107.7	9.911	5.078	3.974	2.979	2.485	1.737	1.509	1.503	1.122	1.107	0.919	1.068	0.901	0.735	0.777	0.793	0.648	0.667	0.685	0.782	0.660	0.749	0.728	0.675	0.604	0.519	0.566	0.631	0.652	0.697	0.712	0.809	0.818	0.848	0.600	0.525	0.591	0.644	0.777	0.861	1.003	1.245	1.468	2.417	3.566	3.495	2.069	1.109	1.082	1.401	2.317	4.915	10.77	26.56	48.24	58.27	25.43	7.094	0.787	0.386	0.327	0.272
290.0	285.6	368.2	304.4	205.2	154.0	179.5	216.0	330.3	574.1	500.3	284.3	737.8	2869	6715	6437	439.3	25.59	5.480	3.826	2.915	2.372	1.767	1.619	1.311	1.344	1.114	1.050	0.907	0.828	0.844	0.764	0.685	0.675	0.758	0.861	0.861	0.783	0.823	0.728	0.643	0.652	0.610	0.629	0.666	0.850	0.924	0.993	1.134	1.107	0.850	0.716	0.757	0.704	0.764	0.804	0.955	1.001	1.090	1.379	1.688	2.514	3.224	3.340	2.591	1.694	1.481	2.092	3.345	6.926	13.46	24.99	35.15	34.27	38.74	17.56	7.070	0.946
295.0	364.9	431.4	393.3	257.7	177.5	178.3	194.8	228.3	340.2	725.2	692.0	446.5	853.0	1731	4718	6630	629.7	21.98	5.928	4.042	2.878	2.427	1.883	1.578	1.347	1.204	1.160	0.892	1.052	0.728	0.791	0.689	0.868	0.841	0.872	0.904	0.846	0.887	0.835	0.685	0.602	0.733	0.732	0.760	0.910	1.173	1.154	1.286	1.368	0.988	0.952	0.876	0.771	0.748	0.882	0.941	0.950	0.889	1.142	1.134	1.568	1.727	2.548	3.960	4.765	3.087	2.003	2.067	2.850	4.262	6.511	8.891	9.915	22.41	43.56	58.37	27.98
300.0	381.9	476.7	430.8	283.6	198.2	198.4	215.6	236.9	304.0	542.3	1004	647.4	483.3	580.8	1369	5977	5694	461.0	11.32	5.443	3.519	2.909	2.083	1.781	1.586	1.360	1.342	1.031	0.994	0.956	0.783	0.841	0.870	0.905	0.954	0.891	1.010	0.892	0.861	0.806	0.653	0.732	0.705	0.856	1.057	1.220	1.272	1.424	1.491	1.168	0.958	0.940	0.910	0.857	0.951	1.017	1.012	1.104	1.255	1.247	1.512	1.505	2.063	2.598	4.443	5.374	4.271	2.747	2.331	2.563	2.853	3.054	3.170	6.058	13.62	34.58	57.04
305.0	403.4	480.1	466.7	324.0	226.7	223.4	247.8	287.9	350.4	483.0	866.2	1067	549.9	396.9	472.5	1861	6890	4675	71.18	7.982	4.647	3.384	2.352	2.195	1.934	1.629	1.368	1.136	1.153	0.882	0.952	0.992	0.871	0.884	0.886	0.985	0.959	0.871	1.016	0.850	0.690	0.855	0.783	0.845	1.104	1.229	1.398	1.539	1.452	1.277	1.098	1.148	1.056	0.951	1.025	1.018	1.178	1.367	1.479	1.693	1.616	1.694	2.028	2.325	3.003	4.104	5.810	5.260	3.890	2.674	2.437	2.077	2.015	2.349	4.053	9.028	20.36
310.0	399.3	486.3	469.7	336.8	243.6	247.2	279.5	329.1	397.6	499.0	668.4	961.0	945.1	507.7	325.3	544.7	2040	4962	5075	1218	21.12	4.519	3.262	2.513	2.151	1.709	1.525	1.381	1.162	1.019	0.893	0.920	0.841	0.912	0.921	0.939	1.022	1.035	1.015	0.841	0.841	0.950	0.930	0.838	1.068	1.168	1.400	1.462	1.416	1.315	1.223	1.260	1.067	1.107	1.028	1.225	1.342	1.411	1.527	1.660	1.727	1.968	2.157	2.537	2.742	2.994	3.833	4.657	5.424	4.840	3.873	2.611	1.984	1.976	1.969	2.976	5.499
315.0	424.1	530.4	469.9	358.2	279.2	283.0	314.8	363.2	432.3	521.2	629.4	743.3	881.9	889.6	419.7	304.9	579.7	1229	3396	6569	495.7	20.90	5.014	3.294	2.524	2.002	1.683	1.553	1.302	1.152	0.968	0.902	0.912	0.810	0.969	0.896	1.151	0.944	0.896	0.892	0.752	0.901	0.940	0.927	1.040	1.189	1.320	1.619	1.465	1.286	1.207	1.223	1.179	1.232	1.233	1.323	1.448	1.472	1.513	1.693	1.934	2.155	2.388	2.652	3.092	2.944	3.358	3.531	3.970	4.217	5.083	4.715	3.450	2.354	1.754	1.785	2.520
320.0	449.1	582.1	546.4	421.4	323.2	319.1	351.3	394.4	467.1	557.3	656.0	718.5	757.7	930.0	686.5	329.9	313.1	398.6	944.4	4587	4255	393.0	10.41	4.028	3.127	2.416	1.851	1.702	1.497	1.262	1.161	1.007	0.996	0.920	0.974	0.998	1.025	0.863	0.895	0.902	0.730	0.815	0.883	0.951	1.102	1.255	1.407	1.799	1.702	1.548	1.449	1.484	1.357	1.362	1.423	1.512	1.631	1.747	1.716	1.748	1.986	2.187	2.521	2.651	3.025	3.033	3.267	3.465	3.617	3.687	4.068	4.929	5.114	3.974	2.429	2.031	2.006
325.0	526.9	686.3	708.8	519.7	408.5	364.9	375.9	416.4	489.5	585.7	691.1	749.5	755.1	780.9	867.4	493.6	299.2	251.7	319.0	1349	4936	3733	58.77	6.686	4.096	3.023	2.173	1.775	1.525	1.247	1.243	1.196	0.959	0.964	0.966	0.941	0.921	0.825	0.973	0.868	0.913	0.869	1.036	0.976	1.196	1.502	1.652	2.094	2.154	1.846	1.743	1.773	1.445	1.592	1.530	1.666	1.709	1.731	1.816	1.810	2.157	2.247	2.840	2.965	3.103	3.122	3.384	3.695	3.590	3.523	3.654	3.843	4.677	5.433	4.516	2.970	2.380
330.0	583.6	831.3	933.7	725.0	502.1	422.5	418.1	447.6	521.0	623.8	722.4	788.2	782.6	741.9	747.1	715.6	467.7	272.8	219.2	406.9	1439	3762	4147	1117	18.54	4.351	2.894	2.211	1.820	1.526	1.445	1.196	1.117	1.169	1.042	0.974	1.114	0.927	0.954	0.973	0.895	0.993	1.027	1.048	1.322	1.678	1.992	2.612	2.535	2.471	2.280	2.256	1.919	1.916	1.749	1.765	1.920	1.929	1.905	2.134	2.312	2.245	2.791	2.977	3.345	3.352	3.433	3.894	3.731	3.708	3.827	3.802	3.964	4.143	4.569	4.436	4.049
335.0	639.7	937.9	1078	888.0	620.7	501.3	455.5	490.3	554.2	663.6	761.5	817.6	824.1	778.1	701.2	663.8	702.6	428.8	251.6	236.4	407.5	915.5	2688	5575	424.2	20.01	4.205	2.958	2.489	1.961	1.563	1.451	1.317	1.106	1.151	0.999	1.059	1.048	1.049	0.935	0.932	0.936	1.007	1.185	1.424	1.830	2.229	2.789	2.985	2.751	2.607	2.892	2.303	2.178	2.257	2.045	2.306	2.179	2.170	2.267	2.429	2.438	2.719	3.252	3.487	3.384	3.467	3.924	4.102	3.912	3.943	3.940	3.845	3.852	3.924	3.785	4.081
340.0	656.0	966.9	1169	980.8	693.8	546.8	503.9	505.6	574.6	671.6	766.8	836.9	843.0	804.8	714.6	631.0	669.1	604.3	324.2	225.3	196.7	265.3	724.4	3818	3556	352.1	9.994	3.848	2.979	2.119	1.696	1.388	1.322	1.291	1.218	1.040	1.010	1.173	0.952	0.915	0.963	0.876	1.088	1.144	1.486	1.959	2.259	2.914	3.483	2.881	3.130	3.118	2.626	2.472	2.297	2.253	2.277	2.387	2.120	2.468	2.486	2.666	2.805	3.266	3.341	3.450	3.664	3.912	3.940	3.946	4.086	4.153	4.048	4.185	4.112	3.490	3.875
345.0	665.8	937.3	1193	1038	735.4	579.2	522.5	517.2	575.7	672.3	758.9	832.2	833.7	807.5	729.4	633.3	578.0	625.0	455.0	255.7	173.4	143.7	218.1	1090	4184	3234	52.44	5.985	3.441	2.492	1.685	1.345	1.542	1.170	1.299	1.033	1.004	1.085	0.918	0.875	0.962	0.909	1.101	1.343	1.537	1.995	2.362	3.021	3.113	3.062	3.037	3.431	2.725	2.478	2.321	2.347	2.122	2.438	2.334	2.401	2.628	2.662	3.083	3.261	3.213	3.244	3.915	3.928	3.814	4.101	3.976	3.925	4.242	4.124	4.092	3.626	3.765
350.0	630.6	930.5	1151	1039	793.5	629.9	553.6	545.3	586.3	668.9	743.5	803.9	818.3	796.3	732.8	643.5	570.6	538.3	535.8	398.6	219.4	153.8	134.0	304.1	1209	3171	3591	974.5	17.14	3.470	2.400	1.802	1.694	1.296	1.211	1.091	1.133	1.028	0.927	0.920	0.921	0.965	0.977	1.186	1.373	1.787	2.202	2.695	3.090	3.092	3.012	3.371	2.763	2.706	2.641	2.430	2.448	2.441	2.429	2.580	2.580	2.807	3.053	3.198	3.181	3.343	3.708	3.576	3.870	4.054	3.998	4.056	4.207	4.026	4.098	3.811	3.870
355.0	600.1	887.4	1082	1026	826.6	688.2	609.0	580.2	619.2	680.9	744.3	786.2	811.9	786.6	736.5	664.6	590.0	524.0	478.8	504.0	352.6	203.5	153.1	155.3	328.5	768.7	2309	4600	385.7	18.61	3.725	2.305	1.940	1.507	1.323	1.136	1.131	1.006	0.982	0.813	0.909	0.961	1.029	1.114	1.430	1.713	1.972	2.686	2.936	2.927	2.891	3.219	3.098	2.952	2.659	2.603	2.521	2.619	2.516	2.644	2.783	2.824	3.114	3.295	3.290	3.059	3.585	3.748	3.758	3.947	3.970	3.734	4.024	4.082	4.100	3.746	3.934
360.0	590.9	832.4	1053	1005	849.3	730.7	649.6	619.1	653.0	699.1	747.9	781.1	807.5	781.5	732.6	678.0	612.5	544.6	472.6	473.1	465.7	279.6	183.7	146.3	153.8	222.6	619.2	3222	3231	328.8	9.062	2.995	2.269	1.587	1.517	1.336	1.138	1.114	0.943	0.912	0.959	0.979	1.067	1.083	1.464	1.663	1.919	2.394	2.764	2.868	2.737	3.209	3.070	2.975	2.819	2.603	2.861	2.782	2.710	2.700	2.781	2.893	3.052	3.395	3.171	3.424	3.426	3.576	3.703	3.809	3.986	4.079	4.108	4.040	4.013	3.768	3.918
365.0	553.2	813.5	1022	966.2	864.0	756.6	666.2	643.4	672.8	717.1	752.6	778.5	790.0	765.8	728.8	683.1	624.8	560.3	493.3	449.4	472.5	394.7	234.7	172.8	134.9	119.0	186.9	937.8	3765	2992	48.71	5.240	3.069	2.175	1.525	1.477	1.065	0.939	1.061	1.068	0.830	1.038	1.097	1.152	1.336	1.571	1.939	2.310	2.765	2.741	2.818	3.152	3.131	3.148	2.985	2.685	2.954	2.825	2.944	2.867	2.929	2.988	3.191	3.412	3.513	3.464	3.518	3.802	3.855	3.821	3.899	3.941	4.026	4.026	3.984	4.026	4.257
370.0	541.1	762.5	963.4	955.7	859.1	774.0	703.9	673.2	698.9	721.1	743.2	767.2	774.9	757.2	725.0	681.3	638.5	583.5	526.4	470.5	435.9	440.8	359.8	234.4	167.3	126.4	112.4	259.1	1099	2995	3279	868.5	15.57	2.998	1.948	1.503	1.256	1.137	1.117	0.932	0.955	1.078	1.078	1.184	1.288	1.509	1.891	2.344	2.567	2.603	2.743	3.127	3.270	3.076	3.020	2.726	2.974	3.009	2.984	3.024	2.979	3.182	3.191	3.448	3.296	3.407	3.448	3.570	3.597	3.703	3.872	3.831	4.008	4.127	4.092	3.938	3.990
375.0	544.9	735.2	927.6	924.9	886.9	788.9	739.8	706.4	715.5	731.6	740.5	758.4	765.2	740.5	709.3	674.1	645.6	601.7	545.3	496.5	446.1	413.4	425.9	347.2	217.1	161.1	125.2	128.8	292.6	729.7	2211	4151	335.9	16.07	2.956	1.999	1.444	1.376	1.145	1.109	0.977	1.105	1.056	1.344	1.456	1.502	1.900	2.269	2.361	2.647	2.515	3.271	3.301	3.134	3.218	2.841	3.095	3.122	3.059	3.004	3.265	3.190	3.204	3.413	3.507	3.499	3.648	3.495	3.578	3.633	3.832	3.424	4.027	3.913	4.097	3.860	3.916
380.0	512.9	710.5	906.1	921.4	875.7	811.8	750.9	720.1	715.5	741.1	748.9	750.9	749.8	728.6	706.1	666.5	639.9	607.9	562.4	518.3	461.5	416.3	407.9	416.3	284.0	188.8	147.3	118.0	128.9	207.0	599.4	3015	2803	272.6	7.277	2.456	1.744	1.645	1.201	1.083	1.040	1.113	0.986	1.273	1.383	1.532	1.836	2.163	2.460	2.314	2.436	3.024	3.471	3.104	3.101	3.115	3.441	3.036	3.116	3.107	3.350	3.251	3.232	3.449	3.368	3.530	3.286	3.433	3.621	3.700	3.989	3.574	3.998	3.983	3.973	4.077	4.126
385.0	504.3	701.4	882.5	910.3	883.2	815.7	758.0	726.8	717.3	731.2	746.2	753.2	733.7	715.1	689.5	656.5	631.4	605.7	566.6	521.9	480.6	434.9	393.5	406.5	363.7	234.1	172.1	132.5	108.6	102.6	174.2	888.5	3268	2459	39.14	4.124	2.399	1.731	1.577	1.129	1.013	1.059	0.985	1.196	1.316	1.519	1.735	2.210	2.375	2.449	2.554	2.918	3.107	3.204	3.226	2.949	3.182	3.095	3.090	3.236	3.299	3.250	3.422	3.156	3.322	3.403	3.148	3.384	3.662	3.569	3.637	3.898	3.884	3.888	3.892	4.035	4.037
390.0	493.5	691.8	853.8	886.9	868.0	817.3	759.9	735.4	734.8	734.3	733.7	739.6	720.7	698.9	670.1	640.1	620.6	596.7	568.9	535.4	495.2	452.7	409.9	386.0	381.0	326.8	222.6	165.1	129.7	101.5	94.97	236.3	952.7	2402	2494	657.5	12.46	2.484	1.842	1.357	1.267	1.178	0.958	1.180	1.318	1.480	1.632	2.062	2.331	2.308	2.447	3.071	3.195	3.273	3.109	3.186	3.180	3.157	3.120	3.239	3.157	3.277	3.351	3.386	3.397	3.240	3.375	3.502	3.440	3.299	3.685	3.520	3.725	3.853	3.909	3.842	3.919
395.0	497.2	664.5	824.4	883.6	855.3	814.2	769.5	747.5	733.2	732.4	724.7	729.1	709.5	686.6	661.8	623.7	608.3	586.0	560.1	536.3	504.5	466.3	427.3	392.3	365.2	364.9	310.3	211.0	163.8	127.7	98.16	107.0	247.9	582.4	1737	3130	278.0	12.00	2.500	1.848	1.319	1.119	1.141	1.326	1.350	1.590	1.768	2.039	2.225	2.226	2.360	3.035	3.126	3.182	3.249	2.887	3.177	3.128	3.247	3.364	3.164	3.315	3.057	3.344	3.189	3.103	3.320	3.247	3.324	3.280	3.231	3.503	3.679	3.691	3.473	3.869	3.767
400.0	504.9	651.8	818.5	855.4	871.0	816.6	780.0	758.4	746.6	729.8	727.3	723.3	700.0	674.1	647.4	613.8	591.7	574.9	551.7	528.6	497.9	469.6	442.7	405.5	365.9	350.0	355.2	269.1	189.5	150.0	114.8	91.49	101.0	161.1	482.6	2345	2280	218.1	6.017	2.350	1.591	1.499	1.336	1.232	1.414	1.474	1.675	2.042	2.139	2.109	2.433	3.188	2.830	3.264	3.219	2.982	3.488	3.227	3.288	3.316	3.155	3.266	3.260	3.324	3.150	3.208	3.305	3.204	3.115	3.411	3.269	3.362	3.408	3.551	3.437	4.153	3.765
405.0	496.5	659.2	795.4	846.1	845.2	822.8	783.1	764.7	745.3	720.5	731.8	710.3	691.2	670.5	631.3	595.3	575.1	561.3	540.0	515.2	494.6	475.6	449.0	415.3	377.4	344.6	350.2	327.7	229.5	174.4	135.0	101.4	78.65	74.33	135.0	694.5	2510	1978	34.53	3.375	1.836	1.577	1.368	1.324	1.476	1.551	1.537	2.122	2.195	2.124	2.414	3.183	2.884	3.176	3.049	2.965	3.314	3.201	3.244	3.157	3.195	3.292	3.342	3.144	3.081	3.195	3.347	3.386	3.265	3.440	3.486	3.421	3.533	3.643	3.295	3.689	3.490
410.0	479.3	643.9	766.3	831.1	833.3	809.4	777.2	757.4	741.5	712.3	724.8	701.0	682.2	648.0	613.9	574.6	554.3	539.1	519.7	502.7	489.1	468.5	446.9	420.8	389.7	355.3	331.1	333.0	294.4	215.2	159.8	119.0	87.74	66.57	64.89	179.5	739.0	1894	1945	502.0	10.47	2.042	1.676	1.449	1.410	1.529	1.760	2.040	2.199	2.128	2.395	2.931	2.872	3.069	3.011	2.861	3.182	3.365	3.360	3.175	3.338	3.235	3.311	3.194	3.195	3.298	3.226	3.254	3.107	3.221	3.235	3.344	3.506	3.688	3.400	3.516	3.430
