Sample:	'1
File name:	Default_20231012_222235.FD3
Run date:	'22:16:14, 10/12/2023
Operator:	dsjg
Comment:	'

Instrument
Model:	F-2700 FL Spectrophotometer
Serial number:	2198-001
ROM Version:	4J14000 07

Instrument parameters
Measurement type:	3-D scan
Data mode:	Fluorescence
EX  Start WL:	220.0 nm
EX  End WL:	600.0 nm
EX Sampling interval:	5.0 nm
EM  Start WL:	230.0 nm
EM  End WL:	650.0 nm
EM Sampling interval:	5.0 nm
Scan speed:	12000 nm/min
EX Slit:	5.0 nm
EM Slit:	5.0 nm
PMT Voltage:	700 V
Response:	Auto 
Corrected spectra:	Off
Contour interval:	50.000

Peak integration
Integration method:	Rectangular
Sensitivity:	1
Threshold:	1.000

Peaks
No.	ApexEX/EM(nm)	Height(Data)
1	250.0/425.0	598.6
2	255.0/280.0	133.8
3	255.0/430.0	606.7
4	260.0/435.0	606.1
5	265.0/440.0	603.5
6	270.0/300.0	273.3
7	275.0/305.0	322.3
8	280.0/310.0	322.6
9	285.0/320.0	306.4
10	290.0/325.0	286.9
11	305.0/345.0	243.0

Data points
	220.0	225.0	230.0	235.0	240.0	245.0	250.0	255.0	260.0	265.0	270.0	275.0	280.0	285.0	290.0	295.0	300.0	305.0	310.0	315.0	320.0	325.0	330.0	335.0	340.0	345.0	350.0	355.0	360.0	365.0	370.0	375.0	380.0	385.0	390.0	395.0	400.0	405.0	410.0	415.0	420.0	425.0	430.0	435.0	440.0	445.0	450.0	455.0	460.0	465.0	470.0	475.0	480.0	485.0	490.0	495.0	500.0	505.0	510.0	515.0	520.0	525.0	530.0	535.0	540.0	545.0	550.0	555.0	560.0	565.0	570.0	575.0	580.0	585.0	590.0	595.0	600.0
230.0	86.19	917.4	 1326	248.2	12.38	7.835	6.487	5.775	4.907	4.080	3.569	3.343	2.958	2.460	2.092	1.779	1.564	1.479	1.381	1.387	1.231	1.226	1.138	1.059	1.065	1.013	0.964	0.910	0.977	0.966	0.924	0.908	0.815	0.833	0.750	0.811	0.768	0.772	0.744	0.735	0.727	0.741	0.763	0.646	0.608	0.603	0.865	2.707	5.312	4.762	2.165	0.698	0.432	0.453	0.466	0.490	0.442	0.477	0.477	0.432	0.468	0.435	0.430	0.452	0.468	0.434	0.442	0.441	0.442	0.462	0.452	0.428	0.430	0.453	0.482	0.455	0.467
235.0	61.73	294.5	 1107	 1242	262.8	11.85	6.049	5.561	5.181	4.258	4.004	3.364	3.104	2.686	2.045	2.111	1.624	1.423	1.322	1.347	1.404	1.254	1.104	1.095	1.076	0.996	0.934	0.914	0.845	0.896	0.977	0.874	0.861	0.722	0.753	0.743	0.729	0.802	0.763	0.737	0.658	0.678	0.701	0.763	0.779	0.653	0.628	1.065	2.146	3.492	5.207	5.766	3.053	0.909	0.480	0.448	0.454	0.483	0.463	0.425	0.470	0.425	0.487	0.466	0.478	0.451	0.442	0.433	0.432	0.465	0.462	0.448	0.414	0.450	0.401	0.477	0.432
240.0	87.77	97.17	414.7	 1370	 1174	177.9	9.083	6.011	5.484	4.511	3.924	3.863	3.017	2.531	2.105	1.870	1.643	1.544	1.581	1.487	1.250	1.250	1.183	1.036	1.049	1.022	0.862	0.939	0.978	0.996	0.957	0.856	0.819	0.798	0.730	0.759	0.713	0.812	0.760	0.729	0.696	0.665	0.639	0.720	0.781	0.741	0.705	0.773	0.848	1.255	2.700	5.918	8.037	5.968	2.164	0.560	0.406	0.473	0.464	0.489	0.459	0.421	0.512	0.419	0.413	0.449	0.464	0.434	0.464	0.436	0.432	0.490	0.428	0.340	0.474	0.446	0.455
245.0	88.28	84.13	117.0	614.5	 1603	 1042	104.6	7.559	5.475	4.718	4.185	3.826	3.148	2.633	2.393	2.055	1.710	1.446	1.453	1.476	1.317	1.313	1.153	1.079	1.112	1.065	1.130	0.969	1.118	1.022	0.856	0.963	0.891	0.758	0.726	0.648	0.705	0.813	0.832	0.833	0.706	0.643	0.596	0.623	0.703	0.751	0.701	0.744	0.656	0.658	0.969	2.267	5.393	8.654	8.484	5.025	1.337	0.556	0.463	0.489	0.487	0.487	0.471	0.521	0.467	0.507	0.416	0.433	0.481	0.464	0.486	0.436	0.429	0.434	0.419	0.479	0.468
250.0	50.50	87.10	98.54	170.6	652.7	 1450	 1093	165.6	16.84	5.737	4.659	3.835	3.437	2.765	2.573	2.139	1.879	1.782	1.570	1.363	1.370	1.252	1.119	1.166	1.147	1.141	1.104	0.962	0.985	0.930	1.006	0.885	0.995	0.770	0.743	0.663	0.680	0.699	0.772	0.784	0.728	0.694	0.651	0.638	0.658	0.679	0.622	0.753	0.782	0.705	0.631	0.910	1.617	3.158	5.144	7.635	9.271	7.556	4.318	1.480	0.543	0.491	0.437	0.500	0.459	0.489	0.403	0.426	0.468	0.436	0.425	0.479	0.418	0.437	0.430	0.488	0.454
255.0	33.30	42.82	100.9	118.6	167.2	451.0	 1451	 1952	223.2	15.36	5.353	4.855	3.808	2.803	2.522	2.251	1.897	2.068	1.622	1.452	1.464	1.349	1.214	1.120	1.109	1.106	1.070	0.938	0.989	1.008	0.966	1.026	0.928	0.726	0.822	0.664	0.677	0.696	0.698	0.702	0.671	0.804	0.657	0.669	0.655	0.709	0.582	0.579	0.650	0.642	0.806	0.945	0.811	1.118	1.551	2.228	3.995	8.071	13.30	12.89	6.039	1.443	0.466	0.441	0.550	0.497	0.442	0.429	0.470	0.469	0.460	0.417	0.437	0.543	0.432	0.492	0.446
260.0	33.18	27.05	53.90	118.6	101.4	117.2	555.4	 2069	 1777	177.0	8.913	5.411	4.218	3.062	2.898	2.102	2.099	2.037	1.812	1.534	1.553	1.327	1.286	1.147	1.209	1.226	1.092	0.991	0.909	0.988	0.974	0.938	0.940	0.733	0.778	0.664	0.666	0.684	0.659	0.601	0.632	0.761	0.716	0.691	0.666	0.650	0.628	0.557	0.596	0.504	0.602	1.028	0.990	0.834	0.724	0.960	1.393	2.671	6.510	12.84	15.92	11.28	4.418	0.923	0.493	0.495	0.441	0.466	0.521	0.475	0.424	0.398	0.420	0.432	0.418	0.446	0.466
265.0	31.40	24.62	26.83	72.63	119.4	68.36	143.8	883.3	 2466	 1555	132.8	6.790	4.535	3.787	2.765	2.645	2.197	1.838	1.643	1.732	1.435	1.533	1.302	1.116	1.233	1.200	1.198	1.075	1.013	0.962	0.950	1.025	0.867	0.821	0.789	0.766	0.705	0.740	0.640	0.662	0.605	0.697	0.693	0.722	0.667	0.676	0.636	0.569	0.591	0.495	0.531	0.721	1.005	0.988	0.866	0.662	0.758	0.965	1.892	4.478	10.03	16.54	17.01	9.563	2.484	0.567	0.456	0.495	0.488	0.464	0.486	0.460	0.439	0.443	0.459	0.444	0.421
270.0	31.53	22.13	19.13	31.48	74.80	109.8	82.43	221.1	927.8	 2141	 2106	585.6	32.69	4.595	3.463	2.636	2.527	2.097	1.919	1.681	1.474	1.378	1.187	1.201	1.257	1.340	1.144	1.152	1.086	1.038	0.923	1.000	0.856	0.840	0.770	0.800	0.730	0.660	0.715	0.626	0.617	0.658	0.629	0.707	0.698	0.696	0.564	0.596	0.519	0.485	0.509	0.554	0.631	0.724	0.959	1.065	0.901	0.759	0.833	1.408	2.788	5.442	9.234	13.44	15.92	13.67	7.456	2.420	0.626	0.520	0.455	0.508	0.441	0.437	0.429	0.447	0.459
275.0	37.11	25.68	19.97	18.20	28.29	71.74	128.7	104.9	221.5	599.3	 1919	 3044	861.6	30.72	4.388	3.631	2.791	2.193	2.162	1.847	1.661	1.465	1.409	1.296	1.231	1.210	1.239	1.298	1.124	1.078	0.998	0.902	0.998	0.923	0.755	0.706	0.691	0.694	0.632	0.731	0.602	0.603	0.660	0.694	0.745	0.724	0.596	0.625	0.582	0.561	0.537	0.539	0.596	0.571	0.573	0.711	0.963	1.117	1.090	0.945	1.068	1.600	2.464	3.586	5.751	11.77	18.66	19.79	10.61	2.108	0.526	0.566	0.479	0.442	0.454	0.447	0.420
280.0	42.04	38.46	24.91	17.80	16.88	33.78	101.5	133.8	89.61	153.7	651.1	 2540	 3045	630.7	13.77	4.108	3.171	2.383	2.524	1.915	1.574	1.643	1.472	1.234	1.333	1.318	1.391	1.195	1.118	1.134	1.109	0.963	0.957	0.828	0.730	0.770	0.795	0.670	0.619	0.704	0.632	0.559	0.662	0.715	0.747	0.768	0.672	0.680	0.582	0.545	0.495	0.523	0.613	0.488	0.528	0.552	0.672	0.970	1.208	1.262	0.891	0.821	0.944	1.236	1.680	3.610	8.145	16.56	22.96	18.04	6.915	0.977	0.539	0.561	0.519	0.475	0.437
285.0	56.97	44.96	31.11	24.11	18.55	22.02	52.46	132.1	123.0	70.76	179.4	936.2	 2881	 2772	101.7	6.716	3.757	3.242	2.709	2.368	1.821	1.677	1.512	1.375	1.323	1.156	1.315	1.217	1.156	1.028	1.005	1.075	0.946	0.892	0.843	0.822	0.793	0.791	0.675	0.641	0.693	0.666	0.710	0.642	0.698	0.691	0.772	0.670	0.670	0.539	0.527	0.537	0.520	0.547	0.568	0.515	0.623	0.666	0.829	1.200	1.254	1.027	0.802	0.838	0.862	1.344	2.325	5.236	11.68	20.64	23.48	14.30	3.328	0.579	0.416	0.458	0.454
290.0	82.85	73.01	50.93	35.63	23.26	23.91	33.62	74.70	143.7	147.2	118.3	275.2	979.9	 2242	 2543	 1030	27.60	3.987	3.109	2.620	2.173	1.841	1.688	1.539	1.437	1.392	1.381	1.253	1.196	1.128	1.141	1.054	0.931	0.940	0.963	0.897	0.902	0.823	0.766	0.678	0.703	0.689	0.701	0.706	0.662	0.729	0.697	0.750	0.750	0.620	0.555	0.585	0.625	0.559	0.610	0.572	0.596	0.597	0.664	0.783	1.064	1.231	1.351	1.268	0.934	0.902	1.134	1.783	3.313	6.371	11.13	15.95	18.54	16.36	9.448	2.693	0.591
295.0	105.1	102.9	75.92	52.76	35.35	35.84	38.51	57.32	100.4	193.8	208.6	175.1	302.7	619.6	 1593	 3160	618.2	30.45	4.046	3.066	2.563	2.106	1.972	1.541	1.453	1.643	1.570	1.250	1.103	1.269	1.173	1.184	0.965	1.105	1.051	0.905	0.983	0.952	0.784	0.744	0.697	0.718	0.747	0.713	0.644	0.794	0.644	0.733	0.768	0.731	0.665	0.691	0.700	0.685	0.592	0.673	0.617	0.724	0.703	0.708	0.834	0.955	1.147	1.497	1.816	1.521	1.155	1.214	1.532	2.196	3.156	4.274	6.455	11.87	22.31	24.69	12.33
300.0	134.1	126.1	96.23	62.54	45.63	44.41	50.04	66.97	92.12	169.5	273.3	202.7	183.1	216.0	511.1	 2048	 3408	499.3	14.44	3.954	3.093	2.273	2.154	1.694	1.804	1.598	1.512	1.443	1.325	1.223	1.223	1.240	1.038	1.135	1.003	0.957	0.925	0.870	0.806	0.869	0.749	0.880	0.806	0.723	0.650	0.820	0.787	0.731	0.869	0.809	0.715	0.723	0.720	0.651	0.628	0.706	0.769	0.738	0.704	0.748	0.766	0.902	0.984	1.263	1.617	1.966	1.831	1.551	1.252	1.414	1.528	1.698	2.086	3.605	9.103	19.42	28.07
305.0	148.7	149.9	113.7	76.24	53.19	54.21	62.95	80.11	109.2	160.8	265.4	322.3	222.5	152.9	180.6	687.6	 2541	 3250	371.7	7.073	3.588	2.848	2.304	1.839	1.916	1.724	1.630	1.531	1.371	1.392	1.105	1.040	1.069	1.161	1.053	0.996	0.979	1.054	0.872	0.879	0.793	0.850	0.817	0.839	0.725	0.874	0.769	0.893	0.866	0.752	0.720	0.845	0.713	0.629	0.699	0.751	0.711	0.789	0.779	0.827	0.859	0.978	1.020	1.169	1.388	1.923	2.191	2.195	1.753	1.403	1.279	1.249	1.237	1.522	2.754	5.923	13.72
310.0	160.0	169.9	130.7	86.66	65.67	65.83	76.51	95.08	123.6	169.7	229.3	310.4	322.6	202.8	126.9	206.7	774.6	 2089	 2888	 1249	21.91	3.477	2.867	2.427	2.117	1.996	1.746	1.613	1.484	1.392	1.286	1.179	1.030	1.091	1.052	1.038	0.992	0.985	0.895	0.983	0.873	0.858	0.836	0.840	0.766	0.853	0.802	0.950	0.874	0.789	0.734	0.869	0.854	0.839	0.767	0.841	0.819	0.824	0.899	0.903	0.994	0.965	1.067	1.262	1.466	1.561	1.797	1.929	2.225	2.025	1.680	1.355	1.117	1.076	1.337	1.950	3.734
315.0	166.9	181.8	138.7	101.8	79.24	80.36	88.71	109.0	139.7	181.2	228.6	267.4	306.6	305.5	168.1	113.8	219.0	523.3	 1360	 3418	 1769	25.98	3.905	2.949	2.589	2.205	1.866	1.718	1.712	1.522	1.351	1.289	1.161	1.159	1.090	1.091	1.033	0.994	0.943	0.954	0.885	0.866	0.875	0.844	0.838	0.876	0.847	0.935	0.896	0.819	0.710	0.767	0.952	0.798	0.923	0.916	0.806	0.926	0.995	1.014	0.995	1.153	1.196	1.322	1.507	1.587	1.755	1.691	1.753	1.971	2.234	1.966	1.538	1.160	1.004	1.052	1.453
320.0	186.9	212.1	165.1	116.6	89.40	88.72	98.80	122.5	151.5	194.7	241.3	266.5	277.3	306.4	254.1	110.2	105.0	154.2	383.2	 1809	 3735	404.0	16.35	3.624	2.769	2.265	1.901	1.741	1.654	1.641	1.557	1.310	1.230	1.189	1.187	1.001	1.171	1.073	0.900	0.943	0.907	0.918	0.951	0.907	0.916	0.991	0.976	1.115	1.022	0.864	0.712	0.900	0.864	0.950	0.883	0.945	0.890	0.865	1.018	1.013	1.100	1.166	1.231	1.330	1.542	1.571	1.537	1.694	1.768	1.678	1.966	2.081	2.022	1.669	1.110	1.047	1.060
325.0	216.9	248.1	197.1	135.8	100.9	101.4	109.8	133.5	160.6	202.9	250.1	271.1	276.6	274.4	286.9	182.0	95.81	81.22	114.5	529.9	 2333	 3309	326.2	7.337	3.646	2.653	2.153	1.932	1.645	1.622	1.613	1.299	1.211	1.180	1.207	1.005	1.104	0.994	0.970	0.935	0.847	0.949	0.944	0.916	0.964	1.119	1.054	1.080	1.100	1.053	0.844	0.948	0.923	0.871	0.966	0.979	0.993	1.016	1.009	1.076	1.267	1.206	1.307	1.585	1.418	1.697	1.690	1.782	1.712	1.606	1.714	1.763	2.051	2.313	1.683	1.181	1.019
330.0	231.8	277.8	246.0	174.8	131.1	120.3	127.0	147.5	176.8	222.3	265.6	296.5	295.4	269.0	256.2	244.5	167.0	87.83	68.53	148.9	643.0	 1985	 2884	 1237	21.22	3.693	2.845	2.329	1.857	1.793	1.749	1.413	1.246	1.212	1.161	1.118	1.098	0.954	0.952	1.042	0.916	0.917	0.933	0.959	1.064	1.084	1.063	1.248	1.262	1.048	0.967	1.061	0.971	0.969	1.013	1.018	1.088	1.063	1.203	1.089	1.332	1.307	1.458	1.627	1.550	1.722	1.850	1.930	1.889	1.876	1.755	1.786	1.790	1.892	1.941	1.877	1.658
335.0	280.8	311.9	294.3	218.4	170.4	151.9	147.4	169.1	198.7	237.1	287.8	316.1	322.3	292.6	255.1	225.6	242.1	157.7	77.28	79.51	176.2	480.0	 1230	 3588	 1879	26.14	4.012	2.945	2.453	1.905	1.862	1.538	1.643	1.262	1.237	1.204	1.021	1.142	1.039	1.065	0.905	0.928	1.053	0.984	1.072	1.189	1.187	1.350	1.447	1.261	1.058	1.289	1.139	1.111	1.130	1.082	1.112	1.229	1.238	1.255	1.386	1.478	1.469	1.684	1.631	1.856	1.947	1.895	2.068	2.052	1.935	1.872	1.876	1.794	1.816	1.693	2.019
340.0	283.9	337.8	322.6	250.7	197.5	171.9	173.4	189.5	212.2	259.0	295.4	333.6	337.0	317.2	270.8	225.9	230.3	232.1	119.9	75.73	83.82	139.5	331.0	 1783	 4101	357.0	16.58	3.841	2.792	2.280	2.015	1.687	1.598	1.407	1.330	1.281	1.212	1.129	1.062	1.126	1.023	0.981	1.042	1.033	1.154	1.170	1.221	1.398	1.513	1.336	1.274	1.329	1.252	1.256	1.208	1.207	1.240	1.306	1.395	1.454	1.457	1.555	1.736	1.628	1.828	1.884	2.020	2.229	2.156	2.127	2.153	2.132	1.992	1.873	1.759	1.683	1.865
345.0	293.2	364.4	342.0	275.5	223.1	192.8	187.6	209.0	230.2	274.9	316.5	344.2	354.9	332.4	291.7	245.0	217.3	243.0	192.0	101.1	77.50	75.80	107.8	495.7	 2515	 2923	298.2	7.588	3.317	2.733	2.314	1.812	1.493	1.561	1.447	1.363	1.071	1.192	1.105	1.130	1.012	1.023	1.020	1.055	1.086	1.223	1.315	1.467	1.483	1.431	1.306	1.452	1.333	1.303	1.298	1.252	1.315	1.414	1.445	1.538	1.547	1.731	1.648	1.821	1.961	1.910	2.018	2.217	2.118	2.181	2.100	2.140	2.085	1.916	1.931	1.725	1.801
350.0	304.7	372.8	359.6	314.5	259.2	234.2	223.5	236.8	257.4	294.5	334.4	365.6	371.8	355.4	320.1	272.8	235.5	225.6	232.4	187.7	114.1	86.56	78.46	150.2	668.6	 1971	 2818	 1178	20.07	3.944	2.680	2.126	1.849	1.605	1.404	1.372	1.143	1.143	1.045	1.320	0.960	0.988	1.026	1.096	1.098	1.195	1.382	1.475	1.575	1.431	1.373	1.433	1.526	1.495	1.470	1.377	1.486	1.508	1.504	1.615	1.624	1.777	1.846	1.924	2.004	1.977	2.057	2.101	2.209	2.249	2.251	2.258	2.118	2.144	2.095	1.921	1.997
355.0	314.0	373.9	389.9	347.8	303.3	272.2	263.1	278.1	289.3	324.2	353.4	383.4	390.8	378.0	349.2	308.0	273.0	244.3	229.9	245.8	200.5	124.8	97.95	95.83	192.3	477.9	 1194	 3578	 1806	26.60	4.010	2.709	2.083	1.912	1.598	1.392	1.181	1.191	1.075	1.224	0.903	1.067	1.100	1.168	1.225	1.216	1.386	1.487	1.584	1.612	1.465	1.616	1.710	1.697	1.643	1.480	1.654	1.618	1.722	1.736	1.894	1.956	1.999	2.103	2.128	2.102	2.076	2.281	2.253	2.308	2.404	2.382	2.248	2.286	2.232	2.051	2.052
360.0	327.0	391.4	401.9	372.4	332.8	296.9	297.4	304.9	309.2	344.1	367.0	400.4	408.8	399.0	365.1	331.3	298.7	268.0	245.0	242.1	258.6	178.6	123.7	102.5	102.2	147.1	315.7	 1766	 4047	344.5	16.91	3.321	2.510	2.024	1.569	1.567	1.203	1.245	1.177	1.411	1.009	0.946	1.073	1.173	1.203	1.303	1.397	1.461	1.645	1.573	1.466	1.732	1.731	1.747	1.654	1.766	1.948	1.732	1.898	1.859	2.037	2.049	2.066	2.201	2.120	2.192	2.200	2.352	2.471	2.327	2.349	2.470	2.368	2.442	2.304	2.332	2.267
365.0	325.0	393.6	401.0	392.9	354.4	342.1	325.5	327.2	336.2	365.2	390.5	418.5	415.8	409.0	376.3	353.7	322.0	294.0	269.9	250.4	266.5	249.4	161.7	123.0	97.16	86.51	107.8	480.0	 2548	 3704	290.0	7.392	3.208	2.298	1.857	1.647	1.493	1.440	1.193	1.421	1.021	1.122	1.154	1.177	1.228	1.275	1.292	1.442	1.629	1.575	1.517	1.879	1.803	1.872	1.730	1.903	1.919	1.925	1.954	2.061	2.200	2.279	2.172	2.138	2.285	2.225	2.336	2.290	2.325	2.549	2.408	2.599	2.544	2.513	2.358	2.481	2.349
370.0	323.1	408.0	429.0	418.1	395.1	383.0	365.1	371.3	377.7	397.6	418.9	435.3	436.7	427.9	403.7	381.2	355.0	332.3	307.3	282.9	270.6	277.8	244.3	169.5	124.5	96.35	80.73	147.5	674.6	 2247	 2874	 1074	17.77	3.333	2.391	1.891	1.691	1.423	1.355	1.515	1.198	1.194	1.145	1.231	1.265	1.335	1.401	1.578	1.665	1.622	1.656	1.955	1.939	2.052	1.929	1.971	2.185	2.096	2.162	2.198	2.256	2.416	2.215	2.401	2.418	2.378	2.458	2.437	2.537	2.597	2.495	2.640	2.667	2.624	2.537	2.488	2.474
375.0	331.6	413.4	449.3	435.1	427.3	422.5	408.7	405.8	418.8	427.8	441.5	458.8	460.4	444.7	425.5	407.5	387.4	366.7	347.4	323.0	298.1	280.6	282.7	248.6	169.7	126.3	97.68	92.03	190.6	537.0	 1292	 3643	 1602	21.98	3.296	2.330	1.918	1.690	1.310	1.653	1.211	1.307	1.233	1.253	1.402	1.441	1.360	1.528	1.702	1.661	1.666	1.976	2.203	2.379	2.088	2.193	2.412	2.308	2.341	2.304	2.324	2.454	2.424	2.454	2.505	2.617	2.563	2.525	2.628	2.546	2.788	2.759	2.884	2.607	2.739	2.894	2.784
380.0	345.9	436.5	456.0	467.4	447.4	449.4	448.9	433.4	442.1	451.8	463.9	476.3	465.3	457.6	442.6	421.1	402.8	388.5	372.9	347.1	325.3	300.1	284.4	290.2	222.1	152.3	118.6	93.74	96.45	157.8	335.7	 1892	 3840	291.8	12.92	2.868	2.196	1.798	1.610	1.675	1.365	1.252	1.347	1.265	1.314	1.505	1.497	1.701	1.859	1.771	1.676	2.108	2.348	2.407	2.249	2.381	2.322	2.536	2.526	2.473	2.561	2.629	2.521	2.635	2.670	2.612	2.501	2.533	2.722	2.744	2.820	2.785	2.700	2.842	2.764	2.793	2.977
385.0	354.7	436.9	475.1	483.7	484.4	475.8	476.3	459.0	466.8	467.4	478.1	485.2	481.7	475.4	451.3	432.3	421.8	408.1	388.9	367.9	344.5	320.2	294.0	290.6	274.1	188.8	141.5	109.7	88.63	83.58	108.3	511.8	 2565	 2378	226.9	5.254	2.688	2.119	1.773	1.949	1.396	1.370	1.350	1.334	1.295	1.571	1.525	1.734	1.763	1.764	1.821	2.210	2.454	2.431	2.429	2.430	2.461	2.618	2.499	2.635	2.533	2.587	2.604	2.604	2.611	2.797	2.656	2.633	2.860	2.727	2.863	2.838	2.982	2.869	2.821	3.089	2.969
390.0	362.6	438.2	493.7	506.4	509.1	507.0	501.0	490.6	491.8	501.8	503.2	509.9	498.9	487.5	464.3	447.3	437.3	428.1	411.2	394.8	370.6	347.2	318.6	295.4	286.7	255.0	185.8	140.2	111.0	87.83	74.00	147.9	678.4	 1849	 2397	836.6	14.38	2.767	2.116	2.172	1.515	1.375	1.383	1.420	1.397	1.590	1.631	1.716	1.892	1.788	1.854	2.233	2.487	2.448	2.523	2.625	2.747	2.671	2.808	2.784	2.789	2.653	2.736	2.877	2.805	2.813	2.725	2.874	2.831	2.866	2.930	2.976	3.070	2.963	2.993	3.051	3.023
395.0	379.1	445.0	500.9	517.1	532.9	540.4	526.1	525.5	529.8	519.1	522.4	527.9	511.3	499.0	478.7	459.1	450.5	443.3	428.6	416.2	394.1	373.1	345.0	317.9	292.0	280.2	252.2	183.5	141.0	110.9	84.62	81.62	183.5	441.0	 1147	 3065	 1227	17.37	2.813	2.752	1.799	1.608	1.482	1.457	1.541	1.605	1.537	1.825	1.884	1.872	1.836	2.321	2.530	2.579	2.698	2.704	2.813	2.939	2.825	2.759	3.076	2.833	2.926	3.045	2.934	2.980	2.813	3.029	3.090	3.004	2.868	3.096	3.109	2.975	3.144	2.987	3.094
400.0	384.9	459.7	528.2	537.7	543.9	560.7	549.2	546.1	548.6	538.6	534.4	534.3	524.5	508.8	485.5	466.5	458.8	449.7	437.8	428.5	407.2	386.4	361.0	336.3	304.7	282.3	279.6	230.3	167.8	131.9	101.9	78.49	82.80	126.3	296.0	 1690	 3061	244.1	9.262	3.261	2.027	1.737	1.619	1.536	1.557	1.599	1.667	1.884	1.968	2.009	1.962	2.381	2.619	2.720	2.699	2.869	2.974	3.096	2.973	2.979	3.028	2.848	3.017	2.947	2.887	3.069	2.867	3.069	2.945	2.893	2.794	3.006	3.143	3.078	3.061	3.064	3.158
405.0	394.8	472.3	526.4	543.3	559.6	566.8	566.4	563.3	557.5	551.6	545.6	538.7	531.2	511.2	492.6	470.3	460.8	453.9	441.7	432.3	412.9	392.8	374.3	349.8	320.4	292.1	278.1	268.6	200.9	151.9	119.5	90.34	70.19	62.85	90.48	456.0	 2101	 2021	190.6	5.353	2.478	1.854	1.829	1.545	1.562	1.791	1.636	1.857	2.016	1.823	1.949	2.401	2.613	2.832	2.659	2.923	2.960	3.125	3.101	3.041	3.090	2.986	2.852	3.193	3.082	2.887	2.800	2.879	3.138	3.274	2.935	2.944	3.021	3.191	3.122	3.090	3.376
410.0	389.1	477.1	530.7	557.6	562.3	574.3	576.3	578.5	571.8	563.8	561.3	549.6	528.6	517.2	492.9	468.2	456.3	449.2	442.6	430.0	418.9	402.0	381.2	361.8	335.5	307.5	281.7	272.0	247.4	192.8	143.5	108.6	79.95	60.70	52.81	124.4	557.7	 1586	 2067	830.7	11.65	2.534	1.971	1.831	1.714	1.802	1.719	1.874	1.998	1.908	2.013	2.447	2.649	2.900	2.776	2.923	3.115	3.209	3.099	3.121	3.196	3.099	3.178	3.092	3.130	2.936	2.907	3.036	2.969	3.192	3.051	3.031	3.126	3.219	3.002	3.187	3.256
415.0	394.4	471.4	534.0	550.0	571.3	587.7	582.3	596.2	584.5	575.1	568.1	554.0	528.3	515.4	487.0	463.9	447.5	441.5	436.4	424.0	414.1	402.1	388.3	366.8	346.0	318.1	292.7	269.8	257.0	237.8	175.0	129.1	96.36	71.81	53.65	57.54	144.6	374.6	 1057	 3807	234.5	14.06	2.604	2.199	2.032	1.906	1.680	1.983	2.143	2.071	2.143	2.635	2.718	2.871	2.934	2.938	3.134	2.955	3.238	3.218	3.140	3.357	3.042	3.050	3.107	3.043	2.814	2.976	2.904	3.187	3.182	2.937	3.216	3.147	3.016	3.244	3.233
420.0	390.4	472.3	534.0	551.4	570.8	581.1	590.3	598.9	587.4	579.2	569.1	560.2	529.0	505.7	481.2	455.6	443.4	432.2	426.3	416.3	409.7	396.6	384.8	366.4	352.1	324.8	301.2	277.4	254.3	249.2	207.4	145.4	107.7	81.10	59.99	47.53	56.61	101.1	269.1	 2203	 2302	214.8	7.297	2.612	2.211	1.991	1.852	2.039	2.109	2.001	2.143	2.608	2.672	2.847	2.873	2.889	3.167	3.041	3.187	3.417	3.354	3.255	3.161	3.003	3.045	3.083	2.861	2.854	2.910	3.073	2.965	3.071	3.120	2.971	3.244	3.116	3.267
