Sample:	'1
File name:	t2025051910月四会四泵站.FD3
Run date:	'11:27:37, 05/20/2025
Operator:	Administrator
Comment:	'

Instrument
Model:	F-2700 FL Spectrophotometer
Serial number:	23B8-004
ROM Version:	4J14000 07

Instrument parameters
Measurement type:	3-D scan
Data mode:	Fluorescence
EX  Start WL:	220.0 nm
EX  End WL:	600.0 nm
EX Sampling interval:	5.0 nm
EM  Start WL:	230.0 nm
EM  End WL:	650.0 nm
EM Sampling interval:	5.0 nm
Scan speed:	12000 nm/min
EX Slit:	5.0 nm
EM Slit:	5.0 nm
PMT Voltage:	700 V
Response:	Auto 
Corrected spectra:	Off
Contour interval:	50.000

Peak integration
Integration method:	Rectangular
Sensitivity:	1
Threshold:	1.000

Peaks
No.	ApexEX/EM(nm)	Height(Data)
1	225.0/290.0	4643
2	225.0/345.0	2239
3	225.0/570.0	529.9
4	230.0/495.0	347.2
5	235.0/255.0	327.5
6	235.0/510.0	296.3
7	240.0/265.0	389.8
8	240.0/525.0	233.9
9	245.0/270.0	429.9
10	245.0/535.0	203.4
11	250.0/275.0	610.9
12	250.0/550.0	173.8
13	255.0/285.0	788.8
14	255.0/565.0	155.9
15	260.0/290.0	957.5
16	260.0/575.0	153.4
17	265.0/295.0	1215
18	265.0/365.0	1423
19	265.0/585.0	140.9
20	270.0/300.0	1529
21	270.0/600.0	129.5
22	275.0/305.0	1528
23	275.0/345.0	1437
24	275.0/610.0	111.6
25	280.0/315.0	1293
26	280.0/625.0	85.15
27	285.0/640.0	58.57
28	320.0/365.0	487.7
29	395.0/290.0	4.924
30	410.0/480.0	58.66
31	440.0/520.0	21.83
32	455.0/290.0	10.66
33	455.0/340.0	5.893
34	455.0/540.0	12.27
35	460.0/345.0	5.871
36	485.0/265.0	2.209
37	495.0/270.0	2.250
38	505.0/275.0	3.463
39	510.0/280.0	4.257
40	520.0/285.0	4.774
41	530.0/290.0	4.843
42	535.0/365.0	6.574
43	540.0/295.0	6.540
44	540.0/375.0	6.203
45	545.0/300.0	7.610
46	550.0/305.0	7.568
47	550.0/340.0	6.457
48	560.0/310.0	7.217
49	560.0/335.0	6.542
50	565.0/345.0	6.699
51	570.0/315.0	6.924
52	570.0/360.0	6.300
53	575.0/320.0	6.453

Data points
	220.0	225.0	230.0	235.0	240.0	245.0	250.0	255.0	260.0	265.0	270.0	275.0	280.0	285.0	290.0	295.0	300.0	305.0	310.0	315.0	320.0	325.0	330.0	335.0	340.0	345.0	350.0	355.0	360.0	365.0	370.0	375.0	380.0	385.0	390.0	395.0	400.0	405.0	410.0	415.0	420.0	425.0	430.0	435.0	440.0	445.0	450.0	455.0	460.0	465.0	470.0	475.0	480.0	485.0	490.0	495.0	500.0	505.0	510.0	515.0	520.0	525.0	530.0	535.0	540.0	545.0	550.0	555.0	560.0	565.0	570.0	575.0	580.0	585.0	590.0	595.0	600.0
230.0	64.18	665.8	1694	525.6	26.76	5.911	5.083	4.376	3.933	3.129	3.116	2.684	2.317	1.971	1.544	1.387	1.148	1.050	0.969	0.960	0.796	0.752	0.725	0.612	0.634	0.537	0.594	0.554	0.529	0.542	0.553	0.455	0.425	0.411	0.368	0.380	0.408	0.386	0.364	0.353	0.455	0.624	0.646	0.465	0.338	0.346	0.796	3.524	5.801	4.101	1.688	0.472	0.262	0.251	0.266	0.257	0.266	0.258	0.259	0.250	0.268	0.257	0.268	0.264	0.267	0.255	0.268	0.258	0.246	0.299	0.249	0.280	0.277	0.259	0.274	0.291	0.276
235.0	158.8	216.4	966.0	1682	487.6	35.26	7.002	5.030	4.097	4.304	3.314	2.694	2.393	2.063	1.693	1.414	1.150	0.999	1.014	0.914	0.780	0.829	0.763	0.616	0.676	0.553	0.584	0.515	0.568	0.557	0.500	0.446	0.447	0.436	0.378	0.402	0.388	0.383	0.389	0.404	0.370	0.440	0.554	0.722	0.602	0.464	0.409	1.105	2.163	3.837	5.489	5.772	2.734	0.687	0.280	0.252	0.280	0.321	0.250	0.283	0.246	0.253	0.249	0.243	0.278	0.236	0.230	0.245	0.235	0.270	0.271	0.261	0.260	0.241	0.273	0.250	0.251
240.0	207.2	186.9	294.7	1315	1757	372.0	19.66	5.127	4.835	3.847	3.491	2.833	2.793	2.017	1.977	1.668	1.394	1.315	1.069	0.902	0.831	0.694	0.706	0.684	0.567	0.641	0.518	0.481	0.550	0.464	0.526	0.521	0.453	0.377	0.477	0.422	0.359	0.453	0.363	0.405	0.351	0.359	0.345	0.603	0.649	0.849	0.490	0.534	0.734	1.231	2.931	6.792	8.097	5.434	2.255	0.481	0.271	0.338	0.248	0.276	0.253	0.236	0.248	0.319	0.260	0.243	0.239	0.274	0.210	0.249	0.249	0.226	0.275	0.225	0.315	0.253	0.302
245.0	144.1	268.9	152.5	436.8	1747	1674	255.1	8.666	4.911	4.080	3.974	2.913	2.634	2.405	1.923	1.559	1.310	1.413	0.971	0.826	0.856	0.736	0.807	0.724	0.597	0.613	0.522	0.613	0.551	0.552	0.474	0.493	0.428	0.381	0.442	0.423	0.374	0.400	0.373	0.425	0.327	0.328	0.331	0.389	0.494	0.799	0.854	0.800	0.528	0.467	0.868	2.393	5.566	9.550	10.45	4.963	1.496	0.386	0.225	0.253	0.267	0.272	0.253	0.261	0.235	0.274	0.312	0.274	0.335	0.265	0.262	0.282	0.267	0.230	0.313	0.311	0.279
250.0	65.20	183.2	263.3	198.7	557.4	1566	1940	707.6	38.68	4.974	4.821	3.642	2.899	2.509	1.953	1.551	1.359	1.335	1.169	0.907	0.925	0.860	0.805	0.696	0.547	0.593	0.578	0.629	0.554	0.553	0.520	0.479	0.421	0.405	0.416	0.399	0.366	0.385	0.335	0.415	0.344	0.391	0.339	0.358	0.386	0.535	0.534	0.853	1.043	0.788	0.659	0.838	1.598	3.161	6.055	8.347	10.49	8.709	5.044	1.417	0.376	0.262	0.268	0.237	0.266	0.278	0.268	0.258	0.307	0.259	0.272	0.268	0.275	0.248	0.260	0.303	0.287
255.0	37.66	68.70	179.8	327.5	225.9	407.6	1461	2885	308.2	32.45	5.013	4.498	3.542	2.731	2.096	1.691	1.446	1.289	1.207	1.022	0.946	0.905	0.820	0.768	0.574	0.597	0.581	0.543	0.582	0.621	0.664	0.497	0.446	0.485	0.422	0.380	0.379	0.355	0.306	0.394	0.376	0.447	0.352	0.373	0.344	0.383	0.340	0.406	0.639	0.777	1.314	1.402	0.886	1.003	1.603	2.235	3.921	9.029	14.88	14.63	7.157	1.481	0.291	0.237	0.273	0.281	0.281	0.239	0.265	0.244	0.321	0.234	0.306	0.291	0.260	0.284	0.267
260.0	36.26	38.44	73.00	292.5	315.0	158.1	456.8	2399	2356	242.8	14.01	5.169	3.665	3.337	2.114	1.876	1.358	1.239	1.185	1.065	0.909	0.943	0.863	0.727	0.611	0.594	0.615	0.547	0.622	0.548	0.546	0.536	0.451	0.413	0.390	0.381	0.427	0.407	0.299	0.361	0.333	0.368	0.390	0.385	0.408	0.405	0.374	0.371	0.398	0.403	0.863	1.691	1.668	1.191	0.717	0.830	1.154	2.682	6.486	14.03	19.19	14.21	5.472	0.816	0.305	0.281	0.265	0.250	0.329	0.316	0.327	0.277	0.323	0.273	0.270	0.328	0.271
265.0	60.92	54.96	56.62	141.1	389.8	254.9	156.1	827.0	2918	2011	176.0	7.341	4.443	3.790	2.299	1.914	1.535	1.459	1.108	1.226	1.029	0.958	0.829	0.869	0.661	0.592	0.523	0.603	0.548	0.584	0.560	0.528	0.473	0.483	0.487	0.429	0.404	0.457	0.319	0.356	0.390	0.374	0.417	0.444	0.488	0.425	0.412	0.393	0.388	0.369	0.438	0.955	1.620	2.209	1.520	0.696	0.642	0.905	1.851	4.267	10.70	19.17	21.14	12.41	2.949	0.450	0.291	0.279	0.322	0.297	0.277	0.297	0.270	0.285	0.256	0.335	0.321
270.0	495.2	551.2	404.2	181.8	228.0	429.9	306.4	280.3	1002	2595	2790	645.2	26.52	4.298	3.391	2.334	1.817	1.704	1.437	1.173	0.980	1.033	0.868	0.870	0.766	0.731	0.647	0.716	0.553	0.668	0.596	0.585	0.530	0.721	0.745	0.830	0.810	0.677	0.564	0.567	0.611	0.672	0.812	0.999	1.163	1.367	1.439	1.415	1.210	0.902	0.612	0.633	0.795	1.368	1.893	2.250	2.015	1.253	1.032	1.462	3.019	5.953	10.67	16.31	19.13	16.85	9.429	2.679	0.511	0.338	0.356	0.326	0.279	0.288	0.339	0.331	0.365
275.0	1603	1736	1248	496.9	179.7	287.8	610.9	385.0	391.8	789.6	2449	4281	793.0	17.84	4.131	2.672	2.394	1.880	1.791	1.309	1.094	1.060	0.961	1.050	0.807	0.708	0.788	0.842	0.617	0.653	0.620	0.585	0.667	1.072	1.866	2.139	1.705	1.117	1.054	1.068	1.324	1.503	1.863	2.361	3.299	3.808	4.118	4.082	3.653	2.532	1.442	0.850	0.746	0.837	1.017	1.438	2.712	3.463	2.571	1.477	1.535	2.139	3.171	4.465	6.541	12.77	24.31	25.97	13.09	2.696	0.453	0.368	0.321	0.321	0.428	0.361	0.396
280.0	2606	3033	2243	833.1	225.1	232.8	518.6	759.9	372.9	410.5	901.0	3691	3766	134.7	8.974	3.755	2.887	2.175	1.978	1.434	1.111	1.228	1.048	0.993	0.924	0.694	0.842	0.750	0.844	0.618	0.771	0.592	0.827	1.454	2.675	3.385	2.511	1.789	1.602	1.525	1.997	2.179	2.990	3.565	5.353	6.188	6.644	6.365	6.184	4.112	2.291	1.297	0.818	0.850	0.865	1.153	1.802	2.896	4.257	3.605	2.116	1.677	1.792	2.199	2.623	4.138	9.220	19.93	28.34	23.61	9.325	1.352	0.411	0.379	0.480	0.393	0.422
285.0	3558	4162	3083	1101	276.0	239.0	383.8	788.8	769.5	454.6	498.3	1373	4313	2883	91.55	5.754	3.364	2.363	1.811	1.715	1.398	1.320	0.973	1.153	1.016	0.758	0.865	0.758	0.695	0.614	0.768	0.630	0.960	1.670	3.254	4.524	3.401	2.454	2.034	2.010	2.337	3.061	3.945	4.891	6.650	8.407	9.117	9.373	8.002	5.476	3.313	1.680	0.985	0.994	1.073	1.107	1.488	1.983	2.931	4.435	4.774	3.030	2.321	2.248	1.994	2.393	3.331	6.113	12.62	24.50	29.14	18.29	5.118	0.602	0.513	0.410	0.514
290.0	4079	4643	3477	1281	336.4	261.0	356.5	576.8	957.5	938.2	635.0	701.2	1558	3264	2412	365.0	12.52	3.343	2.443	2.024	1.619	1.419	1.178	1.173	0.947	0.887	0.810	0.861	0.749	0.701	0.720	0.718	0.972	2.192	3.847	4.924	4.072	3.064	2.732	2.536	2.841	3.509	4.451	5.767	7.864	9.408	10.05	10.66	9.087	6.369	3.702	2.100	1.154	1.136	1.142	1.207	1.488	1.772	2.250	2.807	4.089	4.741	4.843	4.205	3.121	2.779	2.643	3.114	4.458	7.615	12.28	18.16	21.50	20.15	12.41	4.257	0.881
295.0	3923	4551	3347	1317	371.2	286.8	364.0	511.3	749.2	1215	1156	750.5	761.3	995.4	2271	3581	95.17	8.998	3.182	2.320	1.852	1.714	1.328	1.127	1.104	1.013	0.857	0.869	0.768	0.735	0.690	0.751	1.044	2.225	3.843	4.731	4.114	3.289	2.948	2.970	3.037	3.535	4.573	5.893	7.379	9.179	9.850	10.46	8.961	6.310	3.691	2.212	1.455	1.159	1.318	1.361	1.670	1.822	2.006	2.435	2.966	3.561	4.302	6.188	6.540	5.006	4.028	3.296	3.480	3.827	4.475	5.390	6.396	11.11	21.62	27.98	16.85
300.0	3618	4161	3057	1239	399.0	311.9	400.7	525.7	701.1	1042	1529	1061	705.5	503.3	759.6	3164	2836	75.04	5.164	2.833	2.161	1.851	1.532	1.333	1.059	1.080	0.958	0.891	0.920	0.793	0.724	0.710	1.120	2.204	3.578	4.469	4.124	3.311	2.882	2.953	2.784	3.382	4.236	5.434	7.133	8.590	8.865	9.546	8.109	5.724	3.469	2.186	1.477	1.221	1.282	1.520	1.685	1.932	2.256	2.411	2.949	3.299	3.555	5.204	6.531	7.610	6.297	4.645	3.769	3.523	3.002	2.934	2.554	3.569	7.152	16.38	27.68
305.0	3175	3565	2671	1130	415.5	342.5	433.7	561.3	746.4	977.5	1434	1528	851.0	483.6	348.0	1099	3477	2059	52.22	3.847	2.773	1.981	1.620	1.393	1.160	1.128	1.024	0.914	0.917	0.865	0.725	0.769	1.018	1.739	3.256	3.967	3.904	3.178	2.952	2.738	2.901	2.963	3.946	4.882	6.264	7.379	7.922	8.887	7.062	5.162	3.111	2.188	1.533	1.294	1.275	1.362	1.875	2.180	2.264	2.572	3.131	3.445	3.641	4.433	5.202	6.611	7.568	7.036	5.238	4.292	3.233	2.634	2.157	2.070	2.684	4.719	10.72
310.0	2628	2833	2149	976.0	415.9	362.5	447.7	583.3	763.1	968.6	1209	1481	1289	643.1	333.8	391.1	1168	2458	1763	243.2	8.253	2.629	1.963	1.730	1.497	1.215	1.123	0.991	0.871	0.825	0.744	0.760	0.973	1.576	2.639	3.310	3.192	2.777	2.521	2.385	2.554	2.798	3.272	4.143	5.378	5.910	6.276	6.839	5.849	4.258	2.784	2.105	1.610	1.476	1.591	1.602	1.989	2.183	2.443	2.825	3.174	3.622	3.904	4.552	4.915	5.472	5.894	6.869	7.217	6.452	4.720	3.326	2.485	2.096	1.897	2.129	3.406
315.0	2037	2230	1716	852.6	425.0	399.1	471.8	602.1	778.5	957.0	1148	1247	1293	1048	451.8	287.1	400.5	677.5	1763	2570	67.53	6.355	2.632	1.972	1.567	1.329	1.085	1.066	0.885	0.806	0.781	0.689	0.974	1.436	2.170	2.601	2.651	2.206	2.086	2.233	2.328	2.548	2.924	3.376	4.489	4.711	4.855	5.465	4.681	3.430	2.353	2.029	1.736	1.527	1.679	1.645	1.936	2.242	2.614	2.922	3.357	3.780	4.008	4.651	4.880	5.090	5.260	5.709	5.611	6.199	6.924	5.903	3.868	2.549	2.192	1.998	2.065
320.0	1782	1973	1545	819.5	462.1	428.8	493.1	627.1	812.1	985.4	1168	1232	1168	1169	719.1	330.8	265.8	263.0	561.5	2324	2011	56.60	4.052	2.593	1.768	1.469	1.275	1.187	0.949	0.998	0.856	0.843	0.932	1.286	2.059	2.166	2.249	2.094	2.058	2.164	2.140	2.375	2.684	3.041	3.710	4.219	4.424	4.870	4.311	3.311	2.243	2.164	1.822	1.669	1.914	1.864	2.097	2.357	2.731	3.078	3.436	3.944	4.097	4.606	5.147	5.127	5.495	5.257	5.486	5.461	5.628	6.453	5.996	4.060	2.814	2.068	2.018
325.0	1799	2018	1708	934.3	537.7	464.0	538.7	684.0	849.7	1056	1212	1267	1178	1074	981.0	486.1	285.9	206.4	212.0	799.6	2495	1590	40.01	3.442	2.065	1.648	1.488	1.267	1.243	0.988	1.008	0.760	0.832	1.191	1.833	1.906	2.172	2.053	2.066	2.145	2.108	2.341	2.432	3.106	3.378	4.424	4.560	4.904	4.638	3.491	2.691	2.444	2.072	1.881	2.161	1.950	2.368	2.598	2.816	3.050	3.527	3.943	4.301	4.724	5.187	5.486	5.756	5.495	6.026	5.798	5.273	5.411	5.915	5.774	4.719	3.016	2.356
330.0	1891	2126	1899	1193	699.6	561.6	606.9	737.4	910.9	1110	1283	1356	1252	1058	929.4	761.7	437.1	247.5	175.8	261.4	834.9	1945	1322	196.4	7.206	2.261	1.704	1.451	1.329	1.101	1.013	0.972	0.852	1.027	1.358	1.639	1.749	1.831	1.844	1.861	2.108	2.383	2.524	3.162	3.702	4.510	4.758	5.511	5.296	4.242	3.499	3.301	2.603	2.245	2.231	2.206	2.468	2.827	3.148	3.352	3.623	4.262	4.542	5.000	5.490	5.845	6.153	5.974	6.101	5.842	5.569	5.419	5.071	5.190	4.992	4.751	4.101
335.0	1891	2204	1997	1357	876.5	670.7	683.1	800.0	963.8	1169	1320	1399	1320	1106	885.3	751.0	686.2	368.4	214.4	174.1	264.2	526.3	1381	2021	56.18	5.953	2.166	1.738	1.363	1.210	1.253	0.891	0.919	1.071	1.235	1.416	1.611	1.727	1.897	1.720	2.084	2.185	2.672	2.940	3.577	4.334	4.762	5.423	5.679	4.787	3.838	3.948	3.128	2.665	2.559	2.663	2.948	3.000	3.196	3.633	3.985	4.351	4.868	5.427	5.738	5.670	6.433	6.089	6.542	6.329	6.084	5.785	5.378	4.886	4.520	4.407	4.607
340.0	1836	2230	2088	1523	994.8	778.4	753.5	860.1	1014	1206	1347	1427	1368	1175	921.4	717.2	706.5	553.9	279.7	185.3	160.3	188.2	438.8	1841	1633	48.62	3.934	2.143	1.622	1.424	1.239	0.956	0.923	1.072	1.209	1.284	1.469	1.648	1.735	1.813	1.997	2.164	2.673	3.085	3.729	4.445	4.650	5.893	5.840	4.874	4.174	4.476	3.655	3.177	3.010	2.901	3.223	3.353	3.459	4.086	4.396	4.412	5.017	5.432	5.853	5.996	6.457	6.297	6.356	6.115	6.066	5.862	5.762	5.098	4.862	4.270	4.214
345.0	1835	2239	2149	1633	1117	871.1	823.2	913.5	1060	1221	1363	1437	1379	1200	957.5	726.3	628.9	643.8	409.0	225.0	165.9	136.4	158.5	625.1	1986	1256	37.44	2.885	1.950	1.629	1.179	1.212	1.047	1.014	1.244	1.294	1.472	1.674	1.747	1.901	2.103	2.170	2.562	2.947	3.591	4.320	4.723	5.825	5.871	5.009	4.575	4.678	3.946	3.508	3.445	3.289	3.454	3.630	3.723	4.116	4.174	4.802	5.267	5.539	5.587	6.110	6.223	6.589	6.329	6.699	6.264	5.797	5.791	4.984	4.917	4.444	4.208
350.0	1760	2155	2058	1640	1226	993.2	927.5	994.5	1105	1229	1350	1395	1346	1196	974.3	755.2	609.4	564.9	535.8	358.0	214.1	161.1	125.1	201.6	650.7	1399	1053	180.0	7.910	2.156	1.351	1.236	1.047	1.018	1.103	1.172	1.558	1.462	1.643	1.830	1.896	2.038	2.517	2.873	3.471	4.270	4.548	5.403	5.517	4.805	4.442	4.954	4.354	4.057	3.733	3.615	3.794	3.909	4.104	4.366	4.571	4.816	5.359	5.552	5.670	5.832	6.133	6.235	6.289	6.605	6.224	5.898	5.741	5.297	4.995	4.614	4.289
355.0	1692	1988	1920	1647	1300	1128	1062	1133	1213	1284	1356	1372	1324	1196	991.3	794.4	646.6	550.5	497.1	500.1	330.4	210.0	155.7	136.6	205.7	373.3	992.9	1623	257.6	6.225	2.130	1.387	1.125	1.144	1.121	1.149	1.458	1.600	1.608	1.850	1.776	2.078	2.515	2.917	3.448	3.811	4.214	5.073	5.183	4.380	4.620	4.821	4.533	4.314	4.356	4.251	4.446	4.489	4.533	4.745	5.309	5.647	5.590	5.965	5.841	5.775	6.020	6.092	5.992	6.387	6.104	5.466	5.676	5.531	5.124	4.741	4.499
360.0	1650	1929	1877	1656	1362	1232	1191	1246	1309	1374	1388	1383	1326	1195	1012	826.7	683.3	574.0	488.3	491.6	455.3	278.7	189.4	144.0	127.3	134.3	306.9	1352	1465	48.37	3.967	1.938	1.386	1.138	1.243	1.302	1.405	1.608	1.737	1.794	1.850	2.135	2.447	2.814	3.257	3.890	3.792	4.974	4.931	4.454	4.513	4.849	4.799	4.741	4.430	4.771	4.828	4.821	5.066	5.309	5.685	5.728	6.095	6.183	6.033	6.258	6.120	6.174	6.020	6.034	6.300	5.853	5.947	5.469	5.013	4.995	4.480
365.0	1534	1847	1789	1643	1409	1279	1269	1331	1382	1423	1408	1374	1306	1180	1016	835.9	706.0	597.7	511.1	460.0	487.7	382.8	235.2	174.3	131.0	101.7	116.6	440.4	1561	1221	38.31	2.772	1.596	1.330	1.156	1.381	1.474	1.460	1.458	1.785	1.783	2.029	2.256	2.702	3.083	3.568	3.760	4.785	4.766	4.244	4.329	4.985	4.964	5.068	4.697	4.717	5.025	5.286	5.251	5.601	5.971	6.139	6.299	6.574	6.182	6.386	6.061	6.001	5.807	6.175	5.998	5.948	6.257	5.642	5.073	4.838	4.777
370.0	1410	1676	1676	1577	1397	1317	1296	1340	1401	1402	1375	1324	1246	1136	987.8	829.3	711.7	624.3	539.9	470.6	448.6	453.1	355.0	232.2	168.9	125.1	97.78	148.5	489.0	1204	942.1	177.0	9.526	1.852	1.559	1.434	1.409	1.531	1.496	1.616	1.739	2.013	2.273	2.528	2.827	3.353	3.632	4.232	4.449	4.130	4.299	4.862	5.019	5.110	4.815	4.782	5.265	5.440	5.540	5.874	5.873	6.210	6.139	6.412	6.174	5.997	5.767	5.699	5.734	5.873	5.917	5.694	5.631	5.381	5.171	5.004	4.653
375.0	1339	1561	1555	1498	1393	1321	1301	1330	1379	1362	1327	1270	1187	1091	943.2	819.7	715.4	640.4	561.5	501.3	458.2	432.9	440.8	347.1	223.4	168.3	125.9	107.8	157.3	314.6	797.9	1427	259.1	7.513	2.192	1.564	1.400	1.672	1.668	1.774	1.742	2.011	2.108	2.558	2.705	3.052	3.290	3.834	4.039	3.779	4.032	4.826	4.971	4.958	5.022	4.813	5.282	5.281	5.491	5.796	5.633	6.137	5.974	5.908	6.203	5.812	5.753	5.485	5.770	5.620	5.535	5.646	5.195	5.353	5.124	4.985	4.626
380.0	1309	1487	1502	1459	1401	1340	1299	1343	1356	1333	1287	1225	1159	1048	915.6	799.8	713.1	641.2	574.7	523.6	477.6	437.9	425.3	431.8	296.5	208.5	159.6	123.5	103.4	114.8	240.3	1078	1281	42.82	4.341	1.985	1.489	1.753	1.662	1.715	1.798	1.970	2.170	2.580	2.697	2.932	3.230	3.738	3.747	3.709	3.830	4.639	4.937	4.647	5.103	4.766	5.193	5.434	5.572	5.608	5.578	5.953	5.870	5.699	5.964	5.749	5.548	5.230	5.664	5.465	5.224	5.580	5.564	5.414	4.880	4.708	4.686
385.0	1248	1414	1452	1397	1366	1306	1287	1290	1308	1277	1237	1178	1103	994.8	881.2	771.3	702.2	640.4	582.6	537.3	490.5	451.3	414.5	426.0	379.8	252.0	188.8	144.7	108.2	84.85	92.20	332.7	1188	1053	34.53	2.999	2.013	1.817	1.530	1.731	1.785	1.849	2.132	2.223	2.579	2.897	3.109	3.529	3.509	3.632	3.655	4.607	4.667	4.764	4.837	4.907	5.132	5.343	5.278	5.455	5.570	5.812	5.646	5.489	5.714	5.402	5.149	5.077	5.310	5.217	5.200	4.930	5.072	4.959	4.696	4.563	4.427
390.0	1157	1295	1317	1320	1306	1252	1236	1209	1215	1191	1151	1096	1023	927.2	828.2	731.3	674.5	624.3	576.7	537.9	499.3	462.4	424.3	401.2	398.6	336.6	235.1	173.1	131.2	98.29	74.77	111.0	351.7	889.9	876.6	149.0	10.06	2.158	1.861	1.654	1.815	1.846	2.128	2.120	2.480	2.680	3.033	3.315	3.293	3.462	3.470	4.279	4.400	4.545	4.625	4.678	4.830	5.133	5.002	5.025	5.277	5.277	5.183	5.337	5.294	4.976	4.974	4.759	4.875	4.981	4.828	4.631	4.614	4.634	4.352	4.448	4.532
395.0	1071	1190	1241	1244	1220	1178	1162	1144	1128	1119	1076	1014	955.1	863.7	772.0	693.1	645.9	601.9	566.9	533.8	498.7	473.9	435.4	402.9	369.0	369.2	313.4	213.6	159.9	122.4	89.96	77.23	114.8	228.7	522.5	1000	232.3	9.525	2.380	1.829	1.816	2.081	2.051	2.069	2.318	2.537	2.816	3.244	3.188	3.067	3.395	4.091	4.226	4.193	4.379	4.326	4.615	4.869	4.560	4.866	4.789	4.977	4.715	5.123	4.897	4.481	4.628	4.548	4.722	4.762	4.434	4.251	4.498	4.343	4.045	4.456	4.102
400.0	1028	1130	1187	1210	1175	1149	1112	1089	1087	1052	1022	965.0	904.2	822.2	736.3	670.4	622.5	587.4	553.0	525.4	497.5	475.1	444.3	411.9	373.4	351.7	354.2	269.3	187.1	143.5	108.5	81.43	71.68	82.10	150.9	648.2	934.6	38.41	4.943	2.004	1.973	1.940	1.913	2.020	2.199	2.348	2.530	3.051	3.040	2.937	3.217	3.974	4.331	4.197	4.082	4.099	4.551	4.635	4.428	4.465	4.585	4.776	4.616	4.790	4.528	4.146	4.233	4.291	4.336	4.141	4.041	4.359	4.140	4.037	3.998	3.984	4.079
405.0	972.7	1070	1137	1139	1128	1103	1079	1050	1020	1010	967.2	920.5	858.0	782.4	705.1	645.6	605.1	567.7	533.1	511.2	490.2	470.1	440.3	415.1	376.4	347.1	344.8	320.3	226.5	167.5	128.8	95.38	72.08	56.99	59.80	188.3	727.1	755.2	33.47	3.028	1.964	1.802	1.920	1.946	2.190	2.271	2.315	2.908	2.748	2.815	3.134	3.932	3.927	3.924	3.970	4.030	4.515	4.404	4.092	4.607	4.550	4.620	4.213	4.268	4.186	4.309	4.094	4.196	4.121	3.633	3.989	4.046	4.067	3.875	3.829	3.993	4.007
410.0	895.5	1008	1061	1069	1062	1044	1008	987.2	971.5	951.7	922.4	865.7	814.0	728.4	664.7	607.1	572.8	539.8	511.7	491.7	472.4	457.8	434.1	410.2	379.1	346.3	320.8	318.3	284.6	204.5	150.2	114.7	85.34	62.43	46.60	64.99	204.3	537.8	643.6	144.8	10.06	2.210	2.107	1.934	2.114	2.269	2.285	2.744	2.686	2.716	2.798	3.631	3.680	3.661	3.813	3.961	4.165	4.042	4.017	4.286	4.255	4.360	4.211	4.225	4.085	3.941	4.036	3.873	3.856	3.698	3.666	3.749	3.776	3.733	3.620	3.643	3.617
415.0	844.9	951.5	962.0	982.9	990.8	963.5	959.0	936.3	920.2	906.5	870.8	818.1	756.2	678.0	621.7	568.5	539.0	509.1	480.6	467.6	448.5	439.5	420.8	398.5	374.7	343.7	316.0	292.7	289.2	260.1	180.5	131.7	99.51	73.65	51.84	42.71	64.43	135.1	321.2	711.1	217.2	10.35	2.228	2.225	2.219	2.151	2.175	2.521	2.570	2.534	2.734	3.337	3.675	3.476	3.651	3.510	3.987	4.070	3.831	4.112	3.917	4.218	3.923	4.161	3.968	3.813	3.655	3.780	3.685	3.505	3.513	3.558	3.643	3.284	3.361	3.071	3.168
