Sample:	'1
File name:	Default_20230130_152636.FD3
Run date:	'15:20:15, 01/30/2023
Operator:	dsjg
Comment:	'

Instrument
Model:	F-2700 FL Spectrophotometer
Serial number:	2198-001
ROM Version:	4J14000 07

Instrument parameters
Measurement type:	3-D scan
Data mode:	Fluorescence
EX  Start WL:	220.0 nm
EX  End WL:	600.0 nm
EX Sampling interval:	5.0 nm
EM  Start WL:	230.0 nm
EM  End WL:	650.0 nm
EM Sampling interval:	5.0 nm
Scan speed:	12000 nm/min
EX Slit:	5.0 nm
EM Slit:	5.0 nm
PMT Voltage:	700 V
Response:	Auto 
Corrected spectra:	Off
Contour interval:	50.000

Peak integration
Integration method:	Rectangular
Sensitivity:	1
Threshold:	1.000

Peaks
No.	ApexEX/EM(nm)	Height(Data)
1	225.0/305.0	47.98
2	230.0/345.0	374.7
3	235.0/260.0	166.8
4	235.0/515.0	102.6
5	240.0/265.0	190.6
6	240.0/385.0	346.6
7	240.0/400.0	348.9
8	240.0/530.0	92.12
9	245.0/270.0	172.8
10	245.0/540.0	78.21
11	250.0/275.0	204.3
12	250.0/415.0	320.6
13	250.0/550.0	66.80
14	255.0/280.0	227.7
15	255.0/560.0	55.44
16	260.0/570.0	41.23
17	265.0/295.0	243.8
18	265.0/585.0	35.90
19	270.0/300.0	302.8
20	270.0/400.0	284.7
21	270.0/595.0	29.01
22	275.0/305.0	317.9
23	275.0/610.0	22.78
24	280.0/310.0	271.2
25	280.0/385.0	298.6
26	280.0/620.0	19.64
27	285.0/320.0	269.5
28	285.0/630.0	13.76
29	290.0/325.0	292.2
30	295.0/330.0	242.0
31	300.0/335.0	234.2
32	305.0/345.0	230.2
33	310.0/350.0	203.9
34	315.0/355.0	208.8
35	320.0/360.0	214.3
36	325.0/370.0	203.1
37	330.0/375.0	204.1
38	335.0/380.0	217.1
39	345.0/395.0	179.5
40	350.0/400.0	186.8
41	355.0/405.0	178.8
42	365.0/420.0	142.6
43	370.0/425.0	132.0
44	400.0/465.0	52.64
45	415.0/485.0	30.50
46	430.0/505.0	18.60
47	445.0/525.0	10.95
48	460.0/545.0	6.093
49	470.0/560.0	3.901
50	540.0/295.0	1.788
51	545.0/300.0	1.949
52	550.0/305.0	1.715
53	560.0/310.0	1.588
54	570.0/315.0	1.751
55	575.0/320.0	1.803
56	585.0/325.0	1.770

Data points
	220.0	225.0	230.0	235.0	240.0	245.0	250.0	255.0	260.0	265.0	270.0	275.0	280.0	285.0	290.0	295.0	300.0	305.0	310.0	315.0	320.0	325.0	330.0	335.0	340.0	345.0	350.0	355.0	360.0	365.0	370.0	375.0	380.0	385.0	390.0	395.0	400.0	405.0	410.0	415.0	420.0	425.0	430.0	435.0	440.0	445.0	450.0	455.0	460.0	465.0	470.0	475.0	480.0	485.0	490.0	495.0	500.0	505.0	510.0	515.0	520.0	525.0	530.0	535.0	540.0	545.0	550.0	555.0	560.0	565.0	570.0	575.0	580.0	585.0	590.0	595.0	600.0
230.0	25.62	394.0	622.6	131.5	3.200	1.176	1.213	1.048	0.697	0.783	0.603	0.649	0.590	0.389	0.402	0.377	0.305	0.385	0.336	0.320	0.311	0.273	0.285	0.285	0.217	0.239	0.271	0.242	0.238	0.239	0.230	0.269	0.222	0.223	0.211	0.306	0.311	0.283	0.293	0.255	0.218	0.196	0.192	0.197	0.161	0.145	0.194	0.639	1.751	1.962	0.940	0.243	0.121	0.103	0.076	0.093	0.084	0.094	0.053	0.063	0.052	0.055	0.050	0.050	0.039	0.031	0.041	0.038	0.023	0.028	0.026	0.022	0.014	0.008	0.009	0.010	0.003
235.0	13.52	130.7	663.9	920.4	216.7	4.499	1.624	1.104	1.022	0.730	0.544	0.660	0.738	0.611	0.502	0.374	0.285	0.522	0.268	0.348	0.336	0.311	0.343	0.238	0.306	0.261	0.238	0.250	0.203	0.267	0.219	0.287	0.222	0.205	0.148	0.230	0.340	0.269	0.254	0.177	0.199	0.229	0.201	0.182	0.205	0.181	0.174	0.260	0.661	1.594	2.968	3.693	2.037	0.401	0.090	0.106	0.132	0.094	0.077	0.077	0.070	0.049	0.056	0.043	0.050	0.031	0.041	0.050	0.056	0.027	0.019	0.011	0.010	-0.002	-0.005	0.003	0.001
240.0	23.58	41.26	278.1	 1078	 1055	147.5	2.750	1.137	1.279	0.985	0.775	0.782	0.542	0.504	0.493	0.418	0.368	0.396	0.325	0.333	0.240	0.445	0.284	0.297	0.221	0.283	0.265	0.280	0.247	0.249	0.222	0.273	0.181	0.199	0.171	0.207	0.257	0.255	0.315	0.248	0.219	0.210	0.237	0.171	0.193	0.259	0.210	0.219	0.261	0.543	1.387	4.138	5.952	4.328	1.669	0.229	0.125	0.097	0.112	0.040	0.081	0.079	0.071	0.047	0.045	0.049	0.057	0.060	0.037	0.027	0.030	0.010	0.029	-0.003	0.009	0.007	0.005
245.0	28.70	47.72	79.10	501.7	 1473	 1000	86.81	2.573	1.546	1.301	1.194	0.960	0.602	0.593	0.456	0.478	0.435	0.464	0.407	0.303	0.328	0.439	0.296	0.269	0.290	0.280	0.251	0.304	0.212	0.276	0.243	0.269	0.186	0.220	0.191	0.218	0.198	0.247	0.329	0.243	0.242	0.185	0.242	0.189	0.186	0.269	0.297	0.349	0.253	0.226	0.437	1.363	3.735	6.644	6.980	3.627	0.925	0.116	0.074	0.071	0.084	0.048	0.049	0.055	0.041	0.043	0.056	0.065	0.047	0.035	0.020	0.022	0.020	0.018	-0.003	-0.001	0.001
250.0	15.89	62.50	90.36	144.2	583.7	 1392	 1053	160.4	10.61	2.025	1.763	1.105	0.914	0.761	0.498	0.505	0.622	0.412	0.509	0.312	0.362	0.394	0.356	0.314	0.296	0.288	0.278	0.339	0.243	0.279	0.229	0.216	0.188	0.241	0.178	0.174	0.167	0.188	0.248	0.315	0.244	0.201	0.222	0.218	0.188	0.213	0.233	0.315	0.511	0.430	0.335	0.475	0.988	2.218	4.004	6.238	7.304	6.270	3.234	0.937	0.124	0.068	0.094	0.068	0.056	0.063	0.050	0.041	0.043	0.046	0.018	0.018	0.014	0.009	0.013	0.010	0.016
255.0	7.714	28.71	103.1	150.9	156.3	414.6	 1294	 1857	222.6	10.33	2.302	1.701	1.120	1.066	0.677	0.592	0.571	0.348	0.455	0.378	0.334	0.382	0.328	0.331	0.379	0.302	0.308	0.279	0.322	0.223	0.239	0.217	0.225	0.219	0.185	0.199	0.169	0.153	0.181	0.191	0.265	0.277	0.253	0.263	0.185	0.204	0.189	0.199	0.317	0.416	0.697	0.756	0.495	0.633	1.027	1.620	2.804	6.529	10.38	10.08	4.972	0.848	0.086	0.077	0.024	0.087	0.067	0.086	0.042	0.033	0.033	0.005	0.032	0.015	0.008	0.012	0.015
260.0	4.320	12.25	51.44	166.8	134.4	110.8	473.8	 1872	 1795	181.5	5.061	2.086	1.051	0.847	0.923	0.731	0.677	0.529	0.469	0.406	0.367	0.437	0.389	0.308	0.360	0.320	0.261	0.377	0.289	0.295	0.242	0.240	0.226	0.157	0.239	0.161	0.174	0.098	0.127	0.215	0.268	0.271	0.271	0.232	0.208	0.186	0.206	0.163	0.196	0.253	0.421	0.871	1.043	0.674	0.486	0.525	0.803	1.972	4.821	9.700	12.80	9.461	3.615	0.459	0.059	0.098	0.063	0.060	0.086	0.039	0.022	0.022	0.019	0.009	0.013	0.029	0.000
265.0	6.208	7.224	15.96	93.94	190.6	86.36	122.1	756.1	 2297	 1600	132.0	3.613	1.822	1.306	0.975	1.015	0.671	0.619	0.431	0.467	0.418	0.510	0.369	0.401	0.278	0.313	0.297	0.360	0.299	0.309	0.262	0.275	0.282	0.229	0.241	0.172	0.171	0.130	0.139	0.222	0.189	0.160	0.234	0.265	0.264	0.214	0.209	0.188	0.126	0.148	0.212	0.395	0.935	1.060	0.828	0.380	0.318	0.611	1.229	3.051	7.254	12.95	14.36	8.672	1.714	0.160	0.082	0.050	0.073	0.032	0.024	0.034	0.007	0.031	0.008	0.023	0.017
270.0	7.378	7.813	8.646	29.68	111.9	172.8	115.2	193.1	816.1	 1986	 1978	592.9	26.41	2.276	1.547	1.237	0.854	0.772	0.596	0.554	0.479	0.437	0.462	0.447	0.372	0.364	0.311	0.352	0.275	0.289	0.254	0.345	0.276	0.250	0.252	0.180	0.190	0.159	0.161	0.173	0.169	0.165	0.221	0.259	0.254	0.237	0.212	0.203	0.197	0.173	0.178	0.207	0.359	0.544	0.843	1.070	0.838	0.572	0.455	0.799	1.810	4.000	7.456	11.36	12.25	10.47	6.051	1.550	0.184	0.054	0.040	0.025	0.017	0.034	0.029	0.009	0.017
275.0	9.396	16.55	13.79	13.70	32.79	102.6	204.3	145.7	202.9	548.3	 1667	 2903	845.0	20.65	2.382	1.747	1.194	0.977	0.751	0.600	0.633	0.611	0.556	0.551	0.392	0.313	0.328	0.341	0.399	0.300	0.320	0.320	0.296	0.210	0.262	0.154	0.194	0.200	0.157	0.143	0.205	0.137	0.220	0.223	0.314	0.308	0.244	0.220	0.225	0.229	0.204	0.180	0.189	0.220	0.336	0.514	0.867	1.330	1.166	0.605	0.550	1.057	1.829	2.795	4.091	8.639	15.10	15.74	8.215	1.284	0.073	0.036	0.038	0.032	0.049	0.028	0.032
280.0	17.17	25.90	18.73	13.47	14.48	37.73	154.5	227.7	112.2	150.6	546.4	 2237	 2847	129.2	7.773	2.209	1.739	1.204	0.948	0.825	0.628	0.674	0.478	0.518	0.492	0.425	0.459	0.395	0.357	0.326	0.304	0.325	0.239	0.296	0.259	0.253	0.210	0.157	0.199	0.144	0.194	0.147	0.159	0.183	0.193	0.375	0.313	0.327	0.265	0.268	0.221	0.180	0.153	0.155	0.211	0.261	0.401	0.834	1.379	1.422	0.772	0.494	0.586	0.813	1.092	2.418	6.131	12.42	18.09	14.22	4.670	0.370	0.024	0.029	0.057	0.038	0.043
285.0	20.41	31.52	23.59	15.58	10.85	17.54	72.84	214.2	202.8	83.03	157.4	794.2	 2504	 2516	94.30	4.110	2.166	1.327	1.247	0.960	0.695	0.705	0.560	0.494	0.542	0.459	0.469	0.408	0.396	0.354	0.337	0.295	0.229	0.276	0.275	0.196	0.274	0.183	0.167	0.200	0.197	0.147	0.149	0.157	0.173	0.275	0.308	0.345	0.357	0.282	0.215	0.212	0.184	0.146	0.231	0.188	0.239	0.370	0.707	1.255	1.503	1.141	0.524	0.381	0.574	0.712	1.668	3.643	8.764	16.27	18.53	10.50	2.099	0.101	0.057	0.021	0.030
290.0	25.62	37.80	31.69	22.62	15.99	18.10	35.34	99.04	210.8	211.8	113.3	223.7	808.9	 1962	 2304	388.4	21.55	2.135	1.796	1.255	0.947	0.906	0.632	0.588	0.570	0.501	0.495	0.433	0.460	0.405	0.338	0.370	0.306	0.264	0.295	0.220	0.323	0.233	0.262	0.220	0.159	0.160	0.129	0.162	0.190	0.230	0.285	0.363	0.375	0.324	0.255	0.244	0.212	0.212	0.213	0.203	0.203	0.262	0.361	0.556	0.921	1.323	1.478	1.070	0.715	0.444	0.601	1.082	2.247	4.732	8.399	12.70	14.48	12.68	6.824	1.539	0.078
295.0	29.51	41.41	43.72	27.99	21.34	22.62	29.56	53.31	109.0	243.8	222.3	125.8	226.6	514.2	 1354	 2981	601.8	20.13	2.602	1.882	1.419	1.183	0.898	0.799	0.647	0.631	0.656	0.554	0.485	0.476	0.393	0.445	0.359	0.292	0.349	0.296	0.269	0.232	0.283	0.240	0.158	0.200	0.168	0.171	0.198	0.223	0.250	0.294	0.351	0.356	0.276	0.276	0.231	0.266	0.275	0.251	0.242	0.279	0.326	0.338	0.414	0.628	0.814	1.357	1.788	1.213	0.573	0.543	0.793	1.303	2.149	3.126	4.814	9.433	18.07	19.56	8.593
300.0	32.52	45.14	43.84	29.75	27.10	27.96	33.15	43.94	72.49	158.7	302.8	182.4	106.3	151.5	419.8	 1950	 3283	462.4	8.100	2.688	1.715	1.435	1.096	0.931	0.671	0.642	0.645	0.582	0.493	0.557	0.434	0.441	0.412	0.294	0.416	0.303	0.346	0.268	0.284	0.214	0.179	0.222	0.187	0.209	0.215	0.252	0.289	0.287	0.360	0.366	0.290	0.337	0.256	0.275	0.295	0.268	0.319	0.244	0.261	0.309	0.312	0.406	0.498	0.773	1.404	1.949	1.584	0.721	0.495	0.569	0.732	0.937	1.273	2.634	7.406	16.36	23.77
305.0	31.65	47.98	44.08	35.87	32.36	32.43	36.37	46.94	61.47	101.1	227.2	317.9	138.7	75.77	122.3	623.4	 2489	 3235	66.38	4.328	2.299	1.782	1.291	0.983	0.979	0.777	0.776	0.565	0.593	0.559	0.428	0.556	0.465	0.359	0.381	0.312	0.314	0.282	0.264	0.206	0.216	0.229	0.148	0.189	0.231	0.216	0.287	0.276	0.268	0.333	0.327	0.360	0.265	0.266	0.289	0.229	0.301	0.259	0.320	0.381	0.417	0.344	0.401	0.495	0.721	1.225	1.715	1.647	0.909	0.418	0.456	0.443	0.512	0.751	1.838	4.879	11.86
310.0	27.52	44.32	45.86	38.68	39.15	37.52	42.64	50.42	63.14	84.18	132.8	234.6	271.2	107.6	62.68	163.2	734.9	 2238	 2753	 1100	18.39	2.502	1.803	1.405	1.223	0.874	0.790	0.707	0.671	0.600	0.575	0.509	0.465	0.365	0.445	0.334	0.336	0.322	0.302	0.218	0.223	0.207	0.214	0.189	0.251	0.217	0.248	0.254	0.276	0.296	0.296	0.343	0.357	0.304	0.313	0.268	0.363	0.324	0.363	0.381	0.364	0.401	0.390	0.482	0.555	0.698	0.861	1.183	1.588	1.412	0.883	0.445	0.326	0.331	0.528	1.236	2.931
315.0	33.94	53.44	57.43	45.89	42.04	45.21	49.28	57.03	68.83	88.45	106.3	139.2	212.7	264.2	98.29	67.57	186.9	548.5	 1412	 3698	455.2	19.47	2.678	1.980	1.360	1.026	0.889	0.778	0.865	0.714	0.677	0.635	0.515	0.455	0.459	0.437	0.339	0.257	0.365	0.268	0.260	0.213	0.189	0.217	0.232	0.246	0.260	0.310	0.275	0.311	0.302	0.306	0.403	0.332	0.356	0.356	0.389	0.367	0.360	0.372	0.408	0.416	0.466	0.557	0.527	0.555	0.638	0.716	0.903	1.275	1.751	1.373	0.614	0.381	0.347	0.461	0.808
320.0	49.47	100.9	109.8	62.99	49.56	52.62	63.69	68.84	87.75	104.6	124.9	140.8	169.2	269.5	223.3	74.65	76.20	147.4	396.9	 2132	 3489	369.3	8.375	2.544	1.720	1.413	1.106	0.855	0.939	0.800	0.668	0.667	0.572	0.428	0.434	0.466	0.447	0.340	0.349	0.272	0.304	0.250	0.239	0.187	0.239	0.325	0.369	0.393	0.505	0.567	0.409	0.380	0.411	0.429	0.394	0.343	0.478	0.383	0.420	0.440	0.503	0.430	0.570	0.656	0.647	0.642	0.659	0.712	0.726	0.927	1.194	1.803	1.498	0.824	0.481	0.370	0.408
325.0	74.28	182.4	203.6	95.15	67.06	67.95	74.32	90.63	108.9	132.4	157.8	168.5	168.8	212.5	292.2	156.3	64.71	65.78	114.1	622.3	 2767	 3175	52.65	4.124	2.374	1.643	1.426	0.990	1.048	1.011	0.709	0.827	0.529	0.473	0.497	0.459	0.496	0.356	0.331	0.303	0.249	0.186	0.280	0.204	0.270	0.399	0.493	0.620	0.849	0.795	0.591	0.486	0.366	0.459	0.522	0.413	0.528	0.471	0.536	0.467	0.692	0.605	0.643	0.684	0.774	0.796	0.837	0.826	0.784	0.917	0.962	1.209	1.591	1.770	0.994	0.534	0.358
330.0	90.51	214.8	258.7	132.7	90.42	81.03	87.28	104.7	122.4	153.4	173.9	187.6	184.1	181.4	213.6	242.0	130.7	61.11	57.40	163.7	772.8	 2366	 3011	 1076	16.14	2.501	1.870	1.412	1.341	1.038	0.939	0.795	0.567	0.554	0.509	0.487	0.476	0.337	0.346	0.336	0.291	0.245	0.269	0.262	0.272	0.397	0.499	0.779	0.951	0.990	0.780	0.592	0.478	0.445	0.511	0.506	0.552	0.520	0.569	0.601	0.709	0.701	0.777	0.805	0.854	0.829	0.977	0.943	0.898	0.890	0.970	0.960	1.013	1.357	1.436	1.322	0.926
335.0	102.8	259.7	310.8	178.0	118.4	105.4	111.8	123.6	145.5	177.3	200.0	219.4	215.2	197.5	185.5	191.9	234.2	123.6	56.37	69.67	200.8	571.1	 1592	 3964	362.3	17.80	2.692	1.971	1.752	1.144	1.044	0.805	0.699	0.691	0.601	0.478	0.471	0.424	0.422	0.322	0.348	0.347	0.259	0.319	0.346	0.468	0.562	0.907	1.120	1.164	0.940	0.738	0.658	0.587	0.553	0.588	0.610	0.662	0.687	0.716	0.696	0.852	0.788	0.858	0.951	0.950	1.042	1.060	1.164	1.157	1.127	1.055	0.955	0.996	0.948	1.195	1.397
340.0	111.7	287.7	362.6	215.8	147.6	134.7	133.6	147.2	161.9	194.4	223.9	242.7	243.3	222.3	195.6	163.0	208.6	212.1	75.78	59.17	81.44	156.3	428.9	 2394	 3070	320.9	8.073	2.623	2.050	1.498	1.236	1.004	0.902	0.676	0.617	0.549	0.570	0.431	0.381	0.361	0.364	0.297	0.251	0.242	0.398	0.434	0.570	1.044	1.317	1.403	0.915	0.849	0.694	0.682	0.678	0.647	0.736	0.758	0.883	0.903	0.749	0.943	1.035	0.976	1.035	1.105	1.299	1.132	1.205	1.232	1.275	1.204	1.155	1.053	0.833	0.895	1.108
345.0	108.5	296.4	374.7	235.5	177.8	160.2	154.4	161.9	171.1	195.7	230.0	248.0	255.6	237.3	208.1	158.9	157.3	230.2	159.1	68.66	64.22	71.11	124.1	686.0	 2857	 2782	46.51	4.514	2.705	1.948	1.363	1.232	0.868	0.696	0.617	0.575	0.517	0.477	0.382	0.368	0.364	0.239	0.273	0.281	0.333	0.380	0.668	0.934	1.235	1.360	1.052	0.931	0.795	0.831	0.832	0.731	0.815	0.786	0.837	0.912	0.871	0.927	1.010	1.005	1.066	1.155	1.201	1.130	1.402	1.245	1.285	1.220	1.318	1.152	0.937	0.843	0.939
350.0	101.3	259.0	349.0	261.5	209.0	184.5	170.7	175.3	177.1	199.8	226.6	245.8	252.4	243.6	218.9	171.8	146.1	166.6	203.9	151.2	81.51	64.27	66.35	183.9	803.3	 2342	 2980	 1017	15.40	2.776	1.836	1.354	1.036	0.861	0.759	0.584	0.495	0.588	0.455	0.374	0.378	0.318	0.293	0.288	0.353	0.406	0.635	0.907	1.224	1.167	1.055	1.067	0.965	1.009	0.856	0.815	0.869	0.865	0.962	0.955	0.969	0.944	1.102	1.061	1.093	1.078	1.161	1.180	1.287	1.289	1.248	1.248	1.200	1.205	1.070	0.964	0.847
355.0	93.45	240.1	339.4	278.2	247.0	213.7	195.6	195.4	191.7	205.4	233.5	249.8	260.2	251.7	231.6	189.9	159.3	150.3	161.3	208.8	156.4	83.06	68.88	82.88	208.6	562.6	 1624	 4361	348.1	18.25	2.669	2.028	1.419	0.855	0.883	0.715	0.570	0.581	0.450	0.435	0.306	0.325	0.268	0.341	0.369	0.498	0.589	0.772	1.150	1.100	1.060	1.219	1.205	1.071	1.025	0.995	1.014	0.937	1.029	1.020	0.993	1.060	1.079	1.152	1.154	1.131	1.256	1.270	1.219	1.367	1.232	1.302	1.182	1.196	1.026	0.937	0.997
360.0	84.79	219.2	321.6	295.5	268.5	238.8	213.3	212.5	207.8	212.1	236.5	254.6	263.9	260.2	240.6	202.2	170.7	157.3	150.1	178.6	214.3	122.1	79.46	69.84	83.59	152.2	429.3	 2659	 4143	310.6	8.051	2.524	1.701	1.202	0.900	0.758	0.764	0.550	0.555	0.499	0.391	0.332	0.292	0.391	0.343	0.488	0.601	0.726	1.080	1.116	1.116	1.219	1.244	1.073	1.129	1.077	1.139	1.063	1.144	0.938	0.964	1.054	1.120	1.074	1.149	1.069	1.185	1.290	1.357	1.280	1.475	1.322	1.152	1.418	1.126	1.011	0.915
365.0	81.95	206.0	313.3	298.6	283.6	258.2	235.6	227.3	210.0	221.0	240.4	255.1	266.3	262.3	244.8	208.5	183.8	169.1	157.0	156.8	207.3	186.8	102.2	78.33	62.87	66.98	119.7	749.0	 3542	 2808	43.67	4.276	2.188	1.596	1.151	0.907	0.752	0.675	0.579	0.494	0.389	0.382	0.306	0.383	0.406	0.465	0.615	0.799	0.993	1.125	1.088	1.218	1.276	1.189	1.223	1.237	1.208	1.114	1.102	1.117	1.104	1.169	1.093	1.148	1.095	1.113	1.170	1.266	1.406	1.253	1.408	1.348	1.314	1.398	1.171	1.133	1.101
370.0	80.81	187.0	278.8	300.4	300.8	282.6	251.3	236.7	222.6	231.2	250.4	260.1	264.5	262.3	246.0	215.9	197.5	185.6	170.7	159.7	171.4	203.1	171.6	105.5	75.68	61.45	61.00	192.8	982.2	 2844	 3183	954.4	13.13	2.257	1.505	1.035	0.944	0.725	0.674	0.563	0.433	0.427	0.407	0.414	0.410	0.417	0.552	0.711	0.974	1.093	1.024	1.222	1.433	1.335	1.370	1.266	1.221	1.195	1.160	1.190	1.070	1.143	1.206	1.176	1.232	1.202	1.187	1.267	1.317	1.245	1.370	1.250	1.414	1.329	1.289	1.178	1.145
375.0	76.88	179.2	274.2	309.4	325.4	297.0	279.0	248.1	242.6	247.5	260.9	266.9	276.5	265.4	245.1	222.9	207.7	200.4	186.6	175.1	169.1	174.1	204.1	177.2	102.7	77.41	65.94	84.25	247.9	681.4	 1916	 4418	302.8	15.71	2.316	1.722	1.156	0.940	0.755	0.633	0.456	0.531	0.421	0.362	0.451	0.524	0.586	0.739	0.925	1.098	0.986	1.303	1.392	1.475	1.428	1.317	1.348	1.171	1.194	1.241	1.178	1.160	1.193	1.241	1.332	1.333	1.293	1.354	1.318	1.356	1.378	1.318	1.468	1.383	1.329	1.323	1.282
380.0	75.42	171.5	263.7	321.7	340.0	310.7	291.1	258.0	249.6	256.3	268.9	277.7	289.8	269.1	246.9	229.6	216.1	208.8	197.0	185.6	176.7	171.9	184.8	217.1	145.9	94.96	80.69	74.27	94.92	182.3	512.7	 2840	 4023	266.4	6.607	2.117	1.396	1.223	0.803	0.741	0.536	0.559	0.477	0.416	0.533	0.530	0.606	0.732	0.889	1.103	1.050	1.389	1.349	1.438	1.544	1.353	1.342	1.316	1.209	1.264	1.263	1.111	1.263	1.275	1.307	1.369	1.298	1.452	1.442	1.506	1.494	1.433	1.522	1.381	1.359	1.421	1.256
385.0	71.20	170.0	264.1	321.7	346.6	318.2	299.5	275.3	262.7	264.0	277.5	286.8	298.6	271.3	248.8	231.4	219.9	212.4	202.8	194.7	184.4	177.5	174.8	205.0	194.8	120.7	93.33	82.73	70.36	77.20	150.7	822.7	 3524	 2230	35.91	3.253	1.685	1.368	0.978	0.843	0.628	0.529	0.475	0.496	0.543	0.444	0.629	0.689	0.860	1.080	1.069	1.354	1.517	1.539	1.485	1.385	1.558	1.515	1.396	1.377	1.406	1.343	1.303	1.209	1.331	1.467	1.393	1.415	1.370	1.440	1.468	1.431	1.404	1.260	1.390	1.329	1.347
390.0	74.90	160.3	254.8	320.5	343.9	328.2	305.9	283.9	271.7	269.1	279.9	279.0	286.7	266.1	245.1	231.4	224.0	216.1	210.3	201.7	193.4	185.6	175.8	177.0	193.7	171.3	118.8	91.64	71.87	59.48	71.11	218.2	991.5	 2377	 2696	773.8	11.50	1.858	1.366	1.043	0.721	0.637	0.582	0.519	0.507	0.494	0.557	0.710	0.897	0.982	1.080	1.391	1.497	1.482	1.474	1.376	1.513	1.494	1.352	1.467	1.287	1.358	1.316	1.321	1.289	1.320	1.393	1.380	1.296	1.486	1.460	1.344	1.395	1.287	1.393	1.231	1.344
395.0	75.78	145.3	247.0	311.0	347.3	334.9	316.7	291.9	283.1	280.0	280.2	278.4	281.8	263.7	240.1	230.6	224.9	219.0	213.2	205.4	199.6	189.4	182.3	174.2	167.9	179.5	170.9	111.0	81.20	65.44	59.61	86.19	243.2	560.8	 1642	 3796	 1159	13.05	1.965	1.373	0.996	0.882	0.703	0.585	0.650	0.612	0.536	0.776	0.933	0.968	1.060	1.406	1.475	1.487	1.555	1.475	1.495	1.520	1.503	1.376	1.399	1.435	1.289	1.390	1.380	1.314	1.283	1.365	1.273	1.431	1.471	1.299	1.412	1.323	1.297	1.268	1.381
400.0	70.30	153.0	247.3	310.4	348.9	344.1	315.8	304.4	285.9	282.7	284.7	279.8	281.6	257.5	234.2	229.4	221.2	219.5	213.1	207.9	200.6	194.7	186.0	177.8	161.3	162.9	186.8	147.2	93.66	74.35	65.48	64.09	81.20	141.0	423.7	 2501	 3713	227.4	5.566	1.561	1.329	0.957	0.745	0.638	0.661	0.702	0.597	0.713	0.893	1.034	1.120	1.348	1.587	1.541	1.577	1.330	1.501	1.472	1.407	1.469	1.493	1.510	1.336	1.464	1.319	1.456	1.192	1.441	1.306	1.462	1.420	1.362	1.407	1.262	1.300	1.270	1.415
405.0	71.68	151.7	238.5	316.4	346.7	341.6	318.6	310.6	290.9	284.4	283.3	280.4	278.7	255.1	229.5	223.1	217.4	215.6	215.2	206.5	201.2	195.8	188.5	181.2	165.3	155.6	169.6	178.8	117.2	83.00	72.50	64.55	49.13	49.94	107.4	704.0	 3047	 1942	31.66	2.814	1.663	1.054	0.893	0.636	0.606	0.706	0.631	0.717	0.951	0.931	1.149	1.370	1.352	1.564	1.523	1.495	1.494	1.493	1.328	1.527	1.408	1.457	1.402	1.392	1.325	1.330	1.210	1.323	1.360	1.491	1.360	1.309	1.454	1.235	1.166	1.344	1.371
410.0	64.33	147.1	232.4	301.5	332.2	334.6	319.7	306.2	297.4	287.1	283.1	273.6	270.4	245.1	226.9	216.1	210.8	208.7	206.7	201.3	199.4	194.4	187.7	181.0	167.1	153.4	151.0	162.5	151.2	104.3	79.08	66.28	45.93	33.73	39.33	168.9	831.1	 2109	 2405	688.9	10.15	1.520	1.143	0.865	0.764	0.672	0.711	0.792	0.902	0.944	1.130	1.391	1.353	1.521	1.504	1.467	1.470	1.500	1.363	1.509	1.497	1.428	1.368	1.446	1.374	1.294	1.253	1.293	1.292	1.356	1.214	1.280	1.292	1.224	1.245	1.374	1.247
