Sample:	'1
File name:	亿斯特处理前.FD3
Run date:	'10:21:31, 04/03/2025
Operator:	Administrator
Comment:	'

Instrument
Model:	F-2700 FL Spectrophotometer
Serial number:	23B8-004
ROM Version:	4J14000 07

Instrument parameters
Measurement type:	3-D scan
Data mode:	Fluorescence
EX  Start WL:	220.0 nm
EX  End WL:	600.0 nm
EX Sampling interval:	5.0 nm
EM  Start WL:	230.0 nm
EM  End WL:	650.0 nm
EM Sampling interval:	5.0 nm
Scan speed:	12000 nm/min
EX Slit:	5.0 nm
EM Slit:	5.0 nm
PMT Voltage:	700 V
Response:	Auto 
Corrected spectra:	Off
Contour interval:	50.000

Peak integration
Integration method:	Rectangular
Sensitivity:	1
Threshold:	1.000

Peaks
No.	ApexEX/EM(nm)	Height(Data)
1	235.0/255.0	252.5
2	235.0/615.0	20.45
3	240.0/265.0	350.7
4	240.0/520.0	250.2
5	240.0/640.0	15.13
6	245.0/270.0	345.7
7	245.0/400.0	1233
8	245.0/535.0	219.4
9	250.0/275.0	460.2
10	250.0/405.0	1238
11	250.0/550.0	173.6
12	255.0/280.0	540.2
13	255.0/560.0	147.1
14	260.0/290.0	544.5
15	260.0/575.0	120.0
16	265.0/295.0	719.4
17	265.0/585.0	104.8
18	270.0/300.0	963.4
19	270.0/600.0	90.55
20	275.0/305.0	927.9
21	275.0/610.0	72.52
22	280.0/625.0	57.53
23	285.0/320.0	718.7
24	285.0/635.0	41.41
25	290.0/325.0	642.2
26	295.0/330.0	496.7
27	300.0/335.0	485.4
28	305.0/345.0	458.7
29	310.0/350.0	404.6
30	315.0/355.0	408.9
31	320.0/365.0	399.8
32	325.0/370.0	375.7
33	330.0/375.0	367.9
34	335.0/380.0	366.2
35	410.0/480.0	50.82
36	425.0/500.0	30.06
37	440.0/520.0	17.32
38	455.0/540.0	9.091
39	470.0/560.0	4.399
40	485.0/265.0	1.777
41	495.0/270.0	1.702
42	500.0/420.0	4.924
43	505.0/275.0	2.619
44	510.0/280.0	2.882
45	510.0/410.0	5.044
46	520.0/285.0	3.261
47	525.0/290.0	3.174
48	540.0/295.0	4.271
49	545.0/300.0	4.700
50	550.0/305.0	5.022
51	560.0/310.0	4.071
52	570.0/315.0	4.012
53	580.0/320.0	3.873
54	585.0/325.0	3.850

Data points
	220.0	225.0	230.0	235.0	240.0	245.0	250.0	255.0	260.0	265.0	270.0	275.0	280.0	285.0	290.0	295.0	300.0	305.0	310.0	315.0	320.0	325.0	330.0	335.0	340.0	345.0	350.0	355.0	360.0	365.0	370.0	375.0	380.0	385.0	390.0	395.0	400.0	405.0	410.0	415.0	420.0	425.0	430.0	435.0	440.0	445.0	450.0	455.0	460.0	465.0	470.0	475.0	480.0	485.0	490.0	495.0	500.0	505.0	510.0	515.0	520.0	525.0	530.0	535.0	540.0	545.0	550.0	555.0	560.0	565.0	570.0	575.0	580.0	585.0	590.0	595.0	600.0
230.0	15.22	281.4	804.6	283.9	14.30	2.854	2.216	2.133	1.843	1.759	1.379	1.333	1.213	0.935	0.946	0.677	0.621	0.566	0.503	0.476	0.451	0.431	0.384	0.353	0.280	0.235	0.245	0.242	0.201	0.187	0.195	0.197	0.176	0.165	0.161	0.168	0.159	0.152	0.130	0.127	0.137	0.124	0.204	0.138	0.118	0.097	0.305	1.148	2.202	1.878	0.678	0.166	0.103	0.086	0.081	0.085	0.063	0.087	0.106	0.071	0.078	0.081	0.073	0.071	0.079	0.088	0.079	0.071	0.092	0.075	0.077	0.051	0.077	0.077	0.071	0.089	0.093
235.0	35.18	82.15	560.6	873.6	396.9	17.63	2.406	2.243	2.137	1.907	1.456	1.554	1.086	0.999	0.935	0.952	0.740	0.658	0.654	0.639	0.452	0.345	0.320	0.442	0.312	0.207	0.254	0.184	0.300	0.162	0.187	0.266	0.166	0.182	0.138	0.142	0.168	0.145	0.128	0.128	0.098	0.112	0.196	0.167	0.170	0.153	0.161	0.357	0.990	1.972	3.231	3.026	1.296	0.357	0.082	0.093	0.070	0.081	0.083	0.073	0.087	0.097	0.063	0.083	0.073	0.088	0.132	0.098	0.079	0.086	0.074	0.058	0.084	0.078	0.073	0.084	0.083
240.0	53.39	53.25	178.4	927.7	1405	283.5	10.02	3.044	2.533	1.925	1.453	1.586	1.120	0.871	0.888	0.768	0.815	0.561	0.574	0.439	0.368	0.398	0.329	0.514	0.323	0.354	0.255	0.226	0.284	0.196	0.166	0.219	0.205	0.214	0.115	0.127	0.151	0.150	0.175	0.131	0.171	0.145	0.104	0.148	0.209	0.192	0.198	0.210	0.354	0.621	1.798	4.402	5.146	3.429	0.883	0.181	0.098	0.089	0.067	0.111	0.114	0.094	0.072	0.076	0.097	0.066	0.096	0.072	0.079	0.085	0.056	0.054	0.069	0.079	0.086	0.083	0.103
245.0	40.52	97.36	81.89	331.8	1533	1323	190.2	5.214	3.259	2.094	1.603	1.923	1.291	0.927	0.878	0.873	0.747	0.700	0.522	0.438	0.391	0.408	0.321	0.391	0.233	0.317	0.283	0.267	0.257	0.211	0.182	0.163	0.196	0.215	0.159	0.135	0.134	0.113	0.121	0.156	0.189	0.154	0.124	0.149	0.140	0.212	0.307	0.326	0.195	0.244	0.482	1.611	4.518	6.920	6.306	2.905	0.627	0.106	0.080	0.112	0.080	0.096	0.075	0.078	0.130	0.069	0.088	0.084	0.086	0.082	0.071	0.066	0.094	0.085	0.082	0.085	0.134
250.0	22.43	84.00	172.2	143.4	508.4	1396	1568	227.2	22.88	3.346	2.274	2.216	1.474	1.384	1.131	1.033	0.744	0.772	0.630	0.666	0.497	0.432	0.409	0.405	0.329	0.312	0.311	0.318	0.250	0.210	0.201	0.240	0.209	0.177	0.171	0.126	0.137	0.116	0.146	0.162	0.160	0.163	0.189	0.149	0.133	0.137	0.249	0.334	0.484	0.464	0.356	0.510	1.207	2.392	4.354	6.657	7.532	6.271	2.865	0.727	0.127	0.106	0.090	0.089	0.111	0.080	0.100	0.107	0.099	0.069	0.088	0.095	0.094	0.096	0.090	0.089	0.127
255.0	18.73	29.35	134.9	252.5	187.3	370.7	1370	2406	278.7	17.35	3.750	2.862	1.626	1.476	1.170	1.116	0.903	0.805	0.663	0.654	0.480	0.462	0.487	0.420	0.293	0.370	0.300	0.296	0.265	0.225	0.219	0.208	0.256	0.224	0.195	0.146	0.178	0.129	0.161	0.133	0.180	0.160	0.161	0.122	0.174	0.178	0.155	0.155	0.327	0.542	0.936	0.980	0.540	0.664	1.060	1.708	3.300	8.004	12.20	10.41	4.267	0.639	0.129	0.104	0.089	0.073	0.082	0.078	0.116	0.077	0.103	0.071	0.088	0.080	0.075	0.086	0.094
260.0	17.26	16.07	50.38	243.1	269.6	124.3	440.1	2199	2165	210.5	8.321	3.218	1.879	1.765	1.240	1.042	0.991	1.007	0.662	0.554	0.584	0.611	0.534	0.412	0.389	0.320	0.286	0.324	0.269	0.230	0.170	0.284	0.225	0.178	0.173	0.116	0.139	0.193	0.181	0.127	0.155	0.174	0.153	0.098	0.187	0.179	0.110	0.144	0.151	0.276	0.610	1.342	1.130	0.725	0.399	0.551	0.873	2.428	6.217	12.14	15.28	9.466	2.753	0.369	0.132	0.129	0.121	0.084	0.107	0.093	0.097	0.055	0.093	0.080	0.116	0.097	0.094
265.0	18.90	15.24	18.66	112.5	350.7	188.9	125.5	817.2	2803	1816	139.3	4.985	3.153	2.298	1.613	1.153	1.214	1.018	0.706	0.680	0.609	0.554	0.542	0.461	0.388	0.317	0.388	0.295	0.301	0.246	0.233	0.251	0.200	0.224	0.171	0.181	0.166	0.153	0.177	0.135	0.116	0.180	0.146	0.106	0.172	0.179	0.129	0.128	0.126	0.150	0.242	0.689	1.394	1.777	0.936	0.422	0.357	0.670	1.564	4.014	9.572	16.07	15.73	7.554	1.603	0.225	0.119	0.110	0.109	0.080	0.100	0.067	0.120	0.099	0.125	0.099	0.125
270.0	22.36	20.31	19.79	39.06	165.7	345.7	230.3	224.0	971.2	2455	2567	542.2	15.40	3.200	2.066	1.543	1.298	1.161	0.809	0.747	0.561	0.622	0.531	0.501	0.366	0.361	0.417	0.362	0.412	0.331	0.285	0.243	0.238	0.242	0.194	0.168	0.161	0.145	0.183	0.152	0.138	0.192	0.175	0.148	0.153	0.178	0.133	0.173	0.138	0.123	0.118	0.266	0.520	0.993	1.545	1.702	1.373	0.688	0.511	1.075	2.438	5.115	9.065	13.29	15.44	12.61	6.156	1.535	0.214	0.130	0.152	0.096	0.129	0.105	0.100	0.118	0.118
275.0	38.81	46.97	49.05	32.70	53.14	170.0	460.2	271.0	258.1	675.9	2465	3740	162.0	11.04	3.316	2.352	1.919	1.283	0.987	0.891	0.706	0.595	0.512	0.542	0.467	0.428	0.508	0.392	0.337	0.356	0.308	0.253	0.259	0.269	0.222	0.235	0.289	0.188	0.215	0.136	0.177	0.139	0.169	0.187	0.200	0.219	0.219	0.210	0.188	0.209	0.121	0.220	0.218	0.367	0.541	0.822	2.152	2.619	1.446	0.600	0.798	1.458	2.293	3.323	5.440	11.28	19.73	19.34	8.953	1.424	0.159	0.142	0.130	0.101	0.101	0.146	0.108
280.0	66.03	87.98	90.42	55.71	35.06	65.76	309.7	540.2	193.4	215.4	834.6	3398	3129	120.2	6.090	2.982	2.015	1.526	1.005	1.076	0.925	0.733	0.622	0.603	0.484	0.435	0.421	0.337	0.410	0.260	0.321	0.304	0.248	0.282	0.278	0.264	0.201	0.235	0.203	0.146	0.241	0.220	0.220	0.184	0.236	0.227	0.312	0.293	0.287	0.334	0.188	0.207	0.247	0.195	0.230	0.337	0.989	2.030	2.882	2.384	1.110	0.690	0.815	1.125	1.559	3.310	8.020	16.90	22.81	16.90	5.723	0.567	0.191	0.118	0.154	0.123	0.141
285.0	86.70	120.9	128.8	77.77	43.45	45.68	133.2	513.0	336.1	162.0	281.5	1238	3886	1137	75.72	4.255	2.344	1.771	1.388	1.390	0.994	0.687	0.812	0.613	0.541	0.457	0.405	0.397	0.413	0.247	0.312	0.295	0.275	0.347	0.308	0.301	0.250	0.218	0.192	0.159	0.194	0.186	0.257	0.249	0.228	0.385	0.369	0.466	0.433	0.335	0.345	0.249	0.314	0.240	0.185	0.222	0.460	0.783	1.633	3.148	3.261	1.651	0.743	0.713	0.752	1.169	2.327	5.107	11.32	19.72	23.08	13.32	3.314	0.331	0.216	0.148	0.182
290.0	107.1	169.0	180.8	114.5	74.45	67.05	96.09	246.9	544.5	498.9	236.0	417.0	1327	2553	2119	339.5	9.005	2.494	1.754	1.537	1.146	0.883	0.810	0.656	0.608	0.499	0.452	0.474	0.413	0.300	0.330	0.352	0.310	0.331	0.298	0.328	0.267	0.315	0.234	0.181	0.239	0.204	0.233	0.241	0.276	0.430	0.397	0.576	0.648	0.453	0.369	0.462	0.354	0.328	0.290	0.333	0.449	0.534	0.833	1.375	2.267	3.174	3.126	2.351	1.216	0.966	1.215	1.787	3.159	5.838	10.24	15.00	17.70	15.84	9.170	2.681	0.425
295.0	125.2	217.9	224.0	164.4	115.3	116.3	131.7	192.4	325.4	719.4	672.2	316.5	436.5	721.2	2066	3223	91.99	6.664	2.491	2.193	1.362	0.994	0.893	0.653	0.744	0.596	0.453	0.378	0.463	0.312	0.343	0.365	0.282	0.315	0.308	0.359	0.312	0.322	0.307	0.224	0.255	0.263	0.240	0.270	0.324	0.461	0.548	0.674	0.757	0.671	0.510	0.553	0.499	0.555	0.487	0.506	0.570	0.690	0.771	1.000	1.225	1.629	2.295	4.023	4.271	2.545	1.498	1.362	1.551	2.064	2.874	3.879	5.144	9.628	18.85	22.69	12.93
300.0	128.4	211.8	259.5	189.1	146.4	151.5	169.9	202.9	284.2	499.1	963.4	515.7	281.6	266.1	665.0	2919	2420	70.77	3.969	2.460	1.609	1.436	1.192	0.758	0.783	0.640	0.517	0.514	0.540	0.400	0.391	0.323	0.328	0.324	0.300	0.346	0.364	0.309	0.312	0.220	0.263	0.298	0.220	0.293	0.349	0.516	0.548	0.639	0.732	0.660	0.552	0.683	0.502	0.598	0.599	0.724	0.586	0.919	0.865	1.007	1.156	1.324	1.453	2.474	3.829	4.700	3.773	1.860	1.386	1.252	1.385	1.437	1.682	2.585	6.248	14.11	22.97
305.0	137.3	216.6	271.8	205.7	182.7	184.1	208.9	240.6	316.8	402.7	771.0	927.9	360.7	196.6	236.3	1008	3033	1775	47.79	3.342	1.942	1.544	1.365	0.967	0.729	0.687	0.640	0.514	0.508	0.455	0.490	0.371	0.361	0.352	0.323	0.363	0.314	0.328	0.297	0.284	0.246	0.284	0.299	0.268	0.385	0.415	0.508	0.719	0.679	0.758	0.676	0.703	0.652	0.751	0.752	0.822	0.845	0.970	1.055	1.123	1.162	1.429	1.451	1.889	2.406	3.597	5.022	4.514	2.501	1.641	1.263	1.110	1.046	1.032	1.890	3.915	8.902
310.0	139.4	220.4	269.3	238.0	209.6	215.6	247.0	285.2	361.6	383.5	520.6	793.5	754.5	313.3	170.7	304.2	1017	2150	1557	248.3	7.303	2.087	1.718	1.195	0.909	0.709	0.687	0.705	0.572	0.497	0.536	0.398	0.396	0.370	0.349	0.346	0.348	0.340	0.357	0.285	0.254	0.299	0.279	0.276	0.347	0.434	0.529	0.671	0.806	0.827	0.631	0.808	0.787	0.853	0.900	0.957	1.030	1.067	1.117	1.289	1.280	1.572	1.590	1.753	2.099	2.368	2.950	3.702	4.071	3.728	2.544	1.445	1.033	0.885	0.986	1.360	2.465
315.0	130.7	225.4	274.5	242.4	218.7	225.8	259.1	293.0	384.7	384.5	437.7	511.1	693.2	672.5	236.1	161.5	296.3	569.8	1551	2724	67.18	5.251	2.429	1.656	0.942	0.782	0.659	0.652	0.521	0.441	0.482	0.434	0.452	0.409	0.394	0.332	0.368	0.306	0.340	0.311	0.280	0.279	0.328	0.274	0.369	0.440	0.531	0.628	0.708	0.776	0.722	0.760	0.862	0.767	0.862	1.033	1.107	1.105	1.202	1.352	1.454	1.570	1.621	1.826	1.922	2.075	2.181	2.512	2.452	3.220	4.012	3.640	2.170	1.174	0.970	0.904	1.072
320.0	145.0	244.8	271.0	258.3	235.0	244.6	274.4	311.8	397.5	384.1	425.7	449.0	492.7	718.7	463.9	163.4	151.8	181.9	475.6	2370	1949	56.81	4.197	1.948	1.346	1.053	0.832	0.683	0.537	0.566	0.533	0.518	0.535	0.389	0.438	0.334	0.362	0.344	0.352	0.293	0.346	0.305	0.313	0.304	0.392	0.452	0.531	0.723	0.784	0.825	0.729	0.853	0.871	0.954	0.998	1.015	1.267	1.290	1.303	1.453	1.503	1.560	1.653	1.787	1.857	1.827	1.999	2.073	1.939	2.200	2.768	3.749	3.873	2.698	1.512	0.781	0.865
325.0	150.1	253.5	315.9	290.6	248.4	256.6	279.4	318.4	400.6	383.9	426.3	437.0	424.0	511.1	642.2	279.3	139.7	107.0	150.0	779.8	2387	1496	44.30	2.651	1.623	1.237	0.980	0.829	0.738	0.696	0.538	0.477	0.538	0.480	0.417	0.307	0.313	0.353	0.429	0.323	0.266	0.268	0.290	0.316	0.298	0.493	0.646	0.848	0.846	0.889	0.779	0.871	1.027	1.044	0.919	1.143	1.300	1.282	1.406	1.452	1.362	1.731	1.778	1.973	1.726	1.880	2.048	1.831	1.897	1.956	1.969	2.548	3.362	3.850	3.094	1.663	1.114
330.0	167.9	273.1	371.6	360.8	301.2	287.4	303.0	329.1	409.5	390.7	433.6	442.9	423.5	404.9	473.9	496.7	263.0	118.5	95.84	222.3	770.3	1721	1529	200.2	7.438	1.714	1.262	1.036	0.859	0.584	0.580	0.504	0.530	0.484	0.381	0.379	0.359	0.363	0.352	0.310	0.300	0.359	0.295	0.327	0.411	0.512	0.649	0.939	1.034	1.048	0.986	1.088	1.269	1.024	1.076	1.167	1.213	1.276	1.420	1.533	1.424	1.565	1.753	1.786	1.728	1.902	1.912	2.012	1.856	1.912	2.052	2.005	2.151	2.502	2.904	3.080	2.724
335.0	199.8	303.7	438.4	433.2	383.2	348.1	355.5	369.4	444.8	431.1	458.3	478.5	451.1	410.6	375.1	405.8	485.4	223.7	113.6	115.7	222.4	448.2	1442	1808	277.7	6.039	1.823	1.171	0.978	0.861	0.736	0.606	0.529	0.460	0.452	0.381	0.311	0.317	0.350	0.287	0.292	0.342	0.430	0.345	0.439	0.608	0.751	0.993	1.240	1.192	1.180	1.279	1.300	1.262	1.235	1.395	1.451	1.587	1.635	1.563	1.597	1.551	1.793	1.881	1.957	2.063	1.873	2.132	2.066	1.965	2.033	2.027	2.059	1.867	1.870	1.948	2.555
340.0	206.7	329.1	482.1	506.4	464.5	416.3	404.9	413.5	483.3	470.5	498.9	510.5	487.8	442.2	380.0	338.1	452.7	399.3	164.7	112.8	113.8	148.0	429.6	1521	1518	51.46	3.408	1.610	1.186	0.970	0.786	0.550	0.650	0.484	0.463	0.388	0.410	0.328	0.429	0.349	0.360	0.354	0.354	0.392	0.425	0.622	0.743	1.075	1.272	1.407	1.297	1.574	1.563	1.622	1.559	1.536	1.633	1.811	1.775	1.928	1.817	1.872	2.119	2.114	2.171	2.359	1.874	2.253	2.203	2.350	2.181	2.104	2.002	1.873	1.893	1.780	1.924
345.0	195.5	347.3	514.2	569.8	542.8	487.1	467.3	477.2	526.0	519.2	532.4	540.5	524.6	477.4	405.3	344.1	350.0	458.7	293.5	139.8	108.5	94.05	140.4	493.4	1635	1185	40.62	2.462	1.441	0.938	0.808	0.685	0.695	0.610	0.490	0.447	0.295	0.454	0.451	0.358	0.371	0.458	0.340	0.276	0.439	0.696	0.766	1.077	1.228	1.410	1.492	1.809	1.889	1.838	1.815	1.776	1.853	1.890	1.927	2.035	2.141	1.996	2.204	2.176	2.280	2.312	2.326	2.381	2.368	2.470	2.324	2.205	2.228	2.140	1.969	1.755	1.841
350.0	205.4	359.3	549.4	640.4	646.7	608.9	575.5	565.0	598.0	583.1	598.2	589.7	568.9	523.5	453.9	388.4	343.5	363.1	404.6	278.2	151.0	111.2	97.11	156.1	516.9	1170	954.3	191.0	9.548	1.401	0.961	0.775	0.739	0.517	0.477	0.448	0.368	0.417	0.426	0.327	0.321	0.336	0.352	0.307	0.438	0.572	0.728	1.171	1.409	1.560	1.726	2.214	2.296	2.209	2.240	2.035	2.351	2.359	2.363	2.480	2.297	2.356	2.570	2.519	2.437	2.500	2.662	2.467	2.521	2.541	2.465	2.622	2.362	2.292	2.239	2.154	2.072
355.0	219.7	376.7	578.1	714.5	762.6	758.4	708.9	671.6	683.6	657.4	666.3	660.8	624.0	581.5	514.6	447.5	386.5	344.8	349.5	408.9	272.9	153.1	116.2	104.2	164.0	307.3	786.1	1492	293.6	7.840	1.494	0.874	0.898	0.589	0.611	0.470	0.346	0.412	0.425	0.397	0.329	0.381	0.335	0.316	0.458	0.569	0.785	1.328	1.401	1.590	1.813	2.466	2.566	2.567	2.607	2.709	2.659	2.666	2.660	2.606	2.913	2.650	2.993	2.808	2.769	2.899	2.822	2.854	2.534	2.834	2.792	2.886	2.712	2.597	2.517	2.406	2.343
360.0	209.2	395.4	610.4	760.3	842.2	850.8	799.3	760.2	749.5	707.1	721.8	706.6	668.3	624.9	556.8	493.5	427.5	371.6	340.2	375.9	389.6	219.0	143.6	111.1	99.96	112.1	235.5	1097	1470	51.02	3.431	1.327	1.041	0.739	0.517	0.502	0.360	0.434	0.453	0.397	0.356	0.394	0.406	0.415	0.444	0.617	0.789	1.313	1.480	1.784	1.964	2.546	2.467	2.862	3.131	3.049	3.120	2.912	3.027	3.112	3.220	3.300	3.240	3.099	2.950	3.227	2.994	2.957	2.796	2.866	3.142	3.091	2.986	2.969	2.826	2.669	2.541
365.0	225.2	389.5	633.8	801.7	906.5	920.8	877.3	830.2	822.2	781.2	775.3	745.6	712.1	668.3	599.0	539.3	472.6	411.5	360.8	341.0	399.8	330.3	183.0	130.5	103.2	82.08	92.25	335.8	1347	1117	41.86	2.296	1.278	0.860	0.603	0.508	0.438	0.502	0.442	0.390	0.393	0.430	0.376	0.369	0.466	0.649	0.848	1.283	1.520	1.794	1.968	2.742	3.009	2.931	3.175	3.289	3.486	3.276	3.331	3.311	3.321	3.528	3.401	3.326	3.339	3.456	3.141	3.137	3.105	3.133	3.270	3.270	3.113	3.056	3.022	3.018	2.592
370.0	230.5	412.8	658.1	865.9	970.5	998.3	959.9	904.9	884.9	836.2	821.1	792.6	757.0	710.5	655.4	592.8	535.2	470.7	411.5	364.7	352.4	375.7	304.4	182.7	130.8	98.93	76.33	113.4	398.1	951.6	798.3	183.0	11.01	1.310	0.932	0.666	0.540	0.470	0.430	0.377	0.354	0.421	0.401	0.414	0.443	0.734	0.830	1.242	1.694	1.857	2.132	2.973	3.137	3.379	3.561	3.625	3.697	3.674	3.685	3.530	3.549	3.687	3.628	3.701	3.643	3.488	3.488	3.421	3.318	3.341	3.372	3.454	3.527	3.406	3.297	3.262	3.041
375.0	242.2	445.2	690.5	908.0	1040	1072	1030	968.7	939.6	890.4	874.4	840.2	804.9	760.6	710.4	655.2	598.6	533.6	466.8	411.4	362.4	338.4	367.9	295.7	175.4	127.6	94.96	80.36	124.6	243.8	571.4	1136	289.2	9.269	1.360	0.812	0.606	0.700	0.475	0.370	0.348	0.412	0.502	0.439	0.535	0.672	0.890	1.384	1.773	1.959	2.304	2.992	3.289	3.447	3.664	3.908	3.961	3.808	4.124	4.015	3.964	3.622	3.683	3.884	3.830	3.560	3.621	3.498	3.773	3.476	3.702	3.584	3.798	3.446	3.782	3.733	3.550
380.0	262.3	447.2	736.4	944.2	1086	1121	1081	1016	975.3	930.6	904.2	875.7	837.2	795.8	745.5	704.7	638.7	575.3	511.2	446.4	390.7	345.5	341.0	366.2	241.8	156.6	115.4	86.06	74.81	85.67	166.0	763.8	1311	44.20	3.778	1.066	0.827	0.646	0.557	0.325	0.401	0.444	0.523	0.469	0.517	0.822	1.021	1.398	1.848	1.863	2.393	3.332	3.321	3.495	3.831	4.114	4.110	4.081	4.058	4.153	3.891	3.817	3.683	3.810	3.899	3.843	3.831	3.535	3.843	3.749	3.770	3.833	4.173	3.670	4.024	3.841	4.072
385.0	272.8	474.7	757.9	982.4	1110	1132	1126	1058	1001	962.8	925.7	906.0	868.1	837.4	783.9	737.6	684.5	618.8	548.5	479.3	419.0	370.3	331.5	356.5	325.2	199.0	138.9	104.0	76.93	59.41	63.15	224.8	1068	885.7	36.43	2.067	1.107	0.687	0.629	0.475	0.432	0.432	0.446	0.442	0.485	0.793	1.088	1.370	1.786	2.102	2.505	3.366	3.523	3.790	4.061	4.313	4.355	4.363	4.422	4.121	3.951	3.774	3.820	4.024	4.035	3.952	3.644	3.684	3.988	3.851	3.785	4.028	4.183	4.004	3.968	3.825	4.245
390.0	262.4	496.0	777.0	1011	1132	1200	1157	1090	1023	979.0	939.4	916.5	899.6	868.6	829.7	783.4	740.1	668.4	599.5	523.0	456.8	399.8	353.1	328.8	335.2	290.5	187.0	130.3	97.04	68.56	52.42	74.56	299.6	650.7	711.9	149.9	9.312	1.025	0.831	0.554	0.514	0.401	0.478	0.509	0.587	0.856	1.068	1.398	1.933	2.128	2.584	3.434	3.865	3.899	4.112	4.223	4.619	4.532	4.448	4.353	4.206	4.167	3.946	4.185	4.055	4.007	3.873	3.758	4.255	3.964	3.960	4.184	4.184	4.219	4.289	4.269	4.229
395.0	271.0	513.4	836.3	1067	1168	1213	1208	1130	1053	987.1	948.4	929.8	917.4	897.2	862.5	830.8	782.3	713.2	644.0	565.2	491.4	427.3	382.0	340.2	311.3	313.9	269.1	169.0	119.4	89.00	63.73	51.03	88.57	162.8	387.6	812.8	226.3	8.245	1.115	0.761	0.519	0.463	0.524	0.577	0.664	0.812	1.197	1.384	2.076	2.297	2.665	3.573	3.829	4.120	4.028	4.320	4.653	4.507	4.599	4.507	4.273	4.429	4.193	4.333	3.793	4.005	3.914	4.160	4.116	3.937	4.048	4.025	4.419	3.933	4.423	4.620	4.534
400.0	280.4	536.3	820.7	1068	1189	1233	1229	1144	1056	993.6	953.4	931.4	924.6	906.3	884.5	839.8	806.9	741.4	666.9	587.3	512.4	452.1	403.9	356.9	309.9	295.8	303.6	222.5	142.2	107.4	75.37	53.33	47.58	55.09	107.9	505.7	771.5	38.09	3.782	0.956	0.629	0.481	0.546	0.649	0.611	0.843	1.280	1.553	2.231	2.418	2.774	3.460	3.819	4.185	4.162	4.299	4.644	4.373	4.753	4.411	4.385	4.296	4.233	4.231	3.989	3.957	3.740	4.131	4.012	4.024	4.128	4.340	4.324	4.066	4.479	4.346	4.498
405.0	283.8	557.4	864.8	1068	1197	1232	1238	1168	1077	993.8	958.5	937.3	911.6	900.5	877.6	847.3	817.0	760.0	680.1	601.9	530.0	467.5	415.7	369.3	322.4	288.2	283.8	270.6	177.0	122.2	88.34	62.11	44.82	35.11	39.23	143.4	587.0	627.6	33.46	1.960	0.720	0.643	0.616	0.599	0.764	0.886	1.176	1.704	1.951	2.374	2.584	3.524	3.819	4.263	4.341	4.486	4.578	4.647	4.893	4.639	4.491	4.409	4.157	4.176	3.940	3.944	3.917	4.144	3.872	3.982	4.081	4.028	4.364	4.391	4.715	4.497	4.912
410.0	279.2	553.3	861.6	1066	1187	1222	1221	1171	1070	989.5	942.5	920.3	896.7	883.0	864.2	844.5	816.2	765.6	693.0	613.9	538.1	479.0	428.0	379.4	333.5	293.7	265.0	265.2	237.1	159.2	106.4	75.30	53.51	36.90	28.91	45.78	162.1	446.5	741.1	135.6	7.850	0.843	0.754	0.628	0.750	0.926	1.247	1.685	2.018	2.316	2.595	3.501	4.006	4.468	4.355	4.474	4.625	4.664	5.044	4.783	4.343	4.207	4.304	4.040	4.010	3.947	3.865	3.801	3.865	3.963	3.917	4.215	4.350	4.449	4.512	4.468	4.851
