Sample:	'1
File name:	S2025080915¶«¶þÂ·ÇÅ.FD3
Run date:	'16:24:19, 08/10/2025
Operator:	Administrator
Comment:	'

Instrument
Model:	F-2700 FL Spectrophotometer
Serial number:	3064-004
ROM Version:	4J14000 07

Instrument parameters
Measurement type:	3-D scan
Data mode:	Fluorescence
EX  Start WL:	220.0 nm
EX  End WL:	600.0 nm
EX Sampling interval:	5.0 nm
EM  Start WL:	230.0 nm
EM  End WL:	650.0 nm
EM Sampling interval:	5.0 nm
Scan speed:	12000 nm/min
EX Slit:	5.0 nm
EM Slit:	5.0 nm
PMT Voltage:	700 V
Response:	Auto 
Corrected spectra:	Off
Contour interval:	50.000

Peak integration
Integration method:	Rectangular
Sensitivity:	1
Threshold:	1.000

Peaks
No.	ApexEX/EM(nm)	Height(Data)
1	225.0/580.0	61.64
2	225.0/605.0	48.11
3	230.0/335.0	750.8
4	230.0/585.0	62.72
5	230.0/615.0	46.49
6	230.0/645.0	40.97
7	235.0/350.0	804.1
8	240.0/520.0	257.5
9	245.0/265.0	355.2
10	245.0/530.0	231.4
11	250.0/545.0	219.3
12	255.0/280.0	647.0
13	255.0/560.0	194.6
14	260.0/235.0	12.15
15	260.0/285.0	845.9
16	260.0/570.0	169.7
17	265.0/290.0	912.5
18	265.0/580.0	167.3
19	270.0/295.0	 1247
20	270.0/385.0	 1328
21	270.0/590.0	143.5
22	275.0/305.0	 1516
23	275.0/605.0	134.6
24	280.0/245.0	10.38
25	280.0/310.0	 1437
26	280.0/620.0	112.7
27	285.0/315.0	 1359
28	285.0/630.0	87.69
29	290.0/320.0	 1230
30	290.0/640.0	69.21
31	295.0/330.0	979.9
32	300.0/335.0	861.4
33	305.0/340.0	845.5
34	310.0/345.0	749.0
35	315.0/355.0	707.9
36	320.0/360.0	767.6
37	325.0/365.0	748.0
38	330.0/375.0	729.1
39	335.0/380.0	765.3
40	340.0/385.0	754.9
41	350.0/400.0	679.5
42	355.0/405.0	647.9
43	415.0/485.0	135.8
44	430.0/505.0	85.69
45	445.0/525.0	52.13
46	460.0/545.0	30.37
47	505.0/275.0	3.014
48	510.0/280.0	3.793
49	520.0/285.0	4.329
50	530.0/290.0	4.141
51	540.0/295.0	5.971
52	545.0/300.0	7.148
53	550.0/305.0	6.882
54	560.0/310.0	6.782
55	570.0/315.0	6.849
56	575.0/320.0	7.116
57	580.0/325.0	7.118

Data points
	220.0	225.0	230.0	235.0	240.0	245.0	250.0	255.0	260.0	265.0	270.0	275.0	280.0	285.0	290.0	295.0	300.0	305.0	310.0	315.0	320.0	325.0	330.0	335.0	340.0	345.0	350.0	355.0	360.0	365.0	370.0	375.0	380.0	385.0	390.0	395.0	400.0	405.0	410.0	415.0	420.0	425.0	430.0	435.0	440.0	445.0	450.0	455.0	460.0	465.0	470.0	475.0	480.0	485.0	490.0	495.0	500.0	505.0	510.0	515.0	520.0	525.0	530.0	535.0	540.0	545.0	550.0	555.0	560.0	565.0	570.0	575.0	580.0	585.0	590.0	595.0	600.0
230.0	34.74	823.9	 5317	 2330	159.4	15.84	11.74	10.23	8.237	9.250	7.985	6.788	5.823	5.820	4.474	3.955	3.828	2.996	2.871	2.682	2.338	2.119	2.234	2.207	1.771	1.726	1.890	1.657	1.502	1.590	1.477	1.144	1.248	1.215	1.021	1.210	1.236	0.988	1.111	0.949	0.959	1.077	1.030	0.939	0.807	0.857	1.694	5.936	10.27	8.374	3.666	1.116	0.717	0.726	0.698	0.636	0.704	0.575	0.641	0.506	0.536	0.513	0.538	0.503	0.522	0.582	0.565	0.557	0.470	0.627	0.483	0.602	0.465	0.580	0.534	0.605	0.548
235.0	61.59	217.7	 2261	 4568	 3057	199.6	13.61	10.07	12.15	10.29	8.173	8.198	6.476	6.280	4.402	3.719	3.501	2.922	3.132	2.749	2.446	2.288	2.409	2.339	1.768	1.958	1.865	1.694	1.853	1.494	1.599	1.162	1.098	1.342	1.059	1.142	1.141	0.678	0.988	0.975	1.041	1.067	1.012	1.004	0.936	0.984	1.007	1.961	3.915	6.940	9.846	10.27	4.564	1.493	0.600	0.679	0.788	0.472	0.693	0.414	0.565	0.510	0.611	0.565	0.407	0.560	0.398	0.463	0.493	0.518	0.549	0.448	0.623	0.614	0.539	0.516	0.579
240.0	79.75	114.8	563.5	 2549	 6097	991.0	85.32	13.58	10.92	10.43	9.170	7.399	8.985	7.689	4.607	4.129	3.411	3.464	3.163	2.449	2.266	2.425	2.825	1.815	1.681	1.686	1.521	1.832	1.794	1.616	1.507	1.082	0.989	1.151	1.074	1.133	1.059	0.898	0.864	0.811	1.012	1.010	0.832	0.980	0.986	1.153	1.005	1.072	1.415	2.273	5.170	11.55	13.74	10.47	3.833	0.957	0.643	0.569	0.671	0.645	0.530	0.540	0.555	0.489	0.408	0.632	0.391	0.493	0.396	0.500	0.465	0.416	0.537	0.598	0.589	0.527	0.609
245.0	50.58	117.6	193.1	689.2	 3987	 6078	781.8	41.69	12.02	13.68	8.083	8.306	10.38	7.040	4.652	4.796	3.713	3.383	2.492	2.578	2.496	2.636	2.508	1.681	2.063	1.799	1.778	1.765	1.608	1.889	1.689	1.217	1.250	1.104	1.330	1.059	1.003	0.918	0.993	0.931	1.008	0.941	0.790	0.973	1.014	1.179	1.349	1.188	0.928	1.075	1.710	4.119	9.266	15.91	15.88	8.618	2.737	0.893	0.757	0.669	0.516	0.600	0.584	0.566	0.543	0.589	0.494	0.594	0.491	0.745	0.491	0.419	0.509	0.636	0.540	0.532	0.518
250.0	38.34	76.24	175.1	265.3	 1050	 3825	 4990	 2684	227.0	20.34	11.61	9.287	9.029	7.281	5.530	4.571	3.824	3.399	3.072	2.949	2.644	2.587	2.648	2.288	1.766	1.726	1.680	1.804	1.434	1.667	1.554	1.247	1.290	1.263	0.964	1.068	1.038	0.935	1.067	0.948	1.001	1.014	1.007	0.967	0.904	1.021	1.095	1.074	1.167	1.280	1.172	1.475	2.664	5.499	8.597	13.64	16.54	15.07	8.347	2.949	0.714	0.610	0.509	0.628	0.637	0.616	0.554	0.508	0.620	0.554	0.515	0.537	0.467	0.525	0.623	0.463	0.519
255.0	33.81	41.12	86.09	262.0	374.7	893.8	 2089	 6811	 4108	383.6	17.09	11.80	9.959	6.640	6.949	5.264	3.885	2.956	3.151	3.150	3.051	2.178	2.287	1.956	1.779	2.180	1.664	1.913	1.171	2.024	1.560	1.431	1.626	1.042	1.094	1.000	1.098	1.124	0.926	1.023	1.033	1.068	0.859	0.923	0.885	0.938	0.797	0.873	0.959	1.157	1.735	1.691	1.393	1.963	2.400	3.826	6.155	14.36	24.67	24.02	12.95	3.196	0.726	0.615	0.595	0.553	0.614	0.595	0.480	0.634	0.497	0.536	0.519	0.577	0.543	0.486	0.570
260.0	38.76	29.31	45.32	170.9	350.9	296.1	527.4	 3471	 8278	 4275	178.9	13.97	11.53	8.336	6.734	6.273	5.078	3.598	3.585	2.996	3.112	2.430	2.323	2.393	1.970	2.419	2.180	2.097	1.526	1.939	1.901	1.590	1.272	1.380	1.246	1.126	0.857	0.928	0.813	1.056	1.050	1.040	1.042	0.881	0.862	1.071	0.742	0.844	0.853	0.840	1.251	1.961	1.903	1.611	1.138	1.466	2.156	4.229	10.92	23.29	31.66	26.90	10.32	1.593	0.798	0.548	0.536	0.569	0.559	0.573	0.545	0.601	0.303	0.507	0.527	0.536	0.546
265.0	37.12	36.19	33.13	77.65	285.5	355.2	177.3	924.0	 4695	9999.9	 2621	79.33	14.54	10.08	8.142	6.729	5.340	4.212	3.940	3.053	2.763	2.533	2.571	2.345	2.165	2.291	1.994	1.724	1.588	1.726	1.669	1.499	1.350	1.327	1.403	1.019	1.190	1.008	0.985	1.173	0.933	1.005	0.899	0.845	0.848	0.859	0.965	0.750	0.890	0.888	0.789	1.063	1.824	2.395	1.856	1.124	1.299	1.621	3.048	7.385	16.90	34.56	39.82	24.23	5.687	0.719	0.657	0.627	0.500	0.535	0.657	0.612	0.561	0.685	0.521	0.459	0.526
270.0	55.69	57.10	45.60	45.99	121.3	327.3	368.7	304.0	 1213	 5912	 8692	 4954	178.6	15.16	10.05	7.980	5.988	4.864	4.250	3.542	3.170	2.841	2.223	2.329	2.340	2.396	1.905	1.709	1.791	1.673	1.671	1.483	1.307	1.237	1.322	1.086	1.155	1.040	1.049	1.034	0.839	1.002	1.069	1.092	1.098	0.952	1.002	0.882	0.999	0.862	0.765	0.908	1.143	1.517	2.025	2.344	2.313	1.477	1.492	2.270	4.545	10.19	19.00	30.10	36.08	33.30	18.65	5.162	0.871	0.641	0.558	0.713	0.602	0.591	0.601	0.450	0.644
275.0	91.35	108.2	84.70	53.33	70.88	124.2	371.7	546.7	382.3	 1431	 3093	9999.9	 7909	226.0	15.67	9.555	8.541	5.400	4.387	4.005	4.186	3.486	2.372	2.502	2.080	2.415	2.055	1.495	1.766	2.063	1.738	1.944	1.437	1.440	1.184	1.122	1.405	1.373	1.173	1.198	1.178	1.649	1.047	1.032	1.277	1.350	1.042	0.955	1.230	1.019	0.750	0.825	0.893	0.961	1.155	1.536	2.438	3.014	2.512	1.830	1.797	3.015	5.085	7.697	11.57	24.73	49.95	49.30	26.11	4.287	0.729	0.598	0.603	0.587	0.574	0.666	0.533
280.0	144.9	152.8	133.2	89.19	71.26	78.58	183.0	647.0	492.1	470.7	862.1	 4154	9999.9	 2517	131.2	12.90	9.527	6.444	5.030	4.658	4.245	3.953	3.380	2.638	2.047	2.518	2.257	2.028	2.266	1.845	1.680	1.904	1.742	1.821	1.088	1.458	1.709	1.629	1.422	1.226	1.360	1.529	1.400	1.392	1.332	1.477	1.478	1.272	1.347	1.029	0.849	0.965	0.785	0.843	0.928	1.085	1.490	2.337	3.793	3.669	1.976	1.916	2.197	2.822	3.480	7.022	18.49	41.73	66.00	45.25	16.69	1.647	0.556	0.606	0.719	0.611	0.670
285.0	209.4	214.5	192.1	134.1	96.21	78.08	113.4	393.9	845.9	434.5	404.0	 1180	 5440	9999.9	 1838	60.93	10.68	8.374	6.202	5.552	4.563	3.815	3.227	3.095	2.085	2.634	2.191	2.337	2.157	1.866	1.797	1.574	1.409	1.804	1.685	1.564	1.658	1.431	1.543	1.415	1.272	1.744	1.711	1.543	1.654	1.353	1.597	1.661	1.451	1.289	1.095	0.902	0.824	0.804	0.738	1.065	1.124	1.427	2.264	3.617	4.329	3.257	1.685	1.925	1.967	2.996	5.312	11.93	30.25	57.83	58.00	34.17	6.814	0.755	0.789	0.592	0.554
290.0	247.3	284.2	279.7	201.2	135.5	113.2	126.0	227.7	563.4	912.5	629.1	588.1	 1554	 4963	9999.9	 5983	106.6	12.35	8.288	6.309	5.715	4.549	4.180	3.205	2.611	2.694	2.345	2.535	2.250	1.833	2.039	1.774	1.862	1.595	1.517	1.750	1.760	1.667	1.708	1.513	1.660	1.758	1.662	1.614	1.771	1.760	1.763	1.679	1.770	1.458	1.160	1.086	1.051	1.106	0.975	0.990	1.174	1.164	1.619	2.049	2.968	4.118	4.141	3.748	2.670	2.675	2.744	4.267	8.266	16.05	26.88	44.32	48.72	48.58	23.11	6.035	0.970
295.0	268.3	324.7	323.2	257.1	196.4	155.5	167.7	227.6	364.2	690.6	 1247	774.2	752.4	 1376	 3030	9999.9	 8164	139.6	12.78	8.434	6.696	5.042	4.635	3.356	3.106	2.630	2.309	2.379	2.022	2.269	2.049	1.759	1.892	1.750	1.631	1.766	1.996	1.888	1.709	1.680	1.821	1.603	1.741	1.844	2.011	1.908	1.974	1.956	1.953	1.858	1.372	1.247	1.219	1.170	1.006	1.078	1.345	1.341	1.531	1.657	2.017	2.683	2.947	5.055	5.971	4.456	2.941	3.332	3.832	5.342	7.458	11.25	14.55	32.08	67.60	57.25	32.82
300.0	281.5	327.8	375.9	294.4	219.5	181.7	193.7	257.7	358.6	528.6	 1125	 1320	708.6	666.1	890.6	 3594	9999.9	 5714	94.59	10.94	7.345	5.274	4.411	3.771	3.566	3.156	2.680	2.190	1.881	2.144	1.845	1.797	1.786	1.718	1.530	1.936	1.909	1.815	1.544	1.879	1.684	1.563	1.591	1.917	2.050	2.081	2.105	1.962	1.955	1.930	1.407	1.247	1.404	1.263	1.186	1.154	1.512	1.571	1.589	1.778	1.924	2.383	2.505	3.431	5.890	7.148	5.526	3.630	3.050	3.223	3.734	3.906	4.533	8.462	23.22	52.49	83.69
305.0	274.5	332.2	385.5	313.0	240.7	209.1	223.2	290.7	384.9	522.1	848.3	 1516	 1100	589.0	469.6	976.0	 4732	9999.9	 1208	54.89	9.551	7.025	5.341	4.663	3.931	3.570	2.781	2.397	2.439	2.359	2.099	2.256	2.048	1.609	1.794	1.869	2.252	2.072	1.737	1.736	1.899	1.874	1.686	2.033	1.908	2.029	1.618	1.965	1.936	1.992	1.593	1.468	1.659	1.580	1.339	1.478	1.708	1.872	1.748	1.721	1.914	2.423	2.482	3.201	3.918	5.112	6.882	6.600	4.470	3.400	2.987	2.741	2.428	3.188	6.527	14.29	36.83
310.0	263.7	355.6	402.4	341.1	278.0	250.3	261.2	330.3	417.9	540.2	756.5	 1085	 1437	 1001	470.9	426.6	 1224	 4457	 8313	 4638	76.48	10.67	7.076	5.285	4.287	3.812	3.308	2.664	2.670	2.806	1.917	2.035	1.811	1.776	1.709	1.579	2.053	2.062	1.912	1.829	1.626	1.793	1.706	1.837	1.980	2.215	1.933	2.203	2.044	1.883	1.427	1.559	1.768	1.533	1.568	1.560	1.863	1.783	1.865	1.925	2.216	2.440	2.824	3.196	3.335	3.895	5.082	6.028	6.782	5.685	4.327	2.996	2.330	2.271	2.878	4.468	9.461
315.0	268.1	372.3	440.0	363.5	300.3	283.8	290.9	359.2	453.1	587.7	752.1	930.1	 1069	 1359	826.9	376.9	447.4	 1115	 2464	 9089	 6623	105.1	9.713	6.661	5.350	4.369	3.714	3.684	3.073	2.619	2.025	2.275	1.899	1.608	1.657	2.255	1.967	1.874	2.222	1.738	1.829	1.652	2.002	1.611	1.624	2.228	2.026	2.134	2.281	1.741	1.501	1.773	1.679	1.694	1.311	1.656	1.898	2.106	2.202	2.141	2.607	2.862	2.703	3.349	3.243	3.754	3.780	4.576	5.113	5.915	6.849	5.996	3.527	2.898	2.060	2.657	3.536
320.0	272.8	415.8	505.5	405.0	322.5	293.5	319.1	382.7	485.1	617.5	788.5	914.0	966.7	 1135	 1230	537.9	321.3	400.6	655.1	 3274	9999.9	 4914	69.43	8.734	6.136	4.760	4.029	3.668	2.897	3.060	2.553	2.002	2.125	1.597	2.124	1.789	1.776	1.742	1.910	1.752	1.825	1.661	1.783	1.707	1.769	2.348	2.273	2.492	2.640	1.840	1.714	1.705	1.799	1.689	1.607	1.659	2.200	1.851	2.009	2.545	2.698	2.746	3.093	3.352	3.469	3.650	4.803	4.283	4.278	4.821	5.285	7.116	6.379	3.816	2.489	2.536	2.513
325.0	290.1	480.7	599.0	524.4	374.1	321.4	340.0	409.4	509.2	643.1	829.1	953.1	973.6	981.9	 1177	918.8	370.2	281.4	282.7	842.1	 4685	9999.9	909.3	40.72	9.089	6.007	4.641	3.931	2.957	2.521	2.703	2.091	2.156	1.955	1.700	1.988	1.913	1.931	2.087	1.997	1.895	1.714	1.928	2.022	1.939	2.409	2.314	2.761	2.667	2.192	2.025	1.963	1.774	1.839	1.726	1.914	1.942	2.127	2.387	2.535	2.540	2.757	3.026	3.203	3.736	4.030	4.434	4.456	4.219	4.363	4.811	5.063	7.118	5.860	3.918	3.097	2.121
330.0	312.5	507.1	686.4	625.1	462.2	363.4	367.5	446.8	545.3	679.6	847.5	960.1	 1026	967.7	947.3	979.9	740.3	357.0	244.2	319.4	 1176	 4341	 7869	 3653	60.18	9.516	5.879	4.732	3.746	3.470	3.185	2.365	2.303	2.048	1.863	1.972	2.145	1.739	1.781	2.001	1.899	1.834	1.875	1.823	2.175	2.371	2.639	2.795	3.186	2.762	2.356	2.356	2.096	1.992	1.869	2.059	2.089	2.098	2.293	2.517	2.780	2.942	3.156	3.393	3.755	3.854	4.211	4.561	4.376	4.502	4.688	4.338	4.959	4.972	5.143	5.129	4.337
335.0	320.4	499.3	750.8	699.2	564.7	440.9	440.6	476.4	584.7	688.2	862.4	973.4	 1050	 1006	897.6	784.4	861.4	673.8	317.5	253.1	389.0	 1067	 2449	 8437	 5381	81.74	9.712	6.465	4.783	4.043	3.297	2.736	2.520	2.444	1.766	1.887	2.033	2.161	2.108	1.863	1.888	2.005	2.332	1.925	2.115	2.851	2.939	3.097	3.479	2.806	2.698	2.557	2.383	2.202	2.038	2.141	2.432	2.518	2.550	2.585	2.910	3.145	3.335	3.475	3.945	4.095	4.241	4.436	4.550	4.817	4.503	4.764	4.306	4.441	3.951	4.599	5.636
340.0	325.5	537.1	744.2	772.6	612.1	493.8	482.2	535.9	616.4	722.2	880.1	981.3	 1050	 1043	920.2	762.4	719.1	845.5	499.5	280.8	252.7	364.3	645.8	 3325	 9934	 4027	59.23	8.530	5.974	4.160	2.877	3.006	2.593	2.571	1.857	1.806	1.851	2.038	1.934	2.077	1.421	1.909	1.916	2.198	2.308	2.976	2.495	2.959	3.508	3.169	2.909	2.904	2.752	2.504	2.112	2.343	2.427	2.451	2.859	2.828	2.888	2.789	3.412	3.892	4.193	4.217	4.109	3.989	4.768	4.535	4.610	5.092	4.496	4.332	3.907	3.672	4.272
345.0	337.1	496.0	746.6	781.6	681.4	552.0	542.6	581.7	641.0	770.4	898.2	 1007	 1058	 1064	949.3	778.4	665.9	742.8	749.0	382.0	269.8	244.0	270.1	857.3	 4879	 9825	752.1	33.92	7.422	5.613	4.182	3.685	2.847	2.307	1.982	1.942	2.103	2.119	1.990	2.251	1.559	1.747	2.012	1.970	2.164	2.711	2.720	2.948	3.093	3.029	2.926	2.960	2.679	2.875	2.662	2.738	2.698	2.611	2.766	2.644	3.042	2.786	3.538	3.621	3.860	4.229	4.208	4.370	4.918	4.668	5.073	4.957	4.894	4.876	4.243	3.806	3.822
350.0	327.9	507.6	734.4	804.1	764.5	669.3	648.1	675.7	719.5	821.4	923.6	 1011	 1073	 1072	991.3	827.8	700.6	637.8	728.2	658.3	387.4	279.9	238.2	325.2	 1236	 4498	 7200	 3080	51.75	8.676	5.334	4.345	3.255	2.423	2.204	1.975	1.998	2.006	2.036	2.070	1.859	1.891	1.867	1.979	2.160	2.296	2.478	3.032	3.075	3.100	2.913	3.082	3.115	2.956	3.065	3.144	3.095	3.139	3.232	3.251	3.235	3.576	3.454	3.964	4.380	4.364	4.301	4.609	4.854	4.803	5.100	4.736	5.000	4.366	4.508	4.185	4.355
355.0	305.4	481.3	706.1	791.0	823.1	797.9	787.2	818.9	877.1	941.8	 1025	 1066	 1108	 1106	 1030	887.1	771.0	675.9	637.0	707.9	678.9	395.9	294.4	266.4	419.5	 1104	 2454	 7979	 4543	70.18	9.047	5.585	3.612	3.234	2.508	2.174	1.874	2.114	1.930	2.325	1.859	1.999	1.758	2.191	2.269	2.165	2.656	3.107	2.870	2.973	2.859	3.376	3.349	3.544	3.582	3.659	3.528	3.708	3.624	3.586	3.922	3.978	4.094	4.369	4.692	4.666	4.453	4.849	5.031	5.311	4.945	4.760	5.440	4.777	4.597	4.720	4.766
360.0	309.0	464.0	677.8	806.5	855.6	886.4	871.3	902.6	960.2	 1025	 1088	 1126	 1149	 1127	 1065	929.6	816.4	724.8	660.1	647.5	767.6	580.4	359.2	289.5	275.7	372.5	651.9	 3472	 9233	 3296	48.02	7.755	5.005	3.540	2.735	2.204	2.345	2.269	2.129	1.810	2.135	1.917	1.797	2.200	2.362	2.468	2.486	3.135	3.185	3.163	3.002	3.206	3.391	3.612	3.632	3.561	3.510	4.062	4.072	3.946	4.378	4.573	4.628	4.672	4.443	4.785	4.629	5.225	5.101	5.311	5.129	5.331	4.892	4.931	5.095	5.137	4.960
365.0	300.4	458.7	672.8	808.5	917.3	934.7	954.1	978.2	 1045	 1110	 1168	 1165	 1176	 1156	 1077	970.2	868.2	768.4	692.3	648.1	702.9	748.0	479.1	341.3	284.0	249.1	260.5	897.8	 5070	 8990	651.5	25.34	6.538	4.156	3.416	2.832	2.587	2.267	2.030	1.979	2.136	1.955	2.115	1.982	2.118	2.674	2.732	2.802	3.065	3.122	2.991	3.541	3.586	3.904	3.692	3.918	3.593	4.159	4.425	3.993	4.723	4.664	5.038	4.785	5.153	5.026	5.277	5.101	5.429	4.989	5.309	5.185	4.991	4.647	5.186	4.770	5.032
370.0	294.7	458.3	679.8	801.0	949.7	990.0	 1026	 1061	 1116	 1196	 1223	 1209	 1213	 1173	 1098	 1001	914.2	828.4	756.9	705.6	681.1	724.0	701.2	479.1	349.0	278.7	220.4	318.2	 1286	 4559	 5986	 2673	41.66	6.696	4.305	3.248	3.343	2.355	2.312	2.486	2.352	1.871	2.041	2.161	2.271	2.504	2.483	2.975	2.964	2.901	3.105	3.611	3.968	3.689	3.767	4.181	4.276	4.365	4.817	4.397	4.484	4.804	4.987	5.168	4.984	5.117	5.287	5.194	5.033	5.087	5.256	5.401	5.401	5.232	5.558	5.193	5.189
375.0	303.6	469.4	665.7	816.4	977.3	 1035	 1091	 1123	 1176	 1261	 1302	 1273	 1238	 1174	 1114	 1015	951.1	874.1	822.9	766.2	727.6	696.7	729.1	711.3	482.6	357.1	277.7	237.1	403.7	 1098	 2416	 8208	 3829	52.11	6.532	4.334	3.485	2.768	2.337	2.218	2.328	2.089	2.346	2.438	2.167	2.581	2.341	2.447	2.791	2.974	3.094	3.915	3.716	3.978	4.329	4.067	4.220	4.368	4.426	4.737	4.924	5.209	5.181	5.242	5.406	5.481	5.129	5.737	5.423	5.354	5.324	5.456	5.773	5.461	5.561	5.418	5.529
380.0	299.9	461.9	653.1	810.3	 1003	 1078	 1153	 1145	 1203	 1264	 1321	 1298	 1268	 1193	 1107	 1026	969.7	905.7	854.6	807.5	769.5	722.0	700.5	765.3	642.4	435.7	335.6	257.6	236.1	346.2	628.2	 3890	 8999	 2529	32.74	5.777	4.188	3.394	2.729	2.580	2.174	2.394	2.335	2.540	2.356	2.533	2.439	2.455	3.083	2.766	3.198	3.660	4.014	3.817	4.301	4.496	4.590	4.569	4.498	4.716	5.219	5.091	5.358	5.308	5.604	5.431	5.315	5.125	5.059	5.560	5.339	5.492	5.169	5.481	5.522	5.880	5.313
385.0	292.1	431.5	625.2	818.1	980.9	 1102	 1135	 1159	 1219	 1285	 1328	 1304	 1258	 1172	 1114	 1037	969.1	915.7	868.0	838.6	788.4	748.6	706.2	719.5	754.9	551.4	382.8	302.4	229.1	203.6	226.8	 1000	 5416	 7510	498.7	15.54	5.383	3.880	3.347	2.543	2.114	2.331	2.232	2.245	2.104	2.534	2.266	2.786	3.002	2.639	2.919	3.934	3.723	4.141	4.095	4.133	4.649	4.358	4.891	4.701	5.147	5.414	5.460	5.270	5.388	4.857	5.410	5.480	5.720	5.894	5.485	5.007	5.331	5.357	5.617	5.805	5.573
390.0	295.4	425.5	620.9	789.1	967.9	 1073	 1150	 1178	 1207	 1281	 1295	 1293	 1234	 1162	 1095	 1020	960.5	937.7	892.5	852.3	819.6	783.1	728.5	696.4	717.9	692.9	505.5	359.2	275.4	213.4	170.5	306.8	 1379	 4124	 4929	 1847	32.11	6.479	4.141	2.998	2.385	2.495	2.495	2.447	2.304	2.630	2.297	2.815	2.900	2.727	3.007	3.691	3.700	4.078	4.211	4.348	4.898	4.888	4.593	4.766	5.052	5.066	5.449	5.111	5.324	4.983	5.331	5.171	5.721	5.757	5.179	5.028	5.454	5.521	5.066	5.796	5.792
395.0	273.5	423.7	621.8	776.0	943.9	 1036	 1126	 1150	 1212	 1224	 1247	 1273	 1207	 1140	 1077	 1003	951.1	935.1	889.5	870.3	838.3	803.6	757.2	716.3	691.7	677.3	658.3	462.1	332.2	261.4	194.2	181.5	386.9	975.0	 2114	 6382	 2833	41.45	6.339	4.437	3.724	2.737	2.663	2.591	2.569	2.597	2.593	2.573	2.967	2.615	2.737	3.588	3.980	4.472	4.011	4.111	4.716	4.735	4.605	5.171	5.165	5.473	5.206	5.211	4.729	4.887	5.410	5.172	5.772	5.867	5.104	4.968	5.234	5.341	4.930	6.126	5.952
400.0	264.2	390.5	599.2	705.5	922.3	 1012	 1088	 1132	 1216	 1200	 1243	 1234	 1191	 1101	 1049	987.8	934.5	910.6	904.7	858.9	836.7	812.8	772.1	736.0	690.2	648.7	679.5	575.2	385.2	297.8	227.7	176.0	184.7	284.8	542.8	 3204	 6563	498.3	25.23	5.524	3.778	3.247	2.674	2.409	2.411	2.377	2.306	2.820	2.862	2.578	2.651	3.411	3.465	3.861	4.174	4.182	4.509	5.072	4.815	4.886	5.275	5.039	4.889	5.319	4.835	4.938	4.984	4.928	5.055	5.649	4.914	5.353	5.629	5.467	4.979	5.874	5.927
405.0	279.1	373.6	576.0	729.9	911.0	 1015	 1067	 1084	 1178	 1188	 1211	 1187	 1152	 1106	 1038	973.8	922.4	914.9	885.5	853.5	837.6	809.4	779.4	730.7	702.1	646.0	632.7	647.9	472.4	331.0	262.0	200.7	159.3	148.8	183.8	832.6	 4129	 5422	413.1	12.00	4.763	3.503	3.014	2.793	2.353	2.423	2.165	2.664	2.953	2.663	2.843	3.388	3.783	3.654	3.795	4.294	4.180	4.972	4.549	5.125	4.868	4.852	4.924	5.442	4.590	4.984	4.666	4.977	5.089	5.420	4.911	4.938	4.884	5.221	5.034	5.327	5.788
410.0	256.8	393.7	564.1	697.1	857.4	985.9	 1050	 1093	 1128	 1168	 1160	 1155	 1105	 1049	 1001	932.3	895.0	879.8	850.7	832.0	815.9	796.8	763.6	730.5	694.1	649.9	599.3	600.5	570.3	419.8	307.3	236.4	181.8	142.2	120.8	242.3	 1061	 3224	 4056	 1522	26.82	4.600	3.691	3.020	2.729	2.651	2.352	2.695	2.863	2.543	2.745	3.423	3.346	3.792	3.739	3.916	4.446	4.571	4.550	4.753	4.909	4.864	4.879	4.999	4.809	5.268	4.550	5.041	4.943	5.117	4.901	4.678	4.720	4.799	5.218	5.137	5.645
