Sample:	'1
File name:	S2025080905»ÆºÓÂ·ÇÅ.FD3
Run date:	'15:13:53, 08/10/2025
Operator:	Administrator
Comment:	'

Instrument
Model:	F-2700 FL Spectrophotometer
Serial number:	3064-004
ROM Version:	4J14000 07

Instrument parameters
Measurement type:	3-D scan
Data mode:	Fluorescence
EX  Start WL:	220.0 nm
EX  End WL:	600.0 nm
EX Sampling interval:	5.0 nm
EM  Start WL:	230.0 nm
EM  End WL:	650.0 nm
EM Sampling interval:	5.0 nm
Scan speed:	12000 nm/min
EX Slit:	5.0 nm
EM Slit:	5.0 nm
PMT Voltage:	700 V
Response:	Auto 
Corrected spectra:	Off
Contour interval:	50.000

Peak integration
Integration method:	Rectangular
Sensitivity:	1
Threshold:	1.000

Peaks
No.	ApexEX/EM(nm)	Height(Data)
1	230.0/580.0	70.06
2	230.0/605.0	65.21
3	235.0/350.0	 1239
4	235.0/595.0	65.36
5	235.0/625.0	55.27
6	240.0/520.0	252.2
7	245.0/265.0	324.3
8	245.0/380.0	 1361
9	245.0/530.0	234.2
10	250.0/545.0	225.6
11	255.0/280.0	672.2
12	255.0/555.0	206.3
13	260.0/285.0	926.0
14	260.0/570.0	181.0
15	265.0/290.0	 1132
16	265.0/580.0	181.9
17	270.0/295.0	 1577
18	270.0/590.0	171.0
19	275.0/305.0	 1919
20	275.0/605.0	169.0
21	280.0/310.0	 1801
22	280.0/335.0	 1559
23	280.0/345.0	 1556
24	280.0/360.0	 1580
25	280.0/375.0	 1573
26	280.0/615.0	129.4
27	285.0/315.0	 1671
28	285.0/630.0	97.53
29	290.0/645.0	82.62
30	305.0/340.0	 1045
31	315.0/355.0	888.1
32	320.0/360.0	950.9
33	325.0/365.0	926.4
34	335.0/380.0	962.3
35	340.0/385.0	939.7
36	430.0/505.0	86.88
37	445.0/525.0	51.71
38	460.0/340.0	5.231
39	505.0/275.0	3.513
40	520.0/285.0	4.874
41	530.0/290.0	5.440
42	540.0/295.0	7.186
43	545.0/300.0	7.460
44	550.0/305.0	8.555
45	560.0/310.0	8.279
46	565.0/315.0	7.819
47	575.0/320.0	7.635
48	585.0/325.0	8.051
49	590.0/330.0	6.913

Data points
	220.0	225.0	230.0	235.0	240.0	245.0	250.0	255.0	260.0	265.0	270.0	275.0	280.0	285.0	290.0	295.0	300.0	305.0	310.0	315.0	320.0	325.0	330.0	335.0	340.0	345.0	350.0	355.0	360.0	365.0	370.0	375.0	380.0	385.0	390.0	395.0	400.0	405.0	410.0	415.0	420.0	425.0	430.0	435.0	440.0	445.0	450.0	455.0	460.0	465.0	470.0	475.0	480.0	485.0	490.0	495.0	500.0	505.0	510.0	515.0	520.0	525.0	530.0	535.0	540.0	545.0	550.0	555.0	560.0	565.0	570.0	575.0	580.0	585.0	590.0	595.0	600.0
230.0	35.39	984.9	 5209	 2683	112.5	14.00	9.747	10.31	7.858	6.866	8.568	6.706	6.391	5.648	5.030	4.748	4.449	4.117	3.821	3.699	3.252	3.076	2.993	2.740	2.685	2.733	2.624	2.350	2.226	2.199	2.228	2.112	1.895	1.705	1.688	1.645	1.474	1.393	1.402	1.235	1.296	1.293	1.147	1.139	0.976	1.114	1.956	5.549	9.437	8.203	3.740	1.064	0.745	0.738	0.730	0.719	0.727	0.648	0.643	0.537	0.545	0.607	0.578	0.600	0.581	0.505	0.521	0.505	0.474	0.459	0.531	0.470	0.484	0.443	0.388	0.504	0.412
235.0	53.63	261.9	 2180	 5462	 1123	162.4	12.81	10.32	7.852	7.364	9.495	7.926	8.117	5.958	4.863	5.151	4.813	4.475	3.912	3.864	3.391	3.101	2.970	2.972	2.925	2.644	2.661	2.441	2.726	2.746	2.264	2.054	1.764	1.774	1.903	1.609	1.285	1.723	1.452	1.285	1.345	1.121	1.010	1.465	1.104	1.204	1.358	2.185	3.661	6.893	9.743	10.75	4.844	1.709	0.720	0.830	0.740	0.756	0.714	0.539	0.720	0.613	0.574	0.566	0.655	0.506	0.434	0.462	0.458	0.404	0.465	0.457	0.411	0.459	0.422	0.618	0.458
240.0	59.34	124.8	549.5	 3114	 4556	963.2	90.86	14.84	10.63	6.696	8.910	8.357	8.188	6.918	5.232	4.433	5.201	3.742	4.015	3.220	3.975	3.235	2.927	3.149	2.672	2.446	2.137	2.772	2.566	2.255	2.048	2.036	1.853	1.697	1.798	1.562	1.491	1.653	1.507	1.465	1.007	1.290	0.975	1.326	1.266	1.119	1.343	1.360	1.532	2.486	5.425	12.18	15.85	11.62	3.989	1.266	0.698	0.879	0.649	0.514	0.686	0.615	0.490	0.509	0.559	0.486	0.484	0.517	0.464	0.480	0.501	0.349	0.484	0.388	0.417	0.597	0.514
245.0	47.75	110.3	193.6	824.3	 3134	 4988	790.3	49.37	12.13	10.44	9.461	7.742	7.158	6.187	6.362	5.201	4.880	4.768	4.655	3.668	3.534	3.200	3.337	3.233	2.628	2.325	2.521	2.836	2.227	2.266	2.319	1.914	1.805	1.845	1.761	1.824	1.451	1.481	1.268	1.346	1.150	1.107	1.158	1.048	1.117	1.278	1.422	1.344	1.133	1.187	2.139	4.221	10.71	16.79	17.21	10.07	3.245	0.885	0.807	0.686	0.715	0.605	0.510	0.627	0.637	0.560	0.477	0.477	0.450	0.416	0.404	0.386	0.608	0.301	0.360	0.651	0.554
250.0	39.76	75.07	171.2	286.0	830.9	 2947	 5067	 2839	236.9	15.72	13.02	10.04	8.137	7.640	6.836	5.421	6.199	4.765	4.913	3.886	3.737	3.727	3.565	3.224	3.240	2.733	2.526	2.832	2.628	2.515	2.524	2.127	2.050	1.728	1.636	1.668	1.527	1.864	1.466	1.455	1.147	1.386	1.267	1.204	1.161	1.116	1.100	1.274	1.521	1.416	1.341	1.672	3.068	5.572	10.25	16.08	20.51	17.28	10.19	3.549	0.901	0.604	0.514	0.588	0.527	0.654	0.536	0.496	0.449	0.512	0.441	0.395	0.528	0.464	0.443	0.535	0.529
255.0	37.37	41.04	103.0	260.5	319.9	691.3	 2147	 7510	 4399	321.9	15.09	13.37	9.917	9.765	7.444	7.377	6.056	5.348	5.278	3.553	4.739	3.878	3.588	3.520	3.285	3.261	2.729	2.830	2.779	2.588	2.633	2.266	2.220	2.077	2.046	1.565	1.563	1.602	1.510	1.506	1.402	1.250	1.258	1.313	1.297	1.149	1.118	1.082	1.067	1.281	1.668	1.933	1.629	1.768	2.850	4.288	7.698	17.32	30.15	33.71	17.72	3.936	0.781	0.844	0.530	0.633	0.559	0.653	0.525	0.511	0.563	0.593	0.597	0.576	0.482	0.511	0.530
260.0	36.20	31.08	56.61	152.0	331.7	252.8	544.1	 3705	 9937	 3761	203.0	19.05	11.82	12.27	8.317	6.090	5.902	5.529	4.750	3.900	4.914	4.557	3.843	3.507	3.465	3.230	2.855	3.095	3.184	2.938	2.768	2.169	2.389	1.853	1.796	1.568	1.620	1.519	1.354	1.368	1.541	1.284	1.260	1.345	1.386	0.955	1.172	0.979	0.889	1.031	1.220	1.912	2.081	1.521	1.512	1.688	2.426	4.916	13.22	30.24	44.07	36.00	13.54	2.088	0.612	0.621	0.501	0.528	0.610	0.677	0.513	0.474	0.524	0.412	0.404	0.458	0.464
265.0	56.29	32.65	38.92	65.78	260.0	324.3	176.8	961.0	 5685	9999.9	 3045	95.64	15.47	14.99	9.600	7.222	6.237	5.190	5.373	4.533	4.743	4.533	3.743	3.406	3.303	3.532	3.337	2.980	3.362	2.657	2.771	2.195	2.688	1.631	1.704	1.873	1.507	1.638	1.255	1.551	1.607	1.242	1.492	1.401	1.278	1.014	1.064	0.970	1.026	0.952	1.009	1.310	1.836	2.334	2.043	1.221	1.313	1.705	3.713	9.025	22.89	45.43	51.97	33.32	8.456	1.147	0.628	0.508	0.726	0.588	0.611	0.513	0.509	0.595	0.506	0.460	0.420
270.0	79.23	52.13	48.31	45.21	102.1	303.4	359.6	326.3	 1482	 5523	9999.9	 8085	192.1	21.57	12.55	10.74	7.991	6.790	5.738	5.502	4.902	4.767	4.326	3.650	2.977	3.551	3.283	3.103	3.446	2.975	2.922	2.673	2.172	2.097	2.111	1.772	1.751	1.839	1.336	1.509	1.443	1.376	1.342	1.529	1.375	1.471	1.243	1.180	1.073	1.016	0.893	1.031	0.975	1.555	2.102	2.434	2.193	1.681	1.688	2.795	6.081	13.41	25.89	43.15	49.15	51.68	23.58	8.090	1.141	0.580	0.632	0.633	0.511	0.495	0.639	0.394	0.589
275.0	145.7	105.6	89.31	65.02	65.40	123.2	381.8	573.6	506.7	 1398	 3840	9999.9	9999.9	248.8	21.61	13.85	10.17	8.897	6.754	6.342	5.793	4.506	4.432	4.300	3.693	3.654	3.297	3.764	3.395	2.947	3.017	2.317	2.447	2.731	2.392	1.786	1.842	1.557	1.574	1.576	1.519	1.432	1.515	1.422	1.697	1.473	1.224	1.252	1.383	1.173	0.970	1.126	0.726	1.036	1.383	1.521	2.708	3.513	2.998	2.109	2.329	3.910	6.815	10.81	16.06	38.78	76.86	54.48	35.58	7.284	0.794	0.620	0.597	0.532	0.509	0.460	0.649
280.0	221.9	202.5	162.7	130.4	80.80	90.67	220.6	672.2	572.3	537.6	 1140	 5050	9999.9	 9662	158.5	20.10	15.07	11.52	8.870	6.617	6.633	5.411	4.902	4.163	4.283	4.084	4.000	3.685	3.526	3.446	3.017	2.849	2.880	2.510	2.172	2.171	1.733	1.710	1.622	1.788	1.595	1.753	1.666	1.929	1.963	1.811	1.662	1.588	1.570	1.330	1.158	1.221	0.983	1.098	1.008	1.235	1.803	2.680	3.722	3.781	2.458	2.254	2.922	3.777	5.231	10.92	29.09	62.81	104.6	52.56	23.70	2.584	0.685	0.612	0.644	0.552	0.712
285.0	451.3	293.3	238.6	196.3	128.0	107.8	158.7	444.2	926.0	566.3	615.7	 1524	 7272	9999.9	 2073	97.59	19.17	12.52	10.88	7.679	7.446	5.896	5.876	3.907	4.223	4.504	4.036	3.802	3.916	4.154	3.135	3.020	2.730	2.653	2.322	2.469	1.943	1.622	2.011	1.764	1.547	1.629	1.705	2.007	2.021	2.068	1.709	2.142	1.882	1.558	1.440	1.426	1.223	1.282	1.065	1.248	1.413	1.644	2.538	4.263	4.874	3.177	2.821	2.971	2.899	4.009	8.262	18.33	47.32	93.33	118.5	43.37	12.13	0.974	0.781	0.671	0.692
290.0	361.8	402.5	417.6	337.6	243.2	179.1	205.1	322.1	704.9	 1132	870.6	880.7	 2153	 6684	9999.9	 7928	124.5	21.25	12.76	9.775	8.463	6.700	6.042	5.687	4.598	4.466	4.030	4.289	3.559	4.031	3.428	3.333	2.945	2.664	2.678	2.288	2.306	1.917	2.023	1.931	1.910	1.981	2.071	2.262	2.186	2.240	2.206	2.515	2.230	2.084	1.977	1.858	1.679	1.530	1.348	1.407	1.506	1.772	2.174	2.497	3.578	4.701	5.440	4.725	3.764	3.602	4.401	6.471	12.73	26.20	50.27	74.32	72.97	85.15	28.14	11.28	1.215
295.0	380.9	492.2	547.7	487.3	355.7	281.6	268.9	350.3	551.5	960.7	 1577	 1110	 1097	 1909	 3570	9999.9	9999.9	157.9	21.45	14.60	11.34	8.497	6.942	6.698	5.350	5.171	4.835	4.444	4.211	4.606	3.740	3.940	3.287	2.973	2.609	2.618	2.417	2.479	2.064	2.158	1.972	1.906	1.908	2.393	2.548	2.808	2.620	2.875	2.520	2.554	2.074	2.689	1.887	1.851	1.688	1.727	2.136	1.991	2.044	2.331	2.884	3.410	4.392	5.828	7.186	5.662	4.536	5.138	5.794	8.356	13.08	18.32	22.56	60.65	126.3	143.5	43.19
300.0	351.6	524.2	607.0	571.3	400.0	309.1	336.8	393.5	560.7	825.8	 1503	 1711	 1055	948.9	 1107	 4727	9999.9	 8833	115.1	19.17	14.95	11.10	8.028	7.091	6.564	5.680	5.572	4.571	3.984	4.344	4.274	3.352	3.135	3.224	2.673	2.724	2.317	2.606	2.368	2.081	2.022	2.212	2.217	2.722	2.387	2.879	2.947	2.994	3.026	2.672	2.333	2.745	2.464	2.109	2.170	1.689	2.074	2.275	2.473	2.745	2.792	3.106	3.803	4.540	6.596	7.460	7.366	5.686	4.664	4.909	5.436	6.398	6.581	15.85	43.23	109.4	164.8
305.0	378.1	542.3	671.0	646.0	481.6	369.8	382.6	440.6	603.9	814.3	 1244	 1919	 1465	853.8	616.2	 1305	 7179	9999.9	 6410	75.76	17.48	12.75	10.52	8.230	6.688	6.449	5.641	4.976	4.404	4.060	4.567	3.815	3.252	3.429	2.672	2.797	2.618	2.605	2.544	2.373	2.410	2.314	2.476	2.737	2.539	2.946	2.981	3.267	3.528	2.952	2.720	2.544	3.049	2.203	2.580	2.015	2.382	2.175	2.552	2.939	2.770	3.284	3.989	4.539	5.141	6.646	8.555	8.447	5.933	4.512	4.221	3.878	3.232	5.022	11.07	28.60	72.95
310.0	382.8	524.1	682.4	662.1	503.8	420.4	428.8	504.5	639.5	836.1	 1122	 1486	 1801	 1291	634.5	574.6	 1853	 6960	9999.9	9999.9	429.0	20.53	14.72	10.61	7.747	7.258	6.354	5.591	4.942	4.413	5.122	4.125	3.850	3.314	2.936	2.531	2.890	2.499	2.550	2.260	2.257	2.404	2.151	2.500	2.499	2.740	3.035	3.220	3.126	2.978	2.944	2.726	2.856	2.405	2.376	2.234	2.315	2.440	3.291	3.168	3.299	3.280	4.107	4.444	5.123	5.490	6.455	7.383	8.279	7.504	5.652	3.967	3.320	2.842	4.173	7.928	17.93
315.0	375.5	551.9	700.2	668.1	534.6	455.6	468.6	543.0	685.1	876.0	 1104	 1317	 1477	 1671	 1020	519.2	669.6	 1725	 3545	9999.9	 8423	117.9	20.43	16.07	10.19	9.741	7.930	6.321	6.594	4.671	5.257	4.296	3.987	3.532	3.595	2.753	2.881	2.415	2.629	2.310	2.243	2.639	2.572	2.406	2.351	3.035	3.316	3.127	3.155	3.002	2.903	2.730	2.724	2.851	2.380	2.483	2.062	2.760	3.018	3.305	3.689	3.382	4.263	4.471	5.197	5.618	5.412	5.906	6.565	7.819	7.782	7.291	4.216	3.111	3.367	4.027	5.769
320.0	411.4	614.7	804.3	741.1	590.6	476.1	494.3	574.9	722.7	894.1	 1144	 1343	 1395	 1501	 1493	714.6	466.0	603.8	951.0	 5098	9999.9	 7083	89.63	19.37	14.02	10.76	8.830	7.222	6.832	5.666	5.169	4.721	3.993	3.835	3.459	2.838	3.116	3.166	2.777	2.240	2.304	2.508	2.529	2.650	2.867	3.558	3.211	3.511	3.788	3.317	2.971	3.080	2.803	2.370	2.505	2.623	2.393	3.057	3.105	3.501	3.652	3.708	4.168	4.477	5.354	5.243	5.533	6.149	6.425	6.096	6.697	7.635	7.157	4.896	3.778	3.403	3.599
325.0	406.0	695.6	924.3	865.2	652.3	512.5	524.5	622.2	768.3	928.3	 1196	 1384	 1447	 1391	 1470	 1108	533.6	409.3	405.5	 1324	 8256	9999.9	 5389	64.70	17.51	13.24	9.802	8.507	7.616	5.865	6.031	4.983	4.777	3.613	3.806	3.278	3.286	3.188	2.718	2.581	2.330	2.490	2.393	2.973	3.181	3.367	3.391	4.061	4.206	3.760	3.534	3.498	3.091	3.020	2.900	2.747	2.692	3.278	2.996	3.428	3.672	3.666	4.342	4.768	5.432	5.843	5.826	6.318	6.679	5.789	5.414	6.325	7.632	8.051	5.648	3.854	3.658
330.0	426.8	711.1	 1043	 1016	776.6	596.1	580.6	655.1	795.1	975.0	 1219	 1426	 1481	 1430	 1280	 1216	917.6	500.6	354.2	482.8	 2067	 7703	9999.9	9999.9	356.1	20.38	14.25	10.99	8.929	7.488	6.549	5.239	4.892	4.150	3.815	3.518	3.249	2.877	2.790	2.849	2.404	2.796	2.618	2.787	3.048	3.500	3.712	4.628	4.507	4.109	3.663	3.668	3.732	3.521	3.015	3.229	3.051	3.069	3.433	3.588	4.068	3.856	4.392	4.880	5.701	6.161	6.034	6.728	6.852	6.775	5.885	5.853	6.236	6.898	6.913	6.333	5.111
335.0	432.8	753.3	 1095	 1102	921.2	695.9	668.9	702.2	837.0	998.5	 1249	 1449	 1559	 1494	 1269	 1070	 1081	846.4	448.9	363.6	653.6	 1863	 4016	9999.9	9999.9	95.41	22.08	14.25	11.43	8.950	7.893	6.427	5.944	4.542	3.873	3.711	3.156	3.378	2.847	2.813	2.581	2.608	2.589	2.678	3.200	3.995	3.924	4.326	4.977	4.409	3.820	4.180	3.973	3.239	3.337	3.313	3.102	3.257	3.645	3.396	4.335	3.860	4.424	4.781	5.502	6.197	6.613	6.125	6.970	6.561	6.850	6.374	5.914	6.108	5.252	5.762	6.262
340.0	451.1	745.5	 1125	 1176	988.3	812.6	727.6	775.7	864.5	 1050	 1268	 1464	 1544	 1531	 1314	 1072	956.1	 1045	639.2	389.2	386.0	596.7	 1053	 6335	9999.9	 5859	77.02	21.12	13.63	10.61	9.201	6.934	6.522	5.537	4.149	4.041	3.658	3.152	3.094	3.136	2.785	3.318	2.763	2.969	3.301	4.046	3.945	4.714	5.231	4.720	4.015	4.756	4.258	3.726	3.873	3.669	3.566	3.734	3.597	3.875	4.386	4.315	4.482	5.156	5.177	6.191	5.902	6.638	6.595	6.466	7.014	6.054	6.635	6.243	5.913	5.325	6.005
345.0	425.4	727.5	 1129	 1239	 1080	888.0	808.1	813.9	892.6	 1080	 1292	 1467	 1556	 1529	 1360	 1109	920.3	963.9	907.3	513.4	379.4	366.9	407.4	 1624	9999.9	9999.9	 4676	56.57	17.56	12.79	11.40	7.784	7.044	5.836	4.892	4.335	3.810	3.373	3.247	2.708	3.232	2.853	2.557	2.753	3.278	3.848	4.201	4.934	4.664	4.853	4.456	4.870	4.738	4.228	4.261	3.655	3.534	3.831	3.746	4.137	4.659	4.244	4.439	5.457	5.504	6.032	6.350	6.590	6.770	6.465	7.020	6.138	7.060	5.819	6.487	5.792	5.128
350.0	402.2	697.1	 1062	 1239	 1136	 1011	928.6	919.6	 1003	 1144	 1314	 1473	 1546	 1526	 1387	 1158	956.7	870.9	896.5	807.3	518.6	395.9	336.3	553.1	 2521	 9402	9999.9	9999.9	311.4	20.55	15.13	10.33	8.089	6.300	5.514	5.224	4.182	3.588	3.465	3.148	2.835	2.850	2.696	2.732	3.133	3.457	3.938	4.663	4.492	4.948	4.579	4.812	5.006	4.366	4.432	4.405	4.272	4.245	4.428	4.420	4.496	4.552	5.097	5.449	5.560	6.004	6.188	6.457	6.443	6.930	6.764	6.685	6.768	6.123	6.181	5.745	5.816
355.0	405.6	688.3	 1006	 1212	 1184	 1098	 1066	 1033	 1126	 1266	 1375	 1502	 1572	 1519	 1403	 1208	 1042	920.5	837.3	888.1	829.7	526.0	417.8	388.5	755.2	 2244	 4869	9999.9	9999.9	85.33	22.43	14.32	10.26	8.072	6.456	5.216	4.240	3.947	3.564	3.267	2.804	3.224	2.772	2.921	3.353	3.741	3.776	4.432	4.798	4.604	4.756	4.942	4.911	4.769	4.528	4.852	4.507	4.812	4.919	5.258	4.782	4.849	5.662	5.540	5.649	6.111	6.437	6.398	6.908	7.036	6.820	6.847	6.876	6.835	6.263	6.642	6.067
360.0	404.7	660.6	989.8	 1200	 1240	 1179	 1166	 1148	 1206	 1306	 1425	 1509	 1580	 1541	 1420	 1261	 1099	980.9	872.4	852.2	950.9	736.2	496.7	405.2	410.3	678.4	 1252	 8073	9999.9	 5301	66.55	18.16	13.16	10.06	7.490	5.993	4.550	4.551	4.193	3.470	2.663	2.934	2.652	2.776	3.503	3.686	3.861	4.003	4.576	4.441	4.966	4.974	5.320	5.087	5.022	5.445	5.027	4.673	5.159	5.018	5.000	5.324	5.745	5.654	6.298	6.517	6.702	6.832	6.778	6.618	7.117	7.189	6.939	6.810	6.348	6.980	6.413
365.0	391.8	610.7	955.9	 1154	 1266	 1260	 1200	 1202	 1283	 1379	 1470	 1519	 1544	 1535	 1438	 1282	 1136	 1021	939.6	848.1	898.4	926.4	625.3	461.9	389.3	377.1	436.8	 2061	9999.9	9999.9	 4174	46.64	16.41	12.24	8.890	6.645	5.689	5.064	4.140	3.784	2.789	2.989	3.276	2.974	3.398	3.849	3.833	4.297	4.452	4.755	4.440	5.150	5.339	5.200	5.601	5.143	5.479	5.796	5.292	5.795	5.582	5.774	5.882	6.389	6.474	6.449	6.760	6.308	6.946	6.919	6.685	7.152	6.706	6.730	6.707	6.637	7.283
370.0	387.7	581.0	904.8	 1145	 1271	 1300	 1291	 1284	 1340	 1438	 1501	 1534	 1557	 1525	 1443	 1313	 1192	 1100	 1023	941.9	903.6	925.8	875.2	627.8	471.9	381.2	316.7	622.3	 2614	9999.9	9999.9	9999.9	54.67	18.22	11.93	8.882	6.916	5.968	4.584	3.949	3.672	3.338	3.563	3.046	3.219	3.447	3.648	4.310	4.308	4.473	4.219	4.882	5.660	5.286	5.709	5.392	5.485	5.563	5.581	5.502	6.181	5.985	6.080	6.374	6.283	6.340	6.620	6.836	7.070	7.112	6.867	7.106	6.647	7.370	6.808	6.809	7.382
375.0	353.8	559.7	844.7	 1103	 1284	 1343	 1342	 1317	 1394	 1487	 1521	 1558	 1573	 1527	 1439	 1346	 1233	 1162	 1107	 1034	977.5	913.0	930.0	880.6	627.0	477.2	370.0	365.9	741.0	 2354	 6316	9999.9	9999.9	68.38	18.29	11.76	8.862	7.008	5.144	4.447	4.212	4.226	3.756	3.306	3.386	3.889	3.756	4.044	4.430	4.253	4.169	5.268	5.367	5.661	5.877	5.373	5.779	5.652	5.776	6.214	6.281	6.262	6.005	5.926	6.402	6.885	7.317	6.546	6.811	7.353	7.228	7.057	6.902	6.916	7.081	7.251	7.416
380.0	340.3	554.8	849.8	 1114	 1295	 1361	 1356	 1334	 1398	 1485	 1530	 1559	 1562	 1497	 1429	 1338	 1259	 1217	 1153	 1079	 1032	964.0	913.5	962.3	813.0	569.9	435.7	355.0	363.7	661.8	 1583	 9837	9999.9	 4268	51.74	15.63	11.41	7.840	6.208	5.167	4.203	4.089	3.941	3.584	3.732	3.486	3.463	4.212	4.652	4.046	4.113	5.252	5.509	5.609	5.572	5.492	6.221	5.679	5.765	5.904	6.010	6.237	6.531	6.673	6.781	6.892	6.935	6.897	7.150	6.959	7.040	7.178	7.290	6.585	7.221	6.858	7.370
385.0	351.0	545.1	841.3	 1082	 1265	 1338	 1348	 1359	 1399	 1453	 1505	 1536	 1528	 1500	 1425	 1331	 1269	 1219	 1180	 1136	 1075	 1002	932.0	924.8	939.7	681.5	508.5	397.0	322.7	317.5	479.9	 2537	9999.9	9999.9	 3215	35.59	14.29	10.44	7.508	5.872	4.573	4.308	3.944	3.858	3.605	4.292	3.473	4.339	4.647	4.209	4.631	5.144	5.733	5.592	5.686	6.101	6.323	5.853	6.486	6.088	5.659	6.613	6.536	6.247	6.465	7.092	7.055	7.223	6.878	6.726	6.790	7.194	7.437	6.763	7.623	7.115	7.668
390.0	356.2	527.7	809.9	 1042	 1224	 1346	 1334	 1351	 1375	 1427	 1489	 1500	 1484	 1454	 1382	 1318	 1258	 1228	 1192	 1165	 1104	 1049	976.5	921.5	911.4	849.5	643.5	467.9	363.5	295.1	270.3	681.2	 2716	9999.9	9999.9	 9207	43.76	14.69	9.310	8.005	5.785	4.856	4.610	4.202	4.001	4.150	3.809	4.268	4.323	4.248	4.376	5.072	5.435	5.818	5.902	5.723	6.152	5.632	6.271	5.661	5.769	6.164	5.821	6.088	6.308	6.511	6.899	6.822	6.994	6.853	6.817	6.833	6.835	6.884	7.388	7.265	7.471
395.0	364.5	484.8	792.7	969.0	 1166	 1327	 1322	 1345	 1345	 1421	 1424	 1436	 1448	 1389	 1344	 1279	 1244	 1215	 1208	 1173	 1120	 1064	 1012	942.6	885.3	861.3	807.5	579.4	431.3	340.5	273.7	302.9	709.7	 2321	 6357	9999.9	9999.9	54.97	14.43	10.28	7.252	5.427	5.124	4.262	4.039	4.229	3.696	4.495	4.439	4.134	4.544	5.149	5.455	5.711	5.791	5.455	6.163	5.516	6.210	5.451	5.637	5.933	6.082	6.404	6.394	6.330	6.792	6.407	6.759	6.767	6.635	6.331	6.781	7.012	6.623	7.423	8.002
400.0	352.3	498.7	752.4	954.0	 1141	 1295	 1329	 1337	 1335	 1358	 1408	 1390	 1409	 1362	 1308	 1252	 1213	 1200	 1192	 1162	 1112	 1082	 1038	964.7	899.0	833.1	834.5	709.5	492.4	386.6	299.3	248.6	282.8	606.3	 1574	 9535	9999.9	 3506	41.73	13.28	8.922	6.925	5.638	5.025	4.618	4.672	4.200	4.580	4.006	4.091	4.330	4.838	5.236	5.668	5.427	5.551	5.809	5.896	6.014	5.983	5.949	5.666	6.103	5.883	6.105	5.930	6.717	6.468	6.809	6.265	6.406	6.457	6.700	6.564	6.678	6.292	7.020
405.0	326.6	478.5	707.3	900.1	 1122	 1226	 1310	 1303	 1319	 1336	 1359	 1364	 1352	 1325	 1272	 1232	 1185	 1180	 1164	 1137	 1107	 1084	 1026	976.5	911.1	835.5	795.9	785.6	596.4	430.7	330.4	259.3	207.2	241.8	429.4	 2475	9999.9	9999.9	487.7	27.76	11.57	8.040	6.742	5.612	4.500	4.213	4.140	4.789	4.179	4.171	4.285	4.784	5.027	5.992	5.144	5.655	5.239	5.569	5.940	5.913	5.212	5.755	5.930	5.621	6.231	5.857	6.107	6.356	6.130	6.272	6.400	6.281	6.432	6.709	6.538	6.416	7.672
410.0	332.8	453.2	692.9	886.5	 1063	 1181	 1243	 1284	 1295	 1301	 1315	 1315	 1290	 1265	 1231	 1166	 1135	 1137	 1121	 1099	 1080	 1045	 1009	965.2	903.2	831.6	769.7	748.2	694.3	524.8	382.2	296.9	222.5	185.5	189.0	620.9	 2678	9999.9	9999.9	 6973	36.78	11.34	8.706	6.484	5.557	4.587	4.412	4.606	4.507	3.941	4.340	4.820	5.180	5.348	5.090	5.354	5.809	5.702	5.804	5.675	5.944	5.628	5.795	5.507	5.687	5.854	5.805	6.360	6.184	6.142	6.274	5.897	5.979	6.648	6.470	6.556	6.655
