Sample:	'1
File name:	ÍÞ¹þ¹þ ÏÂÓÎ 4±¶.FD3
Run date:	'13:47:31, 09/08/2025
Operator:	Administrator
Comment:	'

Instrument
Model:	F-2700 FL Spectrophotometer
Serial number:	24D1-003
ROM Version:	4J14000 07

Instrument parameters
Measurement type:	3-D scan
Data mode:	Fluorescence
EX  Start WL:	220.0 nm
EX  End WL:	600.0 nm
EX Sampling interval:	5.0 nm
EM  Start WL:	230.0 nm
EM  End WL:	650.0 nm
EM Sampling interval:	5.0 nm
Scan speed:	12000 nm/min
EX Slit:	5.0 nm
EM Slit:	5.0 nm
PMT Voltage:	700 V
Response:	Auto 
Corrected spectra:	Off
Contour interval:	50.000

Peak integration
Integration method:	Rectangular
Sensitivity:	1
Threshold:	1.000

Peaks
No.	ApexEX/EM(nm)	Height(Data)
1	225.0/350.0	223.2
2	225.0/365.0	204.9
3	225.0/395.0	185.6
4	225.0/555.0	30.29
5	245.0/540.0	106.3
6	250.0/550.0	125.8
7	255.0/280.0	598.2
8	255.0/560.0	140.3
9	260.0/285.0	698.0
10	260.0/575.0	131.6
11	265.0/585.0	136.7
12	270.0/300.0	1406
13	270.0/380.0	765.8
14	270.0/600.0	136.0
15	275.0/305.0	1592
16	275.0/610.0	118.9
17	280.0/310.0	1323
18	280.0/620.0	92.86
19	285.0/315.0	1106
20	285.0/635.0	64.21
21	290.0/325.0	872.7
22	295.0/330.0	702.5
23	300.0/335.0	620.5
24	305.0/340.0	588.2
25	315.0/355.0	453.5
26	320.0/360.0	502.8
27	325.0/365.0	487.4
28	330.0/375.0	460.0
29	335.0/380.0	484.9
30	340.0/385.0	450.8
31	350.0/400.0	360.2
32	355.0/405.0	340.2
33	365.0/420.0	265.4
34	370.0/425.0	250.0
35	380.0/440.0	181.2
36	400.0/465.0	106.1
37	415.0/485.0	67.66
38	440.0/520.0	31.19
39	455.0/540.0	17.21
40	470.0/560.0	9.393
41	505.0/275.0	2.474
42	520.0/285.0	3.948
43	530.0/290.0	4.364
44	540.0/295.0	5.854
45	545.0/300.0	6.579
46	550.0/305.0	6.643
47	560.0/310.0	6.178
48	570.0/315.0	5.100
49	580.0/320.0	5.065
50	585.0/325.0	5.016

Data points
	220.0	225.0	230.0	235.0	240.0	245.0	250.0	255.0	260.0	265.0	270.0	275.0	280.0	285.0	290.0	295.0	300.0	305.0	310.0	315.0	320.0	325.0	330.0	335.0	340.0	345.0	350.0	355.0	360.0	365.0	370.0	375.0	380.0	385.0	390.0	395.0	400.0	405.0	410.0	415.0	420.0	425.0	430.0	435.0	440.0	445.0	450.0	455.0	460.0	465.0	470.0	475.0	480.0	485.0	490.0	495.0	500.0	505.0	510.0	515.0	520.0	525.0	530.0	535.0	540.0	545.0	550.0	555.0	560.0	565.0	570.0	575.0	580.0	585.0	590.0	595.0	600.0
230.0	21.43	233.3	419.1	97.24	7.173	5.112	4.388	4.621	5.251	4.711	4.540	4.092	3.496	2.860	2.643	2.109	1.946	1.644	2.061	1.889	1.599	1.518	1.256	1.228	1.097	1.078	0.939	0.864	0.848	0.795	0.767	0.694	0.719	0.682	0.748	0.573	0.602	0.585	0.548	0.588	0.492	0.539	0.500	0.467	0.391	0.428	0.592	1.077	1.334	0.911	0.505	0.350	0.344	0.343	0.355	0.334	0.350	0.325	0.340	0.333	0.331	0.331	0.342	0.360	0.316	0.316	0.306	0.320	0.315	0.321	0.325	0.341	0.311	0.375	0.314	0.290	0.260
235.0	22.16	65.07	259.4	461.2	170.7	11.92	4.726	5.135	5.170	4.682	4.195	4.664	3.664	3.557	3.055	2.425	2.043	1.679	2.009	2.079	1.599	1.429	1.147	1.330	1.145	1.095	0.930	0.862	0.918	0.728	0.855	0.645	0.649	0.736	0.856	0.564	0.627	0.580	0.570	0.463	0.450	0.573	0.548	0.540	0.447	0.496	0.448	0.629	0.733	0.828	1.219	1.517	1.090	0.495	0.313	0.304	0.329	0.391	0.330	0.329	0.340	0.295	0.321	0.362	0.342	0.322	0.251	0.268	0.356	0.274	0.322	0.304	0.292	0.351	0.315	0.293	0.318
240.0	33.01	31.85	79.78	432.6	532.4	207.5	10.11	6.424	6.395	5.153	4.177	4.605	4.213	3.024	2.247	2.408	2.042	1.909	2.359	1.945	1.614	1.290	1.074	1.425	1.166	0.936	0.867	0.813	0.788	0.921	0.891	0.671	0.683	0.708	0.761	0.678	0.552	0.493	0.494	0.601	0.476	0.517	0.572	0.481	0.362	0.478	0.451	0.414	0.378	0.484	0.644	1.684	2.740	2.650	1.441	0.490	0.288	0.372	0.363	0.388	0.296	0.270	0.355	0.421	0.270	0.280	0.360	0.294	0.367	0.210	0.297	0.242	0.326	0.300	0.382	0.328	0.302
245.0	25.67	39.24	29.85	148.6	843.7	1399	228.8	10.79	6.324	5.927	5.256	5.107	4.001	3.345	2.492	2.711	2.116	2.126	2.433	1.789	2.025	1.260	1.314	1.196	1.124	1.186	1.139	1.012	0.715	0.809	0.956	0.757	0.727	0.774	0.650	0.646	0.552	0.575	0.438	0.632	0.530	0.536	0.538	0.473	0.398	0.462	0.457	0.483	0.354	0.358	0.318	0.726	1.699	4.012	6.232	5.042	1.593	0.480	0.336	0.356	0.382	0.266	0.325	0.353	0.279	0.323	0.305	0.263	0.314	0.247	0.304	0.248	0.332	0.403	0.355	0.282	0.235
250.0	21.04	34.23	51.80	54.68	282.7	1616	3399	1184	78.96	8.208	7.257	6.545	4.450	3.711	3.110	2.759	2.338	2.215	2.297	2.180	1.883	1.378	1.340	1.405	1.280	1.105	1.025	0.942	0.798	0.818	0.863	0.783	0.721	0.700	0.620	0.620	0.611	0.543	0.514	0.571	0.534	0.580	0.448	0.479	0.493	0.402	0.492	0.463	0.474	0.439	0.379	0.489	0.692	1.468	3.384	6.955	11.23	13.35	8.965	3.041	0.534	0.330	0.298	0.333	0.361	0.338	0.329	0.384	0.363	0.346	0.324	0.324	0.319	0.327	0.319	0.273	0.367
255.0	22.84	23.74	42.47	90.09	98.98	415.6	2697	8243	1930	95.24	10.67	9.537	6.173	5.155	3.405	3.218	2.929	2.293	2.484	2.161	2.177	1.538	1.524	1.432	1.312	1.201	1.232	0.930	0.949	1.005	0.894	0.736	0.755	0.655	0.646	0.683	0.535	0.626	0.609	0.505	0.606	0.545	0.520	0.567	0.455	0.441	0.422	0.459	0.375	0.424	0.487	0.732	0.601	0.590	1.043	1.884	3.950	12.03	24.89	26.90	17.30	3.880	0.544	0.380	0.290	0.350	0.390	0.368	0.355	0.311	0.347	0.414	0.240	0.301	0.383	0.311	0.317
260.0	20.61	19.69	22.65	84.14	122.8	118.7	796.4	6527	9999.9	1532	54.63	12.94	7.939	5.929	4.487	3.682	3.109	2.682	2.745	2.357	2.042	1.689	1.643	1.424	1.345	1.223	1.264	1.078	1.128	1.009	0.790	0.854	0.866	0.704	0.646	0.764	0.509	0.586	0.548	0.571	0.597	0.518	0.569	0.560	0.440	0.534	0.455	0.485	0.329	0.384	0.421	0.783	0.743	0.676	0.607	0.678	1.252	3.358	10.02	24.65	44.01	27.21	14.53	1.804	0.450	0.386	0.298	0.427	0.295	0.273	0.437	0.422	0.334	0.331	0.406	0.311	0.372
265.0	28.11	19.47	15.94	45.70	161.0	133.6	209.3	2026	9999.9	9999.9	1250	30.78	10.90	7.702	5.369	4.246	3.750	3.185	2.990	2.527	1.787	2.070	1.566	1.593	1.448	1.240	1.229	1.014	1.132	1.018	0.829	0.814	0.862	0.815	0.817	0.647	0.484	0.599	0.567	0.485	0.561	0.523	0.585	0.560	0.417	0.452	0.421	0.499	0.370	0.345	0.285	0.382	0.699	1.043	1.062	0.710	0.596	1.101	2.667	6.977	20.83	41.26	58.87	25.97	9.210	0.870	0.489	0.415	0.453	0.318	0.355	0.374	0.342	0.395	0.381	0.335	0.501
270.0	37.77	24.80	20.56	22.46	79.07	220.0	240.4	519.3	2960	9271	9999.9	5432	84.06	11.86	7.244	5.517	4.373	3.479	3.787	3.052	2.390	2.096	1.749	1.675	1.662	1.515	1.199	1.226	1.116	1.013	0.987	0.971	0.900	0.879	0.793	0.686	0.681	0.699	0.633	0.719	0.616	0.739	0.590	0.622	0.497	0.544	0.455	0.425	0.395	0.351	0.314	0.417	0.558	0.673	1.063	1.424	1.381	1.194	1.081	1.992	5.199	11.49	25.53	42.23	58.33	54.92	16.78	7.847	0.911	0.424	0.376	0.314	0.366	0.363	0.340	0.408	0.421
275.0	65.14	36.93	28.49	21.38	33.38	105.7	384.2	384.7	760.0	2259	6696	9999.9	7727	101.7	12.61	8.076	5.837	4.402	3.994	3.568	2.854	2.341	1.840	1.850	1.618	1.480	1.183	1.202	1.241	1.164	1.005	0.732	0.901	0.914	0.951	0.839	0.842	0.889	0.762	0.790	0.743	0.727	0.722	0.669	0.572	0.651	0.509	0.485	0.457	0.329	0.331	0.452	0.477	0.492	0.475	0.937	1.453	2.474	2.435	1.392	1.773	3.212	6.377	10.23	16.84	37.88	68.24	84.43	26.11	9.035	0.591	0.349	0.461	0.367	0.455	0.426	0.379
280.0	92.74	62.48	38.01	26.10	24.16	53.46	241.8	598.2	393.5	653.5	1911	9999.9	9999.9	1198	67.58	10.59	7.717	5.061	5.355	4.219	3.320	2.419	2.361	1.901	1.678	1.735	1.278	1.050	1.244	1.153	1.140	0.792	0.977	1.024	1.011	0.991	0.955	1.043	0.835	0.876	0.900	0.863	0.784	0.774	0.600	0.752	0.611	0.529	0.533	0.360	0.396	0.449	0.387	0.568	0.396	0.679	0.833	1.690	2.942	3.215	2.116	1.609	2.393	3.177	4.721	9.798	23.13	57.53	96.71	87.52	18.70	2.602	0.419	0.415	0.421	0.337	0.358
285.0	123.8	79.55	56.85	31.31	28.15	44.19	123.6	483.0	698.0	377.9	670.0	2991	9999.9	9999.9	953.2	37.39	10.08	6.751	7.135	5.030	3.590	2.764	2.547	2.014	1.992	1.899	1.405	1.296	1.287	1.152	1.176	0.964	0.982	1.078	1.087	1.037	1.169	1.191	1.086	0.846	0.986	1.020	0.861	0.844	0.743	0.709	0.622	0.617	0.639	0.464	0.462	0.456	0.447	0.562	0.468	0.540	0.827	0.910	1.661	3.310	3.948	3.074	1.893	1.939	2.282	3.474	6.420	15.30	38.61	83.60	84.02	29.61	12.36	0.851	0.582	0.498	0.415
290.0	162.7	107.6	75.06	46.90	39.55	52.86	103.1	272.4	678.2	882.4	654.3	1079	2867	9017	9999.9	3744	55.01	10.41	10.08	6.381	4.363	3.134	2.825	2.422	2.035	1.985	1.640	1.392	1.343	1.340	1.236	0.940	1.072	1.031	1.053	1.136	1.282	1.421	1.320	1.158	1.058	1.140	1.013	0.975	0.857	0.804	0.760	0.728	0.708	0.607	0.454	0.529	0.482	0.554	0.571	0.611	0.826	0.791	1.154	1.681	2.645	3.570	4.364	3.868	2.843	2.624	3.289	5.098	10.45	21.75	30.82	51.43	74.81	62.32	18.87	8.680	1.050
295.0	193.7	141.3	93.31	58.18	54.05	70.04	118.7	219.5	438.2	918.8	1267	877.3	1104	2299	4430	9999.9	5514	68.37	16.17	8.713	5.508	3.953	3.535	3.012	2.366	1.894	1.732	1.439	1.462	1.392	1.162	0.881	1.075	1.200	1.233	1.541	1.323	1.330	1.332	1.390	1.293	1.089	1.178	0.928	1.025	0.915	0.848	0.902	0.750	0.704	0.541	0.628	0.633	0.589	0.621	0.733	0.779	0.840	1.129	1.479	1.872	2.366	3.367	4.775	5.854	4.793	3.273	3.579	4.744	6.708	8.386	12.71	20.22	40.08	80.16	103.2	30.21
300.0	207.1	146.9	103.5	68.54	66.75	85.63	135.3	232.7	395.0	702.7	1406	1229	801.5	831.3	1201	6206	9999.9	4068	54.97	12.82	7.650	5.225	4.231	3.269	2.923	2.052	2.049	1.571	1.417	1.380	1.420	0.960	1.099	1.288	1.359	1.444	1.534	1.319	1.323	1.385	1.071	1.218	1.151	0.953	0.888	1.038	0.892	0.841	0.711	0.660	0.669	0.613	0.608	0.698	0.581	0.714	0.897	1.037	1.207	1.482	1.588	2.181	2.722	3.344	5.090	6.579	5.849	4.304	3.540	3.637	3.475	4.083	5.573	10.39	25.45	68.18	104.0
305.0	202.1	162.2	105.8	72.22	70.86	97.16	151.6	258.1	401.3	627.5	1081	1592	990.9	562.8	457.7	1621	8616	9999.9	3637	35.81	9.916	6.449	4.939	3.670	3.169	2.376	1.919	1.859	1.496	1.376	1.470	1.167	1.240	1.218	1.400	1.435	1.404	1.497	1.361	1.395	1.199	1.112	1.229	1.129	0.929	0.997	1.020	0.840	0.753	0.599	0.619	0.567	0.663	0.658	0.699	0.712	0.989	1.118	1.117	1.552	1.742	1.977	2.632	3.023	3.688	4.894	6.643	6.618	4.950	3.524	2.806	2.259	2.408	3.197	6.599	17.33	39.95
310.0	195.9	157.1	107.5	78.79	79.75	115.3	177.4	277.5	416.1	593.0	855.0	1203	1323	763.5	347.1	491.8	2166	7470	9999.9	8431	41.84	9.471	6.732	4.948	3.836	2.978	2.167	2.123	1.803	1.567	1.507	1.338	1.218	1.326	1.389	1.404	1.528	1.551	1.398	1.341	1.203	1.192	1.069	1.024	0.909	1.014	0.980	0.811	0.743	0.630	0.604	0.643	0.710	0.745	0.771	0.862	1.089	1.278	1.432	1.578	1.812	2.166	2.707	2.869	3.269	4.010	4.449	5.532	6.178	5.549	4.023	2.373	2.117	1.744	2.466	4.697	9.726
315.0	195.0	152.1	110.9	86.90	85.55	134.4	194.8	293.6	412.9	571.9	754.1	905.5	1005	1106	554.9	279.4	593.3	1754	5259	9999.9	4181	52.60	10.08	6.787	5.080	3.701	2.446	2.471	1.674	1.800	1.606	1.160	1.296	1.439	1.309	1.252	1.524	1.530	1.372	1.264	1.078	1.149	1.102	1.042	0.960	0.909	0.884	0.790	0.816	0.564	0.547	0.752	0.733	0.827	0.966	0.905	1.239	1.492	1.380	1.641	1.883	2.231	2.726	2.892	3.218	3.553	3.797	4.027	4.212	4.587	5.100	4.679	2.907	1.910	1.639	2.057	3.081
320.0	200.6	163.6	121.8	98.39	99.01	139.2	214.0	319.4	429.6	568.2	732.1	832.1	832.1	948.2	867.1	341.8	272.2	489.4	1320	6798	9999.9	3292	39.10	9.259	6.307	4.586	2.846	3.000	1.854	1.816	1.862	1.503	1.396	1.396	1.493	1.342	1.305	1.436	1.322	1.092	1.183	1.156	1.143	1.014	0.904	0.924	0.963	0.914	0.863	0.723	0.556	0.807	0.716	0.777	0.880	0.921	1.256	1.347	1.668	1.765	1.989	2.291	2.558	2.790	3.015	3.185	3.677	3.445	3.700	3.652	3.824	4.862	5.065	3.252	1.974	1.672	1.644
325.0	216.3	168.4	149.5	110.6	114.7	147.8	227.9	330.6	443.9	578.4	719.3	806.1	774.5	742.5	872.7	598.9	252.8	229.3	388.5	1709	8391	9999.9	2583	28.58	8.406	5.946	3.730	3.210	2.381	2.201	2.009	1.655	1.557	1.363	1.509	1.395	1.279	1.403	1.292	1.207	1.280	1.093	1.114	1.198	0.948	1.016	0.939	1.036	0.895	0.781	0.605	0.711	0.788	0.844	0.997	0.992	1.270	1.335	1.575	1.984	2.158	2.226	2.641	2.897	2.948	3.348	3.464	3.711	3.627	3.245	3.384	3.435	4.785	5.016	3.739	2.129	1.705
330.0	205.5	191.9	168.0	137.3	132.7	164.5	232.7	338.7	447.9	573.3	704.0	785.7	761.9	674.3	637.4	702.5	491.5	227.5	200.7	465.5	2075	6764	9999.9	6445	35.70	8.854	5.108	3.858	2.804	2.617	2.106	1.741	1.737	1.499	1.517	1.350	1.354	1.537	1.223	1.262	1.207	1.143	1.136	1.067	1.006	1.107	1.092	0.986	0.942	0.841	0.734	0.764	0.896	0.920	1.052	1.086	1.237	1.477	1.645	1.993	2.080	2.257	2.594	2.859	3.036	3.147	3.274	3.566	3.499	3.208	3.249	3.088	3.477	3.602	3.816	4.169	3.447
335.0	211.1	202.5	178.1	170.3	160.3	182.6	249.9	345.9	450.8	570.9	689.1	766.5	752.1	664.6	563.0	508.5	620.5	438.5	198.4	210.7	542.8	1575	3812	9999.9	3412	47.15	7.684	5.522	3.481	3.185	2.670	1.959	1.946	1.669	1.558	1.451	1.412	1.464	1.356	1.088	1.226	1.117	1.173	1.083	1.226	1.140	1.088	1.077	0.853	0.920	0.833	0.869	0.966	0.929	0.959	1.141	1.294	1.472	1.570	1.834	2.145	2.358	2.690	2.904	3.095	3.054	3.390	3.241	3.282	3.260	3.172	3.170	3.296	3.283	2.847	3.056	4.057
340.0	214.6	223.0	192.8	180.7	172.4	214.4	270.9	360.6	461.0	577.5	683.8	748.5	743.7	670.9	565.4	451.4	479.4	588.2	304.2	172.5	216.2	424.7	938.4	5725	9999.9	2900	33.58	7.333	4.895	3.941	3.184	2.064	1.996	1.772	1.587	1.404	1.475	1.331	1.207	1.200	1.281	1.229	1.232	1.158	1.161	1.227	1.097	0.972	1.184	1.023	0.830	1.124	1.017	1.126	1.094	1.148	1.401	1.580	1.707	1.820	2.134	2.189	2.548	2.866	2.883	3.030	3.282	3.208	3.434	3.260	3.352	3.129	3.027	2.990	2.583	2.643	2.786
345.0	228.5	221.7	202.1	189.7	195.6	234.8	296.0	381.1	471.6	572.2	673.9	731.0	733.6	665.8	569.5	450.5	390.3	513.3	480.1	218.0	162.4	188.3	282.2	1449	7853	9999.9	2166	24.21	6.392	4.422	3.374	2.321	2.296	1.798	1.574	1.534	1.492	1.331	1.297	1.298	1.438	1.239	1.199	1.098	1.227	1.123	1.202	1.105	1.115	1.050	0.860	1.055	0.988	1.052	1.299	1.283	1.387	1.609	1.887	2.066	2.273	2.224	2.617	2.775	2.825	2.968	2.964	3.150	3.337	3.009	3.205	3.190	2.937	2.813	2.365	2.460	2.343
350.0	216.1	223.2	194.7	196.5	223.8	267.3	334.9	417.0	499.5	586.2	667.6	719.9	707.5	670.1	579.1	472.4	389.5	384.0	470.3	412.7	224.6	168.0	168.2	403.9	1981	6524	9999.9	4352	29.96	6.687	4.517	3.021	2.520	2.072	1.955	1.524	1.697	1.455	1.335	1.283	1.289	1.230	1.171	1.057	1.179	1.112	1.029	1.178	1.095	1.070	0.916	1.100	1.141	1.156	1.340	1.367	1.593	1.695	1.962	2.200	2.342	2.543	2.611	2.580	2.894	2.997	3.123	3.104	3.189	3.322	3.230	3.236	2.898	3.017	2.639	2.566	2.573
355.0	202.0	210.0	197.0	208.3	241.6	305.8	388.5	462.5	552.0	627.5	685.8	720.3	710.2	670.9	598.5	496.2	417.1	377.3	372.4	453.5	415.9	228.5	181.1	204.7	524.9	1519	3604	9999.9	2998	38.45	6.914	4.579	3.087	2.585	2.286	1.811	1.778	1.653	1.503	1.150	1.287	1.267	1.193	1.179	1.238	1.145	1.049	1.210	1.094	0.963	0.946	1.192	1.315	1.186	1.402	1.645	1.809	1.983	1.957	2.286	2.595	2.576	2.839	2.776	2.852	3.084	3.027	3.001	3.133	3.486	3.049	3.270	3.129	3.333	2.703	2.790	2.695
360.0	214.1	195.6	203.0	217.0	252.0	339.1	425.3	507.0	602.2	671.6	713.7	730.3	711.6	669.1	610.4	517.5	444.8	396.1	365.3	389.5	502.8	353.6	218.1	185.3	222.5	411.7	879.3	4825	9999.9	2504	28.34	5.817	4.182	3.019	2.560	2.023	1.867	1.778	1.625	1.540	1.300	1.188	1.170	1.153	1.297	1.244	1.017	1.177	1.110	0.953	0.927	1.079	1.234	1.368	1.633	1.504	1.920	2.182	2.130	2.645	2.755	2.757	2.831	3.080	2.959	2.940	2.811	2.898	3.186	3.171	2.948	3.371	3.154	3.087	2.830	2.938	2.660
365.0	201.2	204.9	197.4	221.1	272.8	351.5	447.3	544.2	625.8	681.9	722.8	735.2	708.7	675.5	617.9	532.8	469.1	421.8	384.8	369.7	446.4	487.4	297.1	208.1	175.8	182.1	257.4	1213	6211	9999.9	373.7	13.21	6.042	3.906	2.895	2.252	1.852	1.902	1.664	1.689	1.436	1.284	1.271	1.122	1.129	1.195	1.100	1.106	1.156	0.963	1.053	1.304	1.290	1.517	1.449	1.854	2.024	2.271	2.460	2.535	2.705	2.845	2.997	3.082	2.840	2.901	3.001	3.059	3.030	3.401	3.123	3.196	3.239	3.163	3.302	3.014	3.053
370.0	190.2	200.0	195.2	215.0	282.6	366.3	474.7	572.0	651.6	705.9	740.4	739.1	719.3	680.0	624.5	549.3	497.7	454.0	429.4	404.1	405.8	468.0	449.7	294.2	201.2	160.0	143.5	330.6	1552	6655	9306	1512	24.00	5.815	4.004	2.598	2.220	2.015	1.800	1.625	1.488	1.392	1.329	1.201	1.192	1.179	1.045	1.041	1.074	1.060	1.026	1.250	1.319	1.473	1.538	1.817	2.213	2.297	2.585	2.888	3.058	2.856	3.135	3.104	3.116	3.093	3.010	3.025	3.118	3.320	3.202	3.101	3.283	3.027	3.164	3.060	3.054
375.0	194.8	193.0	193.2	218.7	293.9	388.6	502.8	593.4	677.3	732.1	756.7	748.3	733.6	685.7	630.9	568.0	523.2	488.9	464.8	441.5	426.1	421.7	460.0	446.1	271.9	189.8	149.5	162.8	405.7	1541	3751	9999.9	2504	30.57	5.843	3.625	2.724	2.378	2.143	1.549	1.495	1.252	1.366	1.234	1.180	1.219	1.171	1.025	0.965	0.979	1.045	1.086	1.427	1.423	1.733	1.764	2.236	2.497	2.590	2.662	3.006	3.302	3.040	3.401	3.360	3.181	3.166	3.208	3.116	3.210	3.284	3.320	3.328	3.256	3.012	3.090	3.209
380.0	192.2	179.7	188.8	209.7	300.1	405.2	527.9	611.6	686.5	741.3	765.8	757.6	739.3	693.5	632.5	576.1	539.7	506.3	488.6	464.1	443.9	424.5	423.1	484.9	375.6	229.3	170.3	142.6	166.3	397.9	922.6	5812	9999.9	2008	21.22	4.849	3.388	2.626	2.510	2.118	1.700	1.502	1.514	1.240	1.257	1.253	1.272	1.141	1.033	0.913	0.928	1.213	1.299	1.479	1.874	1.810	2.211	2.510	2.640	2.810	3.061	3.166	3.096	3.305	3.365	3.074	3.096	3.407	3.317	3.419	3.157	3.299	3.289	3.237	3.101	3.211	3.336
385.0	191.6	171.2	185.6	215.5	309.2	413.2	532.7	612.4	686.9	745.0	760.5	756.7	731.6	692.7	628.4	577.7	543.3	518.0	499.5	475.2	460.7	432.7	415.9	429.2	450.8	293.1	199.5	156.9	129.0	155.4	262.4	1551	7847	9999.9	293.9	12.05	4.423	3.163	2.680	2.047	1.845	1.800	1.379	1.416	1.280	1.230	1.093	1.043	1.075	0.985	1.010	1.160	1.387	1.440	1.874	1.884	2.194	2.644	2.643	2.806	2.906	2.914	3.236	3.259	3.056	3.198	3.069	3.183	3.131	3.298	3.253	3.274	3.269	3.377	3.257	3.194	3.325
390.0	186.3	172.6	179.6	219.4	301.2	417.3	527.6	610.3	684.0	728.7	745.7	740.0	713.4	671.7	624.0	572.3	546.0	522.0	508.8	488.4	470.5	446.6	419.7	397.0	408.6	382.1	262.2	178.8	139.1	116.9	123.8	397.3	2046	6722	8852	2764	19.61	4.582	3.471	2.580	1.966	1.859	1.528	1.399	1.423	1.368	1.212	1.238	1.154	1.002	1.067	1.239	1.475	1.402	1.928	1.917	2.400	2.481	2.670	2.714	3.000	3.050	3.305	3.171	3.150	3.151	2.970	3.113	3.255	3.024	3.118	3.185	3.139	3.209	3.114	3.220	3.428
395.0	184.7	185.6	172.3	213.9	291.3	408.2	527.3	615.9	675.3	724.6	728.1	715.3	700.0	655.5	604.4	568.8	543.8	526.3	507.9	491.1	470.8	454.7	423.6	393.6	360.9	363.1	353.6	234.7	162.1	123.8	108.4	148.9	495.0	1545	3981	8842	2075	26.18	4.946	3.706	2.338	1.991	1.758	1.436	1.451	1.420	1.163	1.179	1.240	0.949	0.976	1.263	1.360	1.533	1.808	1.876	2.364	2.314	2.778	2.878	2.958	3.066	3.301	3.017	3.103	2.861	3.032	3.000	2.938	2.976	3.273	3.261	3.018	3.342	3.328	3.016	3.538
400.0	187.1	168.4	177.7	206.4	299.4	414.1	523.7	599.0	677.4	693.9	706.5	692.2	683.9	645.9	598.0	560.8	531.8	521.4	504.6	492.6	470.7	453.8	423.2	394.2	356.3	327.8	360.2	304.9	187.8	139.4	115.3	104.5	157.5	378.6	969.1	4773	8724	1687	18.59	4.264	3.110	2.243	1.906	1.577	1.492	1.474	1.238	1.175	1.096	1.041	0.979	1.217	1.405	1.508	1.806	1.886	2.502	2.661	2.627	2.918	2.690	2.834	2.900	3.024	3.265	2.814	2.968	2.703	2.855	2.821	3.125	3.181	3.023	2.960	3.192	3.240	3.379
405.0	186.8	167.6	175.0	213.1	289.8	407.2	516.7	602.7	659.4	676.0	698.4	685.2	662.7	625.2	581.2	551.3	525.7	513.4	495.7	484.2	466.3	446.9	421.2	392.7	358.6	316.2	317.5	340.2	240.4	155.8	129.2	103.2	90.89	123.3	246.1	1228	5800	8196	263.8	11.78	3.638	2.772	2.319	1.848	1.477	1.529	1.246	1.187	1.009	1.031	1.034	1.247	1.467	1.529	1.712	1.986	2.332	2.446	2.647	2.883	2.818	2.775	3.085	2.941	3.321	3.028	2.841	2.736	2.865	2.841	2.831	2.950	2.833	3.059	2.759	2.974	3.270
410.0	180.7	159.4	165.9	197.9	278.1	394.5	499.2	595.2	636.7	662.7	665.9	656.1	632.5	598.1	556.6	525.5	504.4	493.2	481.1	464.7	451.8	436.0	414.7	385.2	351.7	314.5	291.2	299.6	293.6	203.0	146.0	112.0	85.47	74.50	89.68	299.9	1482	5066	6219	2479	17.65	4.096	2.867	2.193	1.748	1.549	1.377	1.375	1.109	1.079	1.060	1.191	1.383	1.454	1.694	1.912	2.367	2.385	2.549	2.931	2.752	2.900	2.963	2.867	3.178	2.823	2.675	2.658	2.697	2.764	2.772	2.783	2.802	2.916	2.831	2.957	3.105
