Sample:	'1
File name:	S2025080901Äþ´ÞÂ·ÇÅ.FD3
Run date:	'15:58:53, 08/10/2025
Operator:	Administrator
Comment:	'

Instrument
Model:	F-2700 FL Spectrophotometer
Serial number:	3064-004
ROM Version:	4J14000 07

Instrument parameters
Measurement type:	3-D scan
Data mode:	Fluorescence
EX  Start WL:	220.0 nm
EX  End WL:	600.0 nm
EX Sampling interval:	5.0 nm
EM  Start WL:	230.0 nm
EM  End WL:	650.0 nm
EM Sampling interval:	5.0 nm
Scan speed:	12000 nm/min
EX Slit:	5.0 nm
EM Slit:	5.0 nm
PMT Voltage:	700 V
Response:	Auto 
Corrected spectra:	Off
Contour interval:	50.000

Peak integration
Integration method:	Rectangular
Sensitivity:	1
Threshold:	1.000

Peaks
No.	ApexEX/EM(nm)	Height(Data)
1	225.0/610.0	43.40
2	230.0/605.0	48.68
3	230.0/620.0	46.46
4	230.0/645.0	41.56
5	245.0/630.0	38.36
6	250.0/545.0	258.5
7	255.0/280.0	565.4
8	255.0/555.0	218.6
9	260.0/285.0	699.2
10	260.0/565.0	171.6
11	265.0/290.0	711.4
12	265.0/420.0	 1245
13	265.0/580.0	167.6
14	270.0/295.0	 1096
15	270.0/595.0	142.1
16	275.0/305.0	 1444
17	275.0/375.0	 1330
18	275.0/605.0	135.9
19	280.0/310.0	 1472
20	280.0/340.0	 1260
21	280.0/385.0	 1330
22	280.0/615.0	125.4
23	285.0/315.0	 1505
24	285.0/345.0	 1271
25	285.0/630.0	95.08
26	290.0/320.0	 1388
27	290.0/640.0	75.41
28	305.0/340.0	904.7
29	310.0/350.0	806.5
30	315.0/355.0	815.1
31	315.0/405.0	 1118
32	320.0/360.0	881.0
33	325.0/370.0	893.4
34	330.0/375.0	907.7
35	335.0/380.0	931.1
36	340.0/385.0	918.1
37	505.0/275.0	2.914
38	510.0/280.0	3.356
39	520.0/285.0	4.259
40	530.0/290.0	3.833
41	530.0/435.0	5.843
42	540.0/295.0	5.858
43	545.0/300.0	6.419
44	550.0/305.0	7.146
45	560.0/310.0	7.103
46	570.0/315.0	8.016
47	575.0/320.0	7.114
48	580.0/325.0	7.571

Data points
	220.0	225.0	230.0	235.0	240.0	245.0	250.0	255.0	260.0	265.0	270.0	275.0	280.0	285.0	290.0	295.0	300.0	305.0	310.0	315.0	320.0	325.0	330.0	335.0	340.0	345.0	350.0	355.0	360.0	365.0	370.0	375.0	380.0	385.0	390.0	395.0	400.0	405.0	410.0	415.0	420.0	425.0	430.0	435.0	440.0	445.0	450.0	455.0	460.0	465.0	470.0	475.0	480.0	485.0	490.0	495.0	500.0	505.0	510.0	515.0	520.0	525.0	530.0	535.0	540.0	545.0	550.0	555.0	560.0	565.0	570.0	575.0	580.0	585.0	590.0	595.0	600.0
230.0	30.91	 1100	 7626	 4011	251.7	22.24	18.43	14.01	10.39	10.35	8.948	7.262	7.317	7.173	5.926	4.749	4.504	4.431	3.954	3.285	3.421	2.953	2.626	2.786	2.403	2.604	2.302	2.012	1.999	1.939	1.803	1.766	1.570	1.576	1.570	1.401	1.428	1.198	1.262	1.122	1.152	1.076	1.142	1.112	0.886	0.919	1.854	6.507	11.97	9.551	4.568	1.325	0.683	0.715	0.710	0.747	0.662	0.610	0.585	0.560	0.607	0.596	0.604	0.596	0.607	0.524	0.473	0.500	0.580	0.460	0.530	0.539	0.541	0.500	0.478	0.490	0.481
235.0	50.28	289.4	 3295	 8167	 5745	436.9	26.90	15.86	12.76	9.153	9.719	8.850	8.381	6.533	6.971	5.338	5.308	3.768	4.233	3.422	3.221	3.056	2.821	3.021	2.466	2.180	2.304	1.895	1.994	2.205	1.468	1.815	1.667	1.284	1.404	1.340	1.305	1.274	1.299	1.254	1.198	1.287	1.121	1.106	1.002	1.036	1.174	2.159	4.709	8.132	11.97	13.45	7.366	2.265	0.786	0.544	0.768	0.740	0.562	0.756	0.461	0.559	0.788	0.547	0.430	0.501	0.513	0.583	0.567	0.554	0.530	0.452	0.525	0.638	0.516	0.531	0.384
240.0	59.12	120.6	816.0	 4628	9999.9	 5432	300.7	19.28	12.55	11.01	9.456	8.625	8.433	6.167	5.676	5.743	4.764	4.160	4.443	3.442	3.448	2.988	2.963	2.707	2.295	2.261	2.188	2.159	2.120	2.362	1.845	1.682	2.044	1.307	1.385	1.281	1.594	1.470	1.396	1.218	1.175	1.208	1.034	1.173	1.217	1.222	1.038	1.127	1.737	2.515	6.141	16.12	19.21	14.42	5.291	1.107	0.743	0.814	0.521	0.657	0.643	0.719	0.741	0.531	0.544	0.426	0.601	0.566	0.525	0.554	0.471	0.433	0.578	0.494	0.561	0.612	0.449
245.0	46.01	110.5	243.4	 1243	 7788	9999.9	 4839	111.6	15.88	15.86	10.53	9.079	10.51	8.283	6.264	5.920	4.797	4.764	4.354	3.913	4.053	3.421	3.120	3.135	2.500	2.851	2.494	2.384	2.142	2.503	1.475	1.817	1.958	1.537	1.491	1.273	1.539	1.388	1.400	1.109	1.275	1.203	0.959	1.012	1.129	1.057	1.320	1.141	1.253	1.218	2.082	5.379	12.16	21.91	23.65	13.17	4.075	0.874	0.722	0.834	0.592	0.683	0.839	0.615	0.630	0.559	0.574	0.565	0.567	0.587	0.604	0.419	0.615	0.520	0.450	0.579	0.469
250.0	33.86	72.02	171.4	378.6	 2043	 9465	9999.9	 7404	265.1	21.95	13.65	13.01	11.55	8.337	6.816	7.493	5.795	5.595	4.821	3.903	3.760	3.329	3.248	3.019	2.738	2.713	2.534	2.471	2.162	2.312	1.853	1.651	1.907	1.453	1.455	1.457	1.305	1.325	1.398	1.231	1.261	1.361	1.138	1.143	1.078	1.050	1.230	1.353	1.428	1.224	1.274	1.797	3.476	7.121	12.92	20.78	25.79	23.52	14.57	4.643	0.896	0.628	0.699	0.544	0.646	0.633	0.653	0.578	0.637	0.546	0.700	0.438	0.483	0.611	0.574	0.600	0.469
255.0	38.37	56.96	103.6	273.9	600.0	 2192	 5558	9999.9	 4939	376.9	22.21	14.11	10.72	11.61	7.748	8.037	6.050	5.852	4.895	4.169	4.041	3.241	3.279	3.279	2.844	2.245	3.262	2.629	2.373	2.441	2.254	1.975	2.091	1.437	1.813	1.618	1.258	1.318	1.349	1.132	1.157	1.124	1.074	1.215	1.109	1.024	1.064	1.168	1.203	1.238	1.553	1.769	1.735	2.240	3.725	5.440	9.465	22.56	42.92	43.38	23.37	5.431	0.926	0.844	0.760	0.678	0.604	0.674	0.665	0.546	0.749	0.452	0.533	0.715	0.389	0.622	0.656
260.0	35.41	45.33	64.59	162.2	383.0	590.3	 1393	 7411	9999.9	 4276	224.3	21.06	16.49	10.62	9.816	8.145	5.998	5.869	5.476	4.211	4.633	3.496	3.847	3.020	3.345	2.981	2.483	2.294	2.458	2.155	2.144	2.053	1.837	1.834	1.568	1.813	1.124	1.135	1.207	1.202	1.251	1.164	1.372	1.168	1.059	1.058	0.947	0.950	1.016	0.886	1.225	1.641	2.120	1.593	1.524	1.853	2.770	6.283	18.47	39.88	58.86	42.52	18.15	3.096	0.756	0.593	0.635	0.664	0.583	0.588	0.676	0.484	0.551	0.490	0.532	0.639	0.626
265.0	44.49	51.17	48.84	77.83	269.0	404.5	388.5	 1976	 7357	9999.9	 3292	118.2	21.92	14.49	10.98	9.004	6.719	6.213	6.025	5.172	4.732	4.010	4.071	3.400	3.126	2.902	2.680	2.740	2.538	2.556	2.298	1.992	1.781	1.932	1.542	1.829	1.166	1.379	1.080	1.147	1.302	1.169	1.134	1.176	1.023	0.993	0.884	0.937	0.911	0.878	0.927	1.256	1.758	2.180	1.996	1.199	1.328	1.984	4.977	11.92	30.25	58.58	72.08	39.14	9.911	1.144	0.543	0.819	0.552	0.691	0.748	0.630	0.781	0.764	0.578	0.617	0.581
270.0	51.33	59.16	54.50	53.36	123.4	312.6	401.8	543.7	 1891	 6895	9999.9	9999.9	203.0	22.26	15.84	12.13	8.955	7.873	6.550	5.640	4.857	4.333	3.794	3.506	3.085	2.988	2.864	2.879	2.558	2.635	2.178	2.076	1.894	1.650	1.686	1.837	1.462	1.298	1.192	1.250	1.321	1.268	1.248	1.084	1.258	1.076	1.095	1.051	0.925	0.966	0.834	1.055	1.061	1.316	1.840	1.946	2.142	1.678	1.795	3.423	7.734	17.05	33.90	53.92	57.08	64.19	25.88	10.60	1.127	0.709	0.729	0.669	0.685	0.741	0.592	0.697	0.562
275.0	72.01	82.11	69.38	63.88	69.16	132.2	368.4	517.6	516.0	 1620	 4179	9999.9	9999.9	256.3	25.55	17.05	12.05	8.678	7.132	5.690	5.122	4.956	3.729	3.561	3.787	3.354	3.028	2.968	2.808	2.708	2.461	2.521	2.016	1.660	1.985	2.018	1.720	1.401	1.220	1.227	1.491	1.338	1.503	1.266	1.334	1.120	1.085	1.209	1.187	0.937	0.924	0.947	0.927	1.033	1.071	1.309	2.449	2.914	2.456	1.847	2.487	4.637	8.345	13.15	18.97	48.12	98.77	114.2	38.51	8.829	0.917	0.958	0.579	0.888	0.591	0.705	0.921
280.0	83.99	112.6	96.21	86.19	77.92	90.04	183.9	565.4	449.8	458.8	 1074	 5683	9999.9	9999.9	164.2	23.12	14.56	9.974	7.946	7.423	6.598	5.393	5.006	4.102	3.486	3.795	3.425	3.012	2.506	3.066	2.670	2.560	2.279	2.001	2.082	1.883	1.953	1.339	1.433	1.522	1.348	1.413	1.398	1.307	1.324	1.331	1.226	1.170	1.207	1.078	1.081	1.002	1.010	0.973	1.031	1.126	1.305	2.180	3.356	3.222	2.307	1.917	2.643	3.791	5.030	12.94	35.80	88.97	130.9	54.20	26.92	3.264	0.815	1.089	0.742	0.812	0.782
285.0	122.5	144.2	138.5	109.5	97.17	86.29	115.4	331.9	699.2	357.4	394.7	 1534	 8339	9999.9	 2106	103.5	20.19	13.37	8.583	8.393	7.535	5.352	5.425	4.669	3.669	4.142	3.515	3.723	2.780	2.968	2.871	2.688	2.276	2.147	1.943	1.735	2.025	1.610	1.692	1.447	1.460	1.461	1.281	1.528	1.396	1.501	1.300	1.366	1.368	1.079	1.100	1.117	0.934	0.893	0.865	0.995	1.004	1.519	1.939	3.330	4.259	2.647	1.633	1.847	2.114	3.976	9.250	23.64	58.55	112.4	144.4	47.14	13.95	1.260	0.784	0.988	0.836
290.0	145.8	189.7	199.9	152.6	130.3	125.7	128.2	198.7	477.3	711.4	450.0	611.2	 2238	 7553	9999.9	 8027	124.3	22.58	13.73	9.833	8.373	7.126	6.669	5.216	4.711	4.580	4.076	3.562	3.244	3.129	2.904	2.647	2.475	2.266	2.031	2.042	2.028	1.902	1.923	1.693	1.585	1.507	1.471	1.693	1.647	1.697	1.596	1.821	1.444	1.334	1.140	1.381	0.986	1.165	1.041	1.030	1.209	1.290	1.558	1.791	2.835	3.477	3.833	3.568	2.374	2.679	3.485	7.005	14.88	30.27	61.59	89.27	116.4	95.07	29.06	11.92	1.425
295.0	172.9	258.2	283.3	234.4	195.2	187.9	173.9	223.4	313.6	575.1	 1096	718.2	860.9	 1988	 3719	9999.9	9999.9	160.0	22.43	14.50	11.21	8.869	7.593	5.615	5.333	4.446	4.284	3.437	3.658	3.400	2.905	2.821	2.987	2.636	2.071	2.340	2.116	2.017	1.602	1.813	1.704	1.617	1.589	1.820	1.885	1.898	1.878	1.694	1.693	1.512	1.480	1.507	1.362	1.411	1.142	1.199	1.464	1.412	1.753	1.656	2.037	2.212	3.047	4.673	5.858	3.962	3.012	3.672	5.731	8.758	15.55	21.58	33.15	67.35	143.4	163.3	44.71
300.0	202.9	308.6	327.5	286.2	267.5	228.4	231.5	265.2	333.0	472.7	 1017	 1241	745.2	843.6	 1114	 4973	9999.9	 8973	114.6	18.79	14.43	10.52	7.982	6.888	5.958	4.777	4.853	3.886	3.672	3.956	3.420	3.147	2.919	2.588	2.267	2.347	2.256	2.050	2.003	1.849	1.850	1.776	1.775	1.981	1.999	1.962	1.958	1.668	2.094	1.644	1.576	1.390	1.592	1.600	1.287	1.472	1.486	1.877	1.969	1.702	2.168	2.257	2.720	3.401	5.069	6.419	5.661	3.966	4.026	4.434	5.478	6.758	8.912	17.10	48.28	121.8	175.0
305.0	232.3	322.8	377.4	336.6	303.8	264.8	284.6	309.5	377.5	506.0	795.7	 1444	 1107	700.8	591.9	 1357	 7455	9999.9	 6369	75.33	17.76	13.11	8.990	7.516	6.971	5.611	5.479	4.032	4.207	3.923	3.274	3.428	2.876	2.555	2.231	2.011	2.357	1.991	1.844	1.827	1.694	2.125	2.049	1.812	1.916	2.267	1.860	2.037	2.311	1.794	1.628	1.648	1.673	1.697	1.652	1.644	1.927	1.898	2.158	1.908	2.384	2.569	2.828	3.056	3.500	5.038	7.146	6.950	4.849	3.970	3.610	3.450	3.885	5.375	12.16	31.39	74.45
310.0	250.0	373.5	424.7	379.3	354.8	330.2	336.8	383.7	441.9	563.8	765.7	 1100	 1472	 1117	620.2	582.3	 1908	 7002	9999.9	9999.9	88.40	20.38	13.04	9.518	7.786	6.429	5.517	5.156	4.108	3.964	3.733	3.198	3.092	2.644	2.264	2.364	2.328	2.267	2.109	1.985	2.029	2.011	2.142	1.936	1.857	2.263	2.014	2.373	2.171	1.972	1.782	1.903	1.893	1.940	1.905	1.744	2.078	2.167	2.250	2.251	2.547	2.610	3.237	3.160	3.717	4.186	5.374	6.369	7.103	6.198	4.763	3.591	3.393	3.290	4.338	8.553	18.03
315.0	267.0	413.0	480.1	430.3	391.5	371.3	370.3	431.6	499.8	629.3	824.8	 1010	 1220	 1505	985.5	507.0	647.9	 1708	 3445	9999.9	 8275	115.3	18.84	12.23	9.888	7.752	6.837	5.185	4.988	4.272	4.105	3.836	3.583	2.914	2.425	2.787	2.428	2.143	1.958	1.980	2.113	2.149	2.165	1.784	2.031	2.375	2.084	2.677	2.341	2.101	1.884	1.969	2.119	1.851	1.951	2.144	2.584	2.494	2.485	2.355	2.924	2.672	3.488	3.592	4.058	4.113	4.814	4.999	5.349	6.492	8.016	6.123	3.909	3.291	3.374	3.965	5.945
320.0	294.5	447.7	542.7	492.2	419.5	406.9	419.6	467.5	538.9	673.3	865.3	 1062	 1160	 1331	 1388	666.3	425.0	563.9	900.1	 4905	9999.9	 6876	85.02	16.82	12.58	9.854	7.457	5.432	4.575	4.428	3.802	3.665	3.501	3.259	2.693	2.834	2.673	2.572	2.337	2.271	2.211	2.078	1.902	1.865	1.945	2.303	2.608	2.745	2.282	2.226	2.267	2.023	1.999	2.072	2.114	2.239	2.364	2.446	2.586	2.176	2.774	2.912	3.487	3.408	4.145	4.596	4.501	5.156	5.200	5.564	6.685	7.114	6.852	4.963	3.157	2.922	3.380
325.0	314.1	492.4	601.7	553.9	469.8	417.4	443.5	502.9	577.1	709.3	930.8	 1104	 1202	 1206	 1355	 1029	459.8	355.0	355.8	 1246	 7603	9999.9	 5033	57.68	15.35	10.92	8.457	6.232	6.709	4.520	4.600	3.684	3.498	2.966	2.790	2.782	2.581	2.654	2.434	2.551	2.129	1.963	2.079	2.211	1.872	2.614	2.480	2.618	2.810	2.564	2.308	2.177	2.265	2.212	2.252	2.258	2.501	2.721	2.785	2.732	2.785	3.000	4.040	3.770	4.498	4.631	4.864	5.193	5.759	5.585	6.007	5.573	7.571	6.681	4.708	3.500	2.947
330.0	327.6	524.0	685.9	659.8	554.2	462.0	476.9	528.4	616.8	761.2	959.8	 1130	 1230	 1216	 1148	 1108	801.3	421.0	288.6	427.9	 1884	 6931	9999.9	 9713	339.7	17.36	10.76	8.657	7.186	6.093	5.162	4.638	4.227	3.183	3.011	2.639	2.742	2.519	2.400	2.302	2.321	2.112	2.116	2.219	2.289	2.808	2.769	3.220	2.812	2.926	2.565	2.339	2.536	2.290	2.330	2.344	2.485	2.557	2.940	3.031	3.312	3.540	3.784	4.295	4.770	4.760	5.206	5.363	5.822	5.766	5.646	5.092	6.130	5.585	6.010	6.051	4.304
335.0	337.0	562.7	751.7	714.2	624.1	514.4	503.9	556.9	651.5	817.6	996.0	 1155	 1258	 1239	 1109	932.9	939.2	736.2	363.2	300.0	572.8	 1659	 3674	9999.9	 6588	92.56	16.83	11.91	8.819	7.170	5.370	5.004	4.124	3.783	3.127	2.965	3.148	2.658	2.422	2.418	2.163	2.101	2.339	2.255	2.264	2.862	2.661	3.365	3.055	3.062	2.731	2.447	2.649	2.787	2.460	2.315	2.526	2.747	3.313	3.161	3.562	3.509	3.714	4.223	4.397	4.523	5.123	5.494	5.565	5.993	5.508	5.143	5.044	4.802	4.846	5.163	6.031
340.0	345.2	549.6	793.9	780.3	673.3	576.5	554.7	593.5	676.6	844.5	 1006	 1166	 1260	 1259	 1129	927.6	817.9	904.7	552.4	326.5	325.0	518.7	950.7	 5434	9999.9	 5545	70.91	15.03	10.64	8.142	6.151	5.825	4.874	3.909	3.037	3.056	2.797	2.866	2.312	2.080	2.100	2.275	2.600	2.383	2.335	2.606	2.695	3.091	3.376	3.217	2.788	2.971	2.701	2.712	2.934	2.586	2.605	3.189	3.259	3.296	3.395	3.305	3.879	4.479	4.420	5.154	5.019	5.515	5.831	5.995	6.026	5.666	5.311	4.841	5.166	4.610	4.902
345.0	351.8	548.9	808.5	813.1	746.4	654.1	599.9	647.9	719.9	848.5	 1020	 1160	 1255	 1271	 1147	946.2	777.8	818.5	804.9	441.9	322.4	313.0	358.9	 1381	 8431	9999.9	 4213	49.35	13.84	10.03	7.921	6.169	5.036	4.312	3.118	3.252	2.642	2.613	2.371	2.650	2.105	2.412	2.452	2.288	2.490	2.980	2.918	3.480	3.512	3.213	2.971	3.166	3.293	3.148	2.901	3.038	3.157	3.051	2.906	3.516	3.102	3.331	3.995	4.263	4.445	4.828	5.155	5.697	6.146	5.741	5.870	6.153	5.835	5.414	5.230	5.047	4.345
350.0	342.7	510.2	758.1	826.8	795.8	750.2	702.1	744.8	789.8	910.7	 1036	 1174	 1253	 1258	 1178	992.0	826.3	753.5	806.5	741.7	462.9	348.1	300.4	473.9	 2116	 7576	9999.9	 8366	59.88	14.49	10.38	7.412	5.718	4.652	3.989	3.682	2.867	3.097	2.631	2.684	2.383	2.310	2.311	2.377	2.678	2.944	2.980	3.372	3.543	3.278	3.053	3.339	3.379	3.511	3.256	3.324	3.442	3.519	3.432	3.461	3.887	3.904	4.140	4.336	4.745	5.021	4.992	5.006	5.892	5.793	6.149	5.801	5.655	5.464	5.313	5.455	4.789
355.0	328.1	514.0	711.4	827.5	847.0	844.2	816.2	847.9	884.4	985.1	 1087	 1178	 1253	 1250	 1208	 1045	911.9	807.2	761.5	815.1	767.1	480.8	377.0	348.4	651.8	 1824	 4133	9999.9	 5687	80.21	15.11	9.652	7.222	5.911	4.327	3.374	3.413	3.105	2.522	2.699	2.419	2.372	2.392	2.221	2.886	2.857	2.932	3.643	3.421	3.082	3.021	3.616	3.677	3.753	3.482	4.041	3.530	3.423	3.799	3.799	4.236	4.201	4.399	5.101	5.121	5.340	5.270	5.459	5.487	5.516	5.864	5.828	5.419	5.734	5.220	5.160	5.108
360.0	323.6	522.6	705.9	856.2	914.9	908.6	886.7	917.3	977.7	 1048	 1166	 1219	 1272	 1274	 1213	 1077	969.4	865.0	811.6	783.5	881.0	695.6	467.2	373.5	377.0	578.0	 1070	 6160	9999.9	 4832	58.64	14.10	8.566	7.148	4.619	4.363	3.993	3.494	2.740	2.793	2.555	2.598	2.345	2.689	2.483	2.775	2.789	3.643	3.027	3.091	3.242	3.908	3.400	3.725	3.518	4.093	4.201	4.115	4.323	4.393	4.295	4.260	4.655	4.740	4.862	5.301	5.420	5.440	5.548	5.355	6.041	5.803	5.842	5.505	5.650	5.575	6.198
365.0	328.2	523.4	681.7	857.4	934.4	953.1	972.2	999.6	 1049	 1114	 1198	 1255	 1289	 1271	 1237	 1122	 1010	927.2	868.2	797.1	849.8	885.9	604.4	446.8	371.4	347.2	395.3	 1583	 9242	9999.9	 3509	39.86	11.47	8.573	6.134	4.232	3.749	3.519	3.096	2.856	2.577	2.812	2.328	2.688	2.757	2.850	3.121	3.457	3.086	3.037	3.009	3.890	3.702	3.625	4.092	3.946	4.311	4.305	4.372	4.585	4.411	4.473	5.145	5.360	5.850	5.572	5.840	5.296	5.898	5.654	5.831	5.931	6.209	6.423	5.410	6.341	5.617
370.0	335.5	495.5	722.5	864.5	954.6	 1013	 1054	 1075	 1131	 1204	 1237	 1282	 1300	 1285	 1254	 1152	 1071	997.3	942.7	880.1	850.6	893.4	849.0	607.2	462.2	373.6	308.7	514.5	 2349	 8256	9999.9	 7287	49.18	13.25	8.187	5.817	4.823	3.988	3.529	3.090	2.583	2.911	2.767	2.497	2.599	2.867	2.895	3.216	3.176	3.343	3.225	3.985	4.460	3.588	4.070	4.103	4.302	4.575	4.805	4.571	4.688	5.046	5.301	5.321	5.921	5.597	5.609	5.889	5.613	5.819	6.363	6.032	6.555	5.862	6.203	6.119	5.880
375.0	320.3	471.3	729.1	855.1	995.5	 1057	 1082	 1111	 1187	 1238	 1272	 1330	 1315	 1298	 1259	 1179	 1118	 1061	 1025	962.9	919.3	885.4	907.7	856.2	607.9	467.1	374.2	339.8	682.1	 1958	 4718	9999.9	 4759	62.51	12.41	7.780	6.250	4.685	3.552	3.564	2.863	2.816	2.667	2.598	2.724	2.857	2.882	3.039	3.180	3.301	3.348	3.866	3.915	4.159	4.393	4.414	4.796	4.888	5.098	5.196	4.979	5.110	5.322	5.274	5.724	5.558	5.316	5.664	5.631	5.561	6.468	6.099	6.136	6.170	6.996	6.543	6.494
380.0	324.0	483.4	717.9	857.5	 1009	 1110	 1128	 1170	 1219	 1277	 1296	 1325	 1320	 1286	 1256	 1197	 1138	 1087	 1054	 1014	973.6	928.5	882.5	931.1	783.0	558.7	437.5	348.5	356.4	576.2	 1194	 6880	9999.9	 3810	44.90	11.47	8.122	6.000	4.169	3.629	3.464	3.275	2.662	3.007	2.902	3.007	3.084	3.076	3.372	3.270	3.191	4.107	4.175	4.239	4.654	4.394	5.385	4.766	4.772	5.464	4.809	5.886	5.588	5.780	5.671	5.747	5.719	6.118	5.346	5.892	6.590	6.287	5.976	5.880	6.723	6.423	6.720
385.0	315.4	485.7	708.6	862.0	 1013	 1120	 1133	 1180	 1234	 1286	 1301	 1311	 1330	 1290	 1250	 1205	 1157	 1115	 1090	 1066	 1014	964.5	900.5	899.3	918.1	691.4	502.8	405.2	323.4	307.2	388.4	 1776	 9684	9999.9	557.8	27.69	9.618	7.158	5.379	3.932	3.796	3.128	2.913	3.103	3.426	3.024	3.328	3.112	3.327	3.029	3.475	3.842	4.345	4.277	4.538	4.894	5.114	5.198	4.811	5.126	5.242	5.847	5.440	6.087	5.669	5.477	5.680	5.566	5.831	5.767	5.938	6.055	5.711	6.484	6.664	6.951	7.114
390.0	305.1	494.6	697.8	864.2	 1034	 1121	 1181	 1217	 1244	 1294	 1299	 1304	 1296	 1276	 1263	 1200	 1163	 1129	 1117	 1092	 1057	 1014	951.7	904.2	900.4	850.5	643.1	488.4	382.9	309.4	258.6	516.0	 2482	 8064	9999.9	 5406	39.13	10.09	7.322	5.328	4.266	3.363	3.081	3.261	3.383	2.931	3.295	3.176	3.343	3.198	3.576	3.968	4.095	4.531	4.352	5.203	5.065	4.975	5.008	5.285	5.231	5.670	5.547	5.393	5.983	5.504	5.740	5.683	6.056	5.669	5.822	5.803	5.967	6.484	6.507	6.926	6.766
395.0	283.6	462.0	693.6	853.0	 1002	 1118	 1191	 1229	 1238	 1276	 1299	 1304	 1301	 1259	 1222	 1190	 1148	 1139	 1121	 1117	 1079	 1037	994.3	945.9	889.9	873.6	829.8	618.1	464.3	368.8	286.3	279.4	664.9	 1885	 4618	9999.9	 3787	50.18	10.29	6.132	5.484	4.059	3.543	3.549	3.344	2.919	3.214	3.468	3.367	3.329	3.358	3.970	4.115	4.585	4.206	5.183	5.191	4.973	4.894	4.951	5.214	5.241	5.224	5.155	5.991	5.744	5.503	5.491	5.813	5.735	5.550	6.099	5.651	6.388	6.521	6.826	7.389
400.0	294.5	451.7	665.2	838.3	 1028	 1093	 1148	 1224	 1224	 1284	 1297	 1295	 1287	 1246	 1233	 1171	 1139	 1127	 1122	 1111	 1090	 1067	 1008	967.7	913.2	862.9	868.9	744.7	534.3	429.3	333.5	259.6	286.2	516.2	 1148	 6497	9999.9	 2996	34.85	8.064	6.386	5.022	3.840	3.598	3.365	3.426	3.393	3.038	3.209	3.357	3.360	4.074	4.267	4.569	4.621	4.353	5.236	4.846	5.039	5.139	4.950	5.625	5.061	5.534	5.414	5.587	5.595	5.831	5.857	6.218	5.909	6.371	5.614	6.232	6.698	6.367	7.499
405.0	283.6	471.7	654.6	836.1	 1016	 1092	 1172	 1239	 1230	 1274	 1284	 1287	 1277	 1236	 1216	 1139	 1121	 1119	 1108	 1118	 1090	 1055	 1033	983.0	931.1	870.2	838.4	832.6	639.5	481.7	376.4	289.2	228.6	232.8	339.9	 1678	 8599	9999.9	466.0	20.74	7.235	5.928	4.479	4.215	3.566	3.692	3.425	3.525	3.410	3.079	3.322	3.971	4.022	4.611	4.844	4.230	5.220	4.888	4.975	5.330	5.033	5.469	5.455	5.373	5.179	4.965	5.838	5.277	5.450	5.931	5.706	6.093	5.650	5.861	6.481	6.110	7.193
410.0	282.9	449.5	654.5	802.8	959.9	 1089	 1163	 1216	 1232	 1250	 1276	 1277	 1242	 1215	 1186	 1122	 1096	 1089	 1093	 1089	 1073	 1050	 1028	992.2	944.6	890.9	835.5	808.6	760.4	595.5	445.8	340.3	261.5	206.0	185.8	453.5	 2200	 7088	9999.9	 2042	32.89	8.658	6.159	4.886	3.721	3.936	3.188	3.335	3.404	3.286	3.331	4.152	4.058	4.568	4.741	4.502	5.141	5.412	5.289	5.205	5.144	5.284	5.298	5.271	5.432	5.438	5.503	5.529	5.332	6.036	5.584	5.795	5.916	5.770	6.220	6.121	6.595
