Sample:	'1
File name:	C2025082911Ê¡¿Ø¶ÏÃæ.FD3
Run date:	'14:33:01, 08/29/2025
Operator:	Administrator
Comment:	'

Instrument
Model:	F-2700 FL Spectrophotometer
Serial number:	3064-004
ROM Version:	4J14000 07

Instrument parameters
Measurement type:	3-D scan
Data mode:	Fluorescence
EX  Start WL:	220.0 nm
EX  End WL:	600.0 nm
EX Sampling interval:	5.0 nm
EM  Start WL:	230.0 nm
EM  End WL:	650.0 nm
EM Sampling interval:	5.0 nm
Scan speed:	12000 nm/min
EX Slit:	5.0 nm
EM Slit:	5.0 nm
PMT Voltage:	700 V
Response:	Auto 
Corrected spectra:	Off
Contour interval:	50.000

Peak integration
Integration method:	Rectangular
Sensitivity:	1
Threshold:	1.000

Peaks
No.	ApexEX/EM(nm)	Height(Data)
1	230.0/340.0	373.3
2	230.0/585.0	21.66
3	230.0/595.0	22.14
4	230.0/635.0	14.12
5	235.0/345.0	388.4
6	235.0/625.0	14.95
7	240.0/260.0	400.1
8	250.0/545.0	268.3
9	255.0/280.0	751.2
10	255.0/555.0	235.8
11	260.0/235.0	5.324
12	260.0/285.0	825.3
13	260.0/450.0	 1625
14	260.0/570.0	183.5
15	265.0/290.0	769.6
16	265.0/580.0	160.3
17	270.0/295.0	 1112
18	270.0/590.0	134.7
19	275.0/305.0	 1326
20	275.0/380.0	692.9
21	275.0/605.0	124.2
22	280.0/310.0	 1189
23	280.0/355.0	644.1
24	280.0/615.0	99.46
25	285.0/315.0	 1166
26	285.0/630.0	81.57
27	290.0/320.0	 1055
28	290.0/645.0	61.09
29	295.0/330.0	817.9
30	300.0/335.0	733.2
31	305.0/340.0	759.2
32	310.0/345.0	635.9
33	315.0/355.0	592.6
34	320.0/360.0	692.3
35	325.0/365.0	693.3
36	330.0/370.0	654.2
37	335.0/380.0	706.4
38	340.0/385.0	706.2
39	350.0/400.0	654.0
40	365.0/450.0	 1281
41	425.0/500.0	84.52
42	445.0/525.0	40.63
43	455.0/540.0	27.18
44	470.0/560.0	12.30
45	485.0/265.0	2.235
46	485.0/580.0	5.398
47	495.0/270.0	2.188
48	495.0/595.0	3.283
49	505.0/275.0	3.151
50	510.0/280.0	3.753
51	515.0/285.0	4.107
52	515.0/455.0	8.733
53	525.0/450.0	8.778
54	530.0/290.0	3.610
55	545.0/300.0	5.839
56	550.0/305.0	6.383
57	560.0/310.0	5.456
58	570.0/315.0	6.054
59	575.0/320.0	5.906
60	580.0/325.0	5.460
61	590.0/330.0	4.634

Data points
	220.0	225.0	230.0	235.0	240.0	245.0	250.0	255.0	260.0	265.0	270.0	275.0	280.0	285.0	290.0	295.0	300.0	305.0	310.0	315.0	320.0	325.0	330.0	335.0	340.0	345.0	350.0	355.0	360.0	365.0	370.0	375.0	380.0	385.0	390.0	395.0	400.0	405.0	410.0	415.0	420.0	425.0	430.0	435.0	440.0	445.0	450.0	455.0	460.0	465.0	470.0	475.0	480.0	485.0	490.0	495.0	500.0	505.0	510.0	515.0	520.0	525.0	530.0	535.0	540.0	545.0	550.0	555.0	560.0	565.0	570.0	575.0	580.0	585.0	590.0	595.0	600.0
230.0	24.33	993.9	 4726	 2217	74.12	7.210	5.313	2.870	2.448	3.135	2.935	2.928	2.772	2.141	1.797	1.757	2.194	1.023	1.637	1.174	1.082	1.105	0.872	0.701	0.909	0.792	0.770	0.798	0.717	0.635	0.728	0.582	0.491	0.387	0.435	0.523	0.516	0.443	0.412	0.395	0.453	0.512	0.627	0.302	0.301	0.252	1.422	5.976	9.656	6.753	2.443	0.476	0.197	0.168	0.183	0.118	0.133	0.108	0.137	0.112	0.101	0.082	0.049	0.003	0.021	0.005	-0.038	-0.056	-0.051	-0.006	-0.047	-0.004	-0.042	-0.030	-0.040	-0.033	-0.076
235.0	57.24	250.0	 2186	 5004	 1089	100.3	6.134	3.815	5.324	2.699	2.832	2.815	1.798	2.042	1.510	1.592	1.961	1.557	1.236	0.764	1.382	0.909	1.026	1.037	0.733	1.042	0.728	0.485	0.661	0.482	0.534	0.409	0.482	0.264	0.345	0.557	0.345	0.367	0.644	0.485	0.530	0.505	0.514	0.434	0.426	0.266	0.485	1.681	4.026	6.843	9.104	7.878	3.044	0.571	0.151	0.101	0.211	0.134	0.295	0.145	0.125	0.076	0.175	0.119	0.086	0.015	0.008	-0.021	-0.004	-0.007	-0.044	-0.012	-0.054	-0.057	-0.027	-0.031	-0.122
240.0	78.15	128.5	549.6	 3059	 4752	868.5	46.70	6.211	4.218	4.736	2.593	3.278	2.363	2.946	2.466	2.168	1.687	1.350	0.898	1.049	0.992	0.658	0.970	1.160	0.758	1.419	0.841	0.474	0.779	0.617	0.680	0.499	0.393	0.412	0.483	0.330	0.333	0.556	0.474	0.453	0.445	0.438	0.453	0.503	0.575	0.735	0.554	0.687	1.166	2.070	5.539	11.61	13.17	7.816	2.217	0.236	0.151	0.082	0.211	0.104	0.131	-0.017	0.016	0.055	0.024	0.120	-0.040	0.109	-0.013	0.016	-0.048	0.040	-0.128	-0.003	-0.117	-0.007	0.252
245.0	53.20	129.7	182.1	855.0	 3587	 5059	691.9	17.33	6.388	7.833	5.655	4.052	2.079	3.631	2.333	2.559	1.716	0.901	1.525	1.344	1.224	1.396	0.890	0.848	1.077	0.908	0.875	0.887	0.677	0.854	0.983	1.005	0.592	0.488	0.362	0.502	0.281	0.577	0.470	0.437	0.434	0.444	0.358	0.229	0.690	0.602	0.932	0.706	0.533	0.686	1.547	4.365	9.451	15.31	14.14	7.175	1.262	0.038	0.173	0.144	0.098	0.074	-0.004	0.088	0.008	0.104	0.076	0.076	0.075	-0.109	-0.092	-0.096	0.052	-0.052	-0.042	0.005	0.042
250.0	28.54	71.53	188.7	313.1	972.3	 3554	 4661	 2274	160.0	9.783	6.978	5.492	4.361	3.450	2.588	2.081	2.293	1.536	1.358	1.352	1.340	1.393	0.946	0.739	0.940	0.983	0.636	1.250	0.777	1.003	0.753	0.821	0.550	0.606	0.368	0.515	0.290	0.310	0.329	0.423	0.512	0.488	0.293	0.300	0.475	0.351	0.632	0.849	0.917	1.046	0.704	1.237	2.464	5.625	9.658	15.00	16.16	12.54	5.976	1.507	0.155	0.137	0.005	0.076	0.045	-0.008	0.067	0.003	-0.015	0.038	0.069	-0.024	0.022	-0.064	0.011	-0.019	-0.024
255.0	24.79	31.59	100.3	311.8	353.8	842.4	 2309	 6746	 3295	179.1	11.72	8.417	5.760	4.594	4.157	2.528	2.490	1.924	1.633	1.045	1.130	0.833	0.970	0.935	0.871	0.938	0.699	1.070	0.584	1.059	0.642	0.642	0.519	0.649	0.303	0.503	0.362	0.428	0.311	0.279	0.412	0.520	0.457	0.508	0.394	0.298	0.343	0.380	0.673	0.953	1.254	1.279	0.959	1.325	2.275	3.919	7.353	16.05	25.28	24.79	8.878	1.443	0.115	0.080	0.011	0.078	0.043	-0.017	0.034	0.062	0.061	0.027	0.043	-0.049	-0.018	-0.055	-0.043
260.0	32.29	22.80	35.83	215.7	400.1	264.2	599.0	 3908	 7832	 2707	73.64	12.60	7.555	5.871	4.254	2.331	2.247	2.425	2.192	1.276	1.307	1.301	1.143	0.877	0.969	1.041	0.887	1.120	0.847	0.808	0.799	0.791	1.024	0.798	0.268	0.537	0.346	0.368	0.263	0.287	0.530	0.421	0.597	0.501	0.496	0.374	0.281	0.247	0.406	0.529	0.923	1.757	1.663	0.920	0.726	0.964	1.907	5.009	13.18	29.82	31.09	19.66	4.960	0.508	-0.001	0.103	0.048	-0.035	0.024	-0.002	0.002	0.056	-0.065	0.031	-0.057	0.000	-0.054
265.0	44.75	19.83	22.56	85.50	357.9	343.8	181.9	 1086	 5436	 8897	504.5	28.31	9.153	9.246	3.546	3.264	2.349	2.615	2.845	1.990	1.536	1.162	1.461	1.405	0.846	0.723	1.016	1.048	1.009	1.023	0.755	0.704	0.829	0.692	0.425	0.669	0.343	0.311	0.269	0.179	0.278	0.412	0.495	0.426	0.332	0.501	0.299	0.379	0.570	0.311	0.473	0.860	1.879	2.235	1.450	0.618	0.694	1.353	3.413	9.947	20.46	35.05	32.64	16.78	2.300	0.154	0.014	0.034	0.059	-0.032	0.014	0.011	-0.064	-0.003	-0.050	0.011	-0.077
270.0	46.37	27.08	17.16	33.05	126.9	386.6	394.6	316.2	 1466	 5301	 8240	 4019	133.8	10.47	6.749	4.952	3.293	2.854	2.617	1.957	1.770	1.863	1.434	1.239	1.483	0.910	1.108	1.122	0.828	1.083	1.005	0.742	0.808	0.555	0.671	0.412	0.422	0.444	0.466	0.321	0.457	0.434	0.281	0.519	0.401	0.590	0.412	0.345	0.515	0.413	0.370	0.375	0.751	1.241	2.070	2.188	1.905	0.971	1.035	2.486	5.156	11.36	20.17	33.33	33.75	28.11	11.91	2.188	0.086	0.101	0.031	0.135	0.076	0.047	-0.054	0.039	0.050
275.0	51.06	38.03	26.79	21.89	41.59	134.8	507.9	517.0	393.2	 1251	 3632	9999.9	 2867	140.9	10.47	7.248	3.759	3.880	3.590	1.984	1.656	1.865	1.836	1.373	1.185	1.575	0.965	1.258	1.025	1.059	0.983	0.915	0.530	0.659	0.740	0.582	0.485	0.567	0.486	0.408	0.553	0.351	0.382	0.452	0.385	0.647	0.520	0.405	0.481	0.406	0.349	0.338	0.419	0.522	0.637	1.356	2.714	3.151	1.958	1.191	1.457	2.834	4.750	8.070	13.25	32.49	51.49	41.70	14.32	1.323	0.241	0.148	0.162	-0.005	0.060	0.040	-0.044
280.0	64.62	51.45	36.75	33.47	25.36	50.62	234.0	751.2	404.5	342.3	945.7	 5215	9999.9	 2165	56.20	9.895	6.019	4.235	3.728	2.585	2.254	2.648	1.658	1.355	1.478	1.202	1.167	1.277	1.671	0.913	1.022	1.101	0.990	0.880	0.638	0.782	0.676	0.562	0.668	0.496	0.521	0.368	0.294	0.246	0.408	0.549	0.570	0.521	0.469	0.415	0.440	0.490	0.370	0.291	0.454	0.528	1.160	2.665	3.753	2.897	1.204	1.021	1.197	2.099	3.401	9.135	23.84	49.08	55.12	31.90	6.099	0.385	0.117	0.092	-0.006	-0.025	-0.099
285.0	90.58	73.92	56.57	55.90	28.66	26.33	80.60	468.2	825.3	263.4	298.4	 1413	 7039	9999.9	 1440	24.19	8.974	3.717	4.431	3.200	3.029	2.609	2.568	1.751	1.501	1.310	1.299	1.002	1.090	1.031	1.251	0.975	1.049	0.898	0.747	0.825	0.501	0.696	0.486	0.388	0.510	0.496	0.305	0.346	0.492	0.558	0.467	0.536	0.454	0.526	0.411	0.375	0.361	0.227	0.350	0.360	0.741	1.041	2.228	4.107	3.988	1.736	0.767	0.764	1.341	2.409	6.106	15.55	34.33	61.41	49.20	18.71	1.646	0.183	0.078	0.075	0.006
290.0	115.3	104.1	89.58	74.46	44.93	35.56	55.42	175.2	554.1	769.6	347.7	470.8	 1908	 6051	9999.9	 4293	80.10	7.936	6.475	4.206	3.282	3.227	2.240	2.308	1.825	1.750	1.165	1.003	1.241	1.242	1.176	0.895	0.714	0.877	0.795	0.908	0.660	0.810	0.648	0.649	0.796	0.414	0.499	0.545	0.481	0.664	0.538	0.636	0.607	0.469	0.438	0.460	0.479	0.405	0.355	0.398	0.426	0.698	0.832	1.544	2.772	3.481	3.610	2.665	1.438	1.304	2.218	4.085	8.743	18.22	29.62	42.00	46.44	30.56	14.20	2.051	0.249
295.0	136.1	126.6	119.1	100.1	67.72	55.44	64.02	108.9	227.1	590.7	 1112	432.5	636.5	 1515	 3634	9999.9	 5793	96.48	12.08	6.340	4.469	3.987	2.339	2.304	1.817	2.039	1.542	1.077	1.400	1.307	1.466	1.077	0.959	0.807	0.712	0.718	0.786	1.088	0.879	0.615	0.769	0.442	0.615	0.612	0.726	0.535	0.751	0.644	0.709	0.631	0.601	0.534	0.648	0.419	0.386	0.504	0.486	0.521	0.592	1.153	1.099	1.481	2.554	4.643	5.020	2.405	1.906	1.751	2.937	4.985	7.293	10.17	17.32	38.79	65.27	47.21	15.94
300.0	139.1	133.9	140.0	115.2	75.53	71.94	81.99	116.2	165.4	322.4	 1050	999.2	425.7	535.2	976.4	 4489	9999.9	 1337	52.39	7.699	5.330	4.730	3.266	2.227	2.205	2.460	1.522	1.084	1.712	1.220	1.210	1.138	1.276	0.857	0.677	0.760	0.883	0.894	0.888	0.709	0.757	0.585	0.825	0.546	0.757	0.578	0.793	0.825	0.756	0.695	0.729	0.609	0.476	0.527	0.446	0.366	0.672	0.504	0.561	0.822	0.845	1.016	1.361	2.340	5.289	5.839	3.989	1.907	1.578	2.195	2.475	3.036	4.516	10.52	28.60	65.44	61.85
305.0	137.2	136.3	174.0	132.0	86.87	93.99	105.6	131.2	169.7	258.6	610.4	 1326	734.5	359.0	377.0	 1173	 6090	9999.9	 1039	20.96	6.762	6.204	4.514	2.468	2.204	2.223	1.645	1.493	1.953	1.642	1.121	1.443	1.427	0.755	0.764	0.874	1.045	0.826	1.074	0.706	0.884	0.693	0.861	0.599	0.832	0.622	0.692	0.730	0.679	0.671	0.676	0.657	0.606	0.673	0.485	0.672	0.658	0.482	0.649	0.785	0.810	0.919	1.065	1.571	2.678	4.441	6.383	4.212	2.397	1.757	1.609	1.580	1.630	2.896	7.173	19.20	39.35
310.0	145.9	162.5	176.7	152.2	102.2	105.7	121.8	156.2	189.8	256.1	421.6	802.1	 1189	665.2	308.0	385.4	 1535	 5223	 9559	 3591	58.84	9.339	4.937	3.740	2.627	2.567	1.888	1.691	1.854	1.479	1.393	1.102	1.202	0.847	1.107	0.993	0.958	0.952	0.995	0.734	0.836	0.727	0.701	0.628	0.805	0.738	0.734	0.764	0.839	0.683	0.687	0.745	0.610	0.655	0.535	0.755	0.793	0.810	0.710	0.925	0.914	1.016	1.206	1.481	1.657	2.379	3.646	4.557	5.456	4.464	2.457	1.482	1.380	1.336	2.139	4.745	9.629
315.0	154.5	184.3	188.3	176.6	127.0	124.2	135.9	171.8	221.8	292.3	398.4	539.7	768.6	 1166	593.8	256.4	447.5	 1245	 3281	 9719	 5076	79.52	7.920	5.119	3.549	2.775	2.654	1.843	2.215	1.542	1.684	1.263	1.401	0.823	0.867	1.210	0.951	0.868	1.076	0.770	0.927	0.776	0.746	0.793	0.963	0.799	0.934	0.799	0.897	0.719	0.693	0.670	0.658	0.709	0.607	0.719	0.782	0.935	0.959	1.174	1.102	1.053	1.337	1.621	1.489	1.950	2.053	2.808	3.291	5.101	6.054	4.095	2.033	1.517	1.199	1.583	2.770
320.0	167.0	218.4	221.0	191.4	134.7	146.7	156.8	190.0	236.0	318.2	423.3	500.4	585.3	903.0	 1055	355.8	226.0	371.1	818.0	 4075	9999.9	 1016	45.09	7.212	3.942	3.498	2.573	2.084	2.140	1.603	1.661	1.278	1.100	1.111	0.929	0.902	0.943	0.650	0.978	0.940	0.831	0.873	0.770	0.971	0.765	1.072	0.939	0.982	1.094	0.946	0.598	0.883	0.797	0.668	0.572	0.546	0.588	0.793	0.894	1.407	1.260	1.057	1.699	1.910	1.466	1.754	2.042	2.363	2.599	3.330	4.000	5.906	4.827	2.485	1.483	1.176	1.214
325.0	181.8	256.9	277.1	233.9	163.0	150.4	168.6	208.9	255.7	337.6	446.7	503.6	554.4	638.9	 1020	721.1	224.6	196.0	267.9	 1025	 5337	9999.9	808.9	17.62	5.483	4.432	2.848	2.211	2.339	1.621	1.293	1.326	1.379	1.054	1.042	0.858	1.057	0.898	1.083	1.066	0.678	0.946	0.833	0.776	0.792	1.049	1.074	1.095	1.364	1.040	0.663	0.892	0.896	0.858	0.899	0.833	0.644	1.062	1.095	1.350	1.438	1.354	1.490	1.940	1.538	1.912	2.025	2.216	2.375	2.663	2.560	3.698	5.460	4.976	2.705	1.336	1.279
330.0	186.5	258.8	325.7	286.0	202.3	168.1	183.7	218.6	291.1	359.8	474.7	533.9	572.9	569.0	649.2	817.9	581.9	232.1	169.0	312.0	 1323	 5046	 6943	 2837	48.56	6.475	4.622	3.057	2.634	1.993	1.905	1.662	1.477	1.235	1.118	1.290	0.894	0.995	0.894	1.005	0.914	0.980	0.843	0.863	1.048	0.990	1.077	1.325	1.480	1.144	1.097	0.940	0.771	0.901	0.864	0.947	0.872	0.949	1.127	1.349	1.278	1.502	1.662	1.957	1.956	1.951	2.249	2.479	2.510	2.317	2.277	2.521	2.939	3.818	4.634	4.222	2.878
335.0	211.6	268.6	350.3	340.1	231.3	193.9	203.5	240.1	307.7	393.5	502.5	559.0	600.1	588.7	537.0	537.8	733.2	555.0	192.1	182.3	382.6	 1189	 2530	 7439	 4170	66.49	6.319	4.940	3.777	2.759	2.249	1.871	1.602	1.579	1.055	1.485	0.811	1.178	1.228	1.099	0.761	0.701	0.890	1.270	1.214	1.087	1.148	1.387	1.417	1.278	1.091	0.820	0.986	1.015	0.922	1.026	0.915	1.152	1.170	1.388	1.387	1.825	1.504	2.041	2.294	2.068	2.239	2.611	2.592	2.445	1.995	2.452	2.470	2.555	2.448	3.450	4.733
340.0	209.5	275.0	373.3	343.7	262.9	225.4	227.1	267.5	333.1	403.0	505.9	563.7	616.8	600.8	531.9	448.4	537.7	759.2	380.1	178.4	191.1	347.5	642.2	 3216	 8168	809.6	41.57	6.224	5.066	3.286	2.323	1.940	1.797	1.919	1.353	1.017	0.836	0.942	1.301	1.116	0.945	0.860	0.870	1.257	0.964	1.306	1.232	1.532	1.439	1.336	1.135	1.405	1.029	1.027	1.072	1.119	1.236	1.168	1.194	1.497	1.462	1.951	1.761	1.782	1.946	2.042	2.374	2.779	2.423	2.472	2.514	2.667	2.615	2.032	2.033	2.395	3.156
345.0	217.1	277.1	366.3	388.4	297.0	258.0	251.0	282.8	349.4	402.0	503.4	572.6	613.7	608.9	542.2	452.5	418.8	618.2	635.9	263.0	173.1	182.9	222.8	817.4	 4367	 7330	684.0	19.91	6.297	4.001	2.545	2.404	1.536	1.479	1.387	1.124	1.203	0.925	1.212	1.071	1.147	0.668	0.984	0.948	1.044	1.304	1.199	1.672	1.700	1.447	1.174	1.405	1.293	1.218	1.142	1.270	1.214	1.273	1.719	1.342	1.481	1.728	1.713	1.908	1.872	1.910	2.342	2.290	2.661	2.449	2.388	2.902	2.696	2.311	2.174	2.136	2.200
350.0	209.3	261.0	337.0	366.8	309.3	293.7	294.8	317.8	366.1	424.9	533.3	579.3	622.7	603.8	556.5	481.1	424.3	451.2	601.8	561.5	287.2	196.5	171.9	277.3	 1105	 3712	 5405	 2474	46.72	6.121	4.068	2.807	1.994	1.578	1.304	1.470	1.200	1.116	1.156	1.084	1.025	0.895	0.872	0.913	1.019	1.249	1.269	1.406	1.492	1.317	1.206	1.446	1.336	1.317	1.208	1.204	1.090	1.282	1.498	1.580	1.641	1.802	1.753	2.298	2.193	2.157	2.220	2.451	2.386	2.571	2.446	2.856	2.596	2.131	2.246	2.128	2.258
355.0	206.8	264.2	321.9	354.7	339.4	337.8	316.4	365.3	411.9	459.4	558.9	590.0	644.1	614.1	582.8	514.4	459.3	444.5	458.7	592.6	585.7	302.6	224.9	212.6	362.3	916.0	 1976	 6292	 3709	63.58	7.031	3.411	2.424	1.791	1.355	1.494	1.332	1.228	1.177	1.106	1.099	1.005	0.933	1.123	1.022	1.394	1.464	1.652	1.624	1.364	1.220	1.381	1.301	1.511	1.547	1.480	1.484	1.330	1.725	1.904	1.574	1.836	2.090	2.391	2.046	2.598	2.471	2.730	2.579	2.785	2.602	2.553	3.020	2.558	2.324	2.447	2.708
360.0	192.7	229.0	323.2	370.0	371.7	387.2	372.7	405.4	452.7	492.9	583.0	601.8	636.2	630.3	592.6	553.8	496.6	474.7	456.0	501.6	692.3	504.0	291.0	243.2	237.6	323.0	539.7	 2794	 7076	749.3	39.21	5.039	3.478	2.645	1.862	1.411	1.342	1.306	1.369	0.923	0.998	0.919	0.987	1.010	0.867	1.168	1.364	1.574	1.456	1.191	1.387	1.431	1.649	1.502	1.598	1.476	1.244	1.538	1.676	1.852	1.798	1.714	2.146	2.452	2.054	2.486	2.419	2.545	2.634	2.754	2.553	3.270	2.461	2.713	2.676	2.457	2.961
365.0	193.6	232.9	325.7	371.2	373.0	402.0	406.4	433.9	480.2	520.3	595.1	637.9	641.7	635.6	608.2	565.8	521.7	505.1	484.1	484.5	598.7	693.3	418.7	287.9	247.4	222.3	228.2	734.2	 3878	 6943	624.2	18.60	4.614	3.503	2.105	1.950	1.299	1.484	1.359	1.222	1.072	0.871	0.982	1.106	0.873	0.896	1.544	1.463	1.288	1.351	1.204	1.606	1.677	1.227	1.648	1.825	1.707	1.831	1.762	1.991	1.894	2.275	2.244	2.257	2.395	2.463	2.455	2.443	2.623	2.406	2.577	2.942	2.622	2.901	2.705	2.723	2.916
370.0	214.2	224.1	317.9	395.4	391.5	410.9	446.3	469.0	511.2	553.5	625.6	653.0	652.7	649.2	635.7	590.5	558.8	549.0	527.7	524.8	543.9	640.8	654.2	437.1	315.9	252.7	202.8	267.3	990.7	 3557	 5382	 2481	38.33	5.040	3.222	2.316	1.634	1.359	1.632	1.330	1.075	1.085	1.063	0.934	1.032	1.020	1.332	1.308	1.334	1.321	1.320	1.669	1.608	1.469	1.578	1.834	1.733	2.022	1.794	1.912	2.227	2.331	2.275	2.566	2.360	2.621	2.571	2.632	2.578	2.945	2.649	3.186	2.679	2.917	3.264	2.679	3.075
375.0	204.9	243.8	321.9	415.4	428.2	461.6	468.3	499.4	533.6	576.0	651.6	679.3	689.9	656.2	636.7	607.5	588.2	575.1	569.0	569.9	561.3	587.1	652.5	682.0	428.7	313.0	244.6	205.3	315.4	861.1	 2060	 6300	 3348	49.83	4.866	3.243	2.573	1.759	1.560	1.253	1.369	1.049	1.186	1.191	1.128	1.248	1.270	1.335	1.476	1.293	1.300	1.719	1.577	1.719	1.513	2.130	1.707	1.879	2.212	2.168	2.340	2.259	2.223	2.403	2.258	2.593	2.486	2.878	2.720	3.036	2.758	3.045	2.845	3.006	2.908	3.429	3.085
380.0	214.5	232.6	316.9	423.8	446.9	473.1	501.0	523.8	543.7	602.6	648.9	692.9	691.8	669.2	636.0	631.2	610.7	595.1	595.0	598.2	588.5	583.7	594.5	706.4	587.2	377.4	283.4	219.5	192.5	274.0	532.0	 2841	 7007	596.6	30.32	4.579	2.845	1.875	1.732	1.371	1.252	1.157	0.983	1.227	1.343	1.052	1.114	1.479	1.528	1.258	1.284	1.734	1.610	1.746	1.796	1.865	2.118	2.039	2.134	2.272	2.362	2.396	2.311	2.572	2.616	2.453	2.483	2.824	2.909	2.748	2.960	2.768	2.797	3.125	2.809	3.069	3.514
385.0	214.4	228.9	326.3	396.5	438.2	476.2	515.6	557.6	584.9	611.4	654.6	677.2	686.2	664.9	644.7	619.8	600.3	613.1	612.8	612.7	616.9	599.9	584.9	634.9	706.2	490.1	329.5	255.5	190.9	169.3	191.0	729.5	 4098	 5823	486.1	12.11	3.873	2.518	2.062	1.766	1.543	1.320	1.332	1.400	1.138	1.053	1.259	1.210	1.477	1.480	1.161	1.686	1.692	1.920	1.900	1.984	2.109	1.920	1.942	2.032	2.166	2.475	2.530	2.209	2.449	2.725	2.549	2.816	2.791	2.642	2.781	3.071	2.960	2.841	2.936	3.146	3.169
390.0	211.0	216.2	338.3	409.1	463.1	489.3	528.9	557.8	588.3	628.0	658.2	687.7	697.5	664.9	643.1	613.8	608.2	616.8	622.6	628.0	639.4	623.6	603.5	600.4	645.4	638.6	452.1	315.5	238.0	186.3	148.8	236.3	 1043	 3238	 4379	 1784	30.02	4.123	3.237	2.446	1.566	1.386	1.476	1.407	1.186	1.256	1.170	1.292	1.427	1.491	1.457	1.792	1.815	2.102	2.020	1.930	2.184	2.108	2.191	2.281	2.123	2.220	2.495	2.501	2.759	2.914	2.790	2.721	2.629	2.846	2.973	2.775	2.877	2.881	2.767	3.457	3.311
395.0	218.5	240.5	326.5	413.6	469.6	527.0	548.7	571.2	620.3	643.8	669.8	696.3	703.6	665.5	640.2	621.5	602.3	614.3	629.9	632.7	644.3	640.8	629.4	607.8	601.9	616.5	627.5	421.8	301.3	242.8	186.3	164.9	305.0	777.8	 1801	 5744	 2257	37.81	5.038	3.033	2.077	1.804	1.709	1.420	1.321	1.055	1.321	1.204	1.567	1.283	1.595	1.903	1.936	1.766	2.136	1.909	2.199	2.295	2.271	2.438	2.392	2.443	2.821	2.772	2.727	2.445	2.975	2.895	2.693	2.920	2.791	2.661	3.043	2.879	3.054	3.478	3.487
400.0	196.7	222.8	338.1	424.7	494.3	555.4	575.8	601.6	639.3	671.2	699.7	712.1	706.8	659.7	633.4	601.9	602.2	603.1	625.1	639.3	647.6	651.4	647.6	625.0	597.8	586.4	654.0	571.5	382.0	298.7	232.3	184.1	168.9	241.4	468.0	 2846	 4841	490.9	23.77	4.454	2.514	1.838	1.460	1.545	1.489	1.460	1.415	1.427	1.318	1.714	1.486	1.952	1.933	2.055	2.038	2.267	2.106	2.411	2.201	2.448	2.407	2.744	3.007	3.014	2.691	2.404	2.829	3.240	2.767	2.852	2.788	3.070	3.577	2.904	2.910	2.809	3.298
405.0	212.5	228.2	347.1	445.7	495.6	532.9	590.7	642.8	692.9	718.8	741.4	733.4	722.8	674.0	635.8	605.6	592.6	600.6	621.3	634.3	660.1	657.7	667.0	643.2	618.3	605.2	616.9	670.8	502.7	367.2	294.4	224.7	175.2	149.7	169.1	738.9	 2987	 3957	405.2	10.12	3.550	2.334	1.860	1.490	1.348	1.325	1.589	1.428	1.849	1.542	1.548	1.922	2.025	2.056	2.022	2.283	2.404	2.305	2.274	2.732	2.410	2.945	2.790	2.796	2.864	2.596	3.077	2.859	2.874	2.725	2.981	3.024	3.187	3.129	2.920	2.894	3.250
410.0	227.7	243.8	353.6	463.1	522.6	611.5	667.9	712.3	763.5	790.4	802.8	805.4	770.2	701.6	631.2	591.1	585.9	593.6	612.9	637.9	659.4	678.4	688.1	687.8	673.1	661.5	647.3	671.9	679.4	533.8	406.9	322.7	244.6	180.6	139.9	231.5	779.3	 2464	 3836	 1415	25.50	3.317	2.802	2.096	1.837	1.333	1.556	1.554	1.648	1.517	1.683	2.023	2.062	2.329	2.288	2.644	2.865	2.730	2.633	3.213	3.169	3.213	2.721	3.020	3.302	2.930	3.472	3.079	3.035	2.973	3.001	2.806	2.937	2.840	2.917	3.169	3.332
