Sample:	'1
File name:	L2025080901»ª·áÂ·ÇÅ.FD3
Run date:	'13:15:41, 08/10/2025
Operator:	Administrator
Comment:	'

Instrument
Model:	F-2700 FL Spectrophotometer
Serial number:	3064-004
ROM Version:	4J14000 07

Instrument parameters
Measurement type:	3-D scan
Data mode:	Fluorescence
EX  Start WL:	220.0 nm
EX  End WL:	600.0 nm
EX Sampling interval:	5.0 nm
EM  Start WL:	230.0 nm
EM  End WL:	650.0 nm
EM Sampling interval:	5.0 nm
Scan speed:	12000 nm/min
EX Slit:	5.0 nm
EM Slit:	5.0 nm
PMT Voltage:	700 V
Response:	Auto 
Corrected spectra:	Off
Contour interval:	50.000

Peak integration
Integration method:	Rectangular
Sensitivity:	1
Threshold:	1.000

Peaks
No.	ApexEX/EM(nm)	Height(Data)
1	230.0/305.0	794.8
2	230.0/565.0	63.73
3	230.0/575.0	60.34
4	230.0/590.0	67.37
5	230.0/635.0	44.64
6	235.0/355.0	 1477
7	235.0/605.0	55.94
8	240.0/520.0	280.2
9	245.0/265.0	327.5
10	245.0/530.0	250.0
11	250.0/540.0	222.3
12	255.0/280.0	737.8
13	255.0/555.0	209.4
14	260.0/285.0	 1020
15	260.0/570.0	197.7
16	265.0/290.0	 1276
17	265.0/580.0	209.7
18	270.0/295.0	 1914
19	270.0/595.0	196.6
20	275.0/305.0	 2356
21	275.0/605.0	190.1
22	280.0/310.0	 2260
23	280.0/340.0	 2106
24	280.0/365.0	 2072
25	280.0/615.0	156.7
26	285.0/315.0	 2076
27	285.0/355.0	 2074
28	285.0/630.0	119.9
29	290.0/640.0	97.46
30	320.0/360.0	 1154
31	430.0/505.0	95.68
32	445.0/525.0	56.40
33	460.0/345.0	6.243
34	505.0/275.0	3.126
35	510.0/280.0	4.051
36	520.0/285.0	5.143
37	520.0/400.0	7.743
38	530.0/290.0	5.624
39	545.0/300.0	9.903
40	550.0/305.0	9.932
41	555.0/365.0	9.136
42	560.0/310.0	10.06
43	565.0/340.0	9.327
44	570.0/315.0	9.690
45	575.0/320.0	9.268
46	575.0/355.0	9.308
47	580.0/325.0	9.754
48	580.0/360.0	9.399

Data points
	220.0	225.0	230.0	235.0	240.0	245.0	250.0	255.0	260.0	265.0	270.0	275.0	280.0	285.0	290.0	295.0	300.0	305.0	310.0	315.0	320.0	325.0	330.0	335.0	340.0	345.0	350.0	355.0	360.0	365.0	370.0	375.0	380.0	385.0	390.0	395.0	400.0	405.0	410.0	415.0	420.0	425.0	430.0	435.0	440.0	445.0	450.0	455.0	460.0	465.0	470.0	475.0	480.0	485.0	490.0	495.0	500.0	505.0	510.0	515.0	520.0	525.0	530.0	535.0	540.0	545.0	550.0	555.0	560.0	565.0	570.0	575.0	580.0	585.0	590.0	595.0	600.0
230.0	8.161	509.7	 3369	 2095	116.6	5.142	4.668	3.420	2.720	4.989	3.987	4.385	4.787	4.685	4.194	3.794	3.197	3.757	3.241	3.271	3.386	2.788	2.521	2.478	2.328	2.482	2.191	1.996	2.041	1.814	1.814	1.665	1.542	1.485	1.284	1.341	1.188	1.047	0.968	0.840	0.912	0.809	0.903	0.741	0.562	0.632	1.650	7.177	12.64	10.53	4.367	1.122	0.400	0.360	0.310	0.238	0.300	0.256	0.233	0.199	0.154	0.160	0.074	0.140	0.083	0.100	0.002	0.096	0.013	0.078	0.028	-0.068	-0.099	-0.066	-0.092	-0.060	-0.136
235.0	34.00	129.9	 1374	 3856	 2527	187.2	6.586	6.936	2.792	5.750	5.787	5.390	4.749	4.242	4.682	3.931	3.849	4.075	3.572	3.275	3.177	3.017	2.354	2.725	3.134	2.631	2.058	2.267	2.188	1.555	1.711	1.460	1.820	1.468	1.007	1.382	1.212	1.166	1.074	0.757	0.905	0.711	0.901	0.829	0.763	0.730	0.918	2.231	4.529	8.984	12.71	13.34	6.656	1.578	0.319	0.307	0.241	0.226	0.114	0.257	0.112	0.120	0.110	0.069	0.134	-0.010	0.063	0.096	0.092	0.003	-0.018	-0.063	-0.087	0.010	-0.076	0.110	-0.120
240.0	43.33	71.67	337.9	 2120	 5263	974.5	103.6	5.957	7.587	5.544	6.928	7.448	3.898	4.738	5.207	4.464	3.531	4.100	2.981	3.115	3.826	2.452	2.945	2.934	2.433	2.365	2.235	2.141	1.840	1.908	1.556	1.483	1.522	1.491	1.172	0.976	1.217	0.942	1.167	0.749	1.074	0.673	0.658	0.859	0.870	0.993	0.792	0.913	1.427	2.710	5.939	16.36	19.67	14.40	4.858	0.724	0.253	0.302	0.274	0.312	0.220	0.096	0.135	0.094	0.105	0.049	-0.006	0.112	-0.034	-0.004	0.016	0.070	-0.051	-0.020	-0.127	0.029	0.026
245.0	24.19	84.74	128.5	549.0	 3417	 6044	811.5	52.17	9.266	7.709	7.207	8.594	6.524	6.633	4.819	4.383	3.477	4.040	3.871	3.623	3.872	2.819	3.190	2.977	2.246	2.679	2.393	1.901	2.016	2.290	2.026	1.523	1.624	1.304	1.515	1.280	1.081	1.010	1.120	0.998	0.912	0.857	0.731	0.586	0.670	0.850	1.062	0.981	0.927	1.098	1.787	5.056	12.56	22.12	22.80	13.24	3.425	0.440	0.420	0.262	0.166	0.096	0.191	0.228	0.144	0.019	0.115	-0.024	-0.036	0.010	0.053	0.054	0.084	-0.083	-0.010	0.044	-0.079
250.0	7.305	41.45	132.2	212.8	878.1	 3519	 6200	 3082	258.0	12.53	11.14	10.07	7.496	7.370	6.079	4.928	4.246	4.626	4.127	4.143	3.612	3.177	3.244	2.559	2.871	2.783	2.475	2.284	2.277	1.940	1.991	1.736	1.860	1.688	1.586	1.288	1.102	1.226	1.264	0.982	0.977	0.986	0.814	0.760	0.886	0.665	0.886	1.064	1.278	0.943	1.202	1.538	3.360	6.947	13.21	21.33	27.63	24.94	14.55	4.461	0.501	0.147	0.134	0.212	0.151	0.187	0.084	0.105	0.123	0.115	0.031	-0.009	-0.022	-0.061	-0.032	-0.063	-0.083
255.0	6.011	13.79	59.09	227.6	314.9	817.3	 2584	9999.9	 4763	351.5	16.51	14.53	11.15	7.259	8.141	5.529	4.988	4.749	4.296	3.941	3.855	3.783	3.667	2.905	2.980	2.990	2.317	1.936	2.201	1.967	1.871	1.984	1.844	1.636	1.344	1.396	0.965	1.037	1.104	0.906	0.905	1.048	0.996	0.648	0.759	0.687	0.772	0.693	0.771	1.058	1.459	1.344	1.596	1.982	3.355	5.383	10.09	23.68	43.42	44.78	25.27	5.736	0.488	0.116	0.159	0.224	0.141	0.239	0.102	0.193	0.084	0.063	0.005	0.084	0.065	-0.091	-0.145
260.0	7.188	13.02	19.17	135.0	328.2	269.9	638.7	 5198	9999.9	 4144	231.8	17.36	13.05	10.72	7.726	6.963	6.081	5.467	4.807	4.256	4.095	3.546	4.411	2.728	3.112	2.898	2.805	2.507	2.728	2.324	2.404	1.722	2.201	1.647	1.311	1.130	1.321	0.973	1.033	0.812	0.877	0.957	0.940	0.731	0.766	0.887	0.808	0.785	0.803	0.621	1.006	1.514	1.877	1.313	1.259	1.634	2.672	6.262	17.62	41.58	61.82	43.32	20.05	2.211	0.451	0.179	0.264	0.236	0.137	0.128	0.100	0.087	0.009	0.018	0.050	0.005	-0.053
265.0	11.43	15.79	14.77	47.87	242.6	327.5	195.9	 1343	 6810	9999.9	 3403	136.8	19.83	13.08	11.55	7.306	7.231	6.197	5.596	4.209	4.659	4.280	3.712	3.232	3.267	3.221	3.104	2.645	2.483	3.082	2.131	1.978	2.015	1.832	1.384	1.409	1.411	1.171	0.939	1.107	0.905	0.942	1.162	0.960	0.840	0.867	1.021	0.792	0.710	0.724	0.691	0.956	1.610	1.947	1.498	0.880	0.969	1.790	4.456	12.03	30.94	62.28	81.05	39.69	11.34	0.890	0.273	0.227	0.097	0.163	0.067	0.166	0.117	0.089	0.083	-0.106	0.064
270.0	59.66	59.61	31.60	36.47	92.98	294.1	384.6	430.0	 1779	 6639	9999.9	9999.9	210.0	26.23	16.14	10.35	8.815	6.176	5.771	5.299	5.083	4.509	4.324	3.605	3.636	3.677	3.216	3.090	2.999	2.722	2.489	2.156	2.348	1.987	1.327	1.514	1.579	1.601	1.240	1.407	1.129	1.205	1.306	1.299	1.329	1.308	1.096	0.876	0.821	0.821	0.743	0.942	0.837	1.192	1.676	2.021	2.190	1.611	1.584	3.323	7.580	17.88	36.87	57.88	60.44	70.36	25.91	11.08	0.865	0.222	0.136	0.296	0.007	0.076	0.087	-0.002	0.071
275.0	165.2	136.4	104.5	81.14	68.53	121.2	402.4	619.6	608.7	 1705	 4276	9999.9	9999.9	266.0	27.31	16.77	12.53	8.917	7.771	7.237	5.249	5.648	4.880	3.882	3.771	4.223	3.692	2.918	2.975	3.217	2.821	2.519	2.385	2.112	1.803	1.812	1.905	1.577	1.443	1.902	1.392	1.537	1.383	1.643	1.583	1.552	1.314	1.054	1.166	0.833	0.891	0.773	0.853	0.877	1.054	1.417	2.196	3.126	2.612	1.666	2.626	5.027	9.411	14.27	20.04	52.41	107.6	127.2	39.20	9.883	0.400	0.335	0.299	0.142	0.100	0.025	0.047
280.0	254.6	256.3	207.6	138.0	84.71	96.52	229.7	737.8	643.9	708.4	 1338	 5922	9999.9	9999.9	181.4	22.79	16.39	11.92	9.344	7.785	6.214	5.896	4.806	4.670	4.786	4.562	3.526	3.308	3.022	3.625	2.609	2.406	2.723	2.125	2.171	1.880	2.298	2.018	1.874	1.990	2.104	2.188	1.743	2.433	2.071	2.175	1.779	1.465	1.379	1.397	0.990	0.919	0.812	0.841	0.858	1.057	1.377	2.314	4.051	3.340	2.512	2.476	3.632	4.606	6.183	14.12	39.85	97.93	150.7	56.01	29.38	3.005	0.503	0.159	0.156	0.246	0.077
285.0	335.4	354.8	344.9	227.9	147.5	117.9	184.1	507.0	 1020	669.7	775.2	 1823	 8936	9999.9	 2169	110.6	22.09	16.75	10.74	7.847	7.490	7.279	5.812	5.003	4.890	4.619	3.756	3.635	3.297	3.276	2.620	2.326	2.653	2.295	2.698	2.232	2.765	2.175	2.425	2.154	2.114	2.360	2.075	2.490	2.863	2.820	2.455	1.974	1.862	1.740	1.552	1.210	1.097	1.021	0.970	0.946	1.074	1.560	2.700	3.954	5.143	3.818	2.964	2.892	3.841	5.028	10.71	26.83	66.89	125.8	173.6	49.06	16.45	0.930	0.269	0.377	0.180
290.0	427.4	518.1	514.5	392.3	228.3	178.9	218.5	387.5	817.2	 1276	 1118	 1113	 2701	 8272	9999.9	9999.9	607.3	27.17	17.14	11.77	10.24	8.648	7.338	5.971	5.725	4.947	4.294	3.961	3.535	3.449	3.015	3.026	2.838	2.524	2.459	2.601	2.990	2.622	2.981	2.584	2.663	2.681	2.811	2.814	3.460	3.299	2.986	3.044	2.507	2.169	1.783	1.816	1.451	1.234	1.141	1.054	1.425	1.685	2.164	2.618	3.860	5.278	5.624	5.412	4.345	4.397	5.479	8.843	17.48	34.74	73.13	104.4	141.8	116.1	30.55	13.64	1.153
295.0	491.3	626.5	669.6	537.0	351.9	275.4	295.9	437.8	693.2	 1163	 1914	 1427	 1470	 2414	 3947	9999.9	9999.9	169.3	29.33	17.93	13.63	11.08	9.067	6.421	7.389	5.897	4.783	3.866	3.978	3.606	3.743	3.328	2.735	2.809	3.166	2.879	2.994	3.055	2.915	3.045	2.879	2.702	2.949	3.546	3.232	3.764	2.937	3.860	3.386	2.640	2.697	2.190	1.946	1.654	1.378	1.294	1.953	1.751	2.519	2.861	3.157	3.940	4.567	7.192	8.531	6.734	5.404	5.828	7.569	10.62	18.83	25.19	39.00	81.03	175.0	206.6	47.84
300.0	476.5	673.2	749.7	625.9	417.3	342.4	367.7	513.1	725.0	 1105	 1884	 2104	 1446	 1268	 1308	 5486	9999.9	9999.9	130.1	25.57	19.12	13.87	9.587	8.391	7.343	6.799	5.591	4.954	4.605	4.400	4.116	3.503	3.218	2.751	2.611	2.862	3.502	3.111	3.199	2.995	2.575	2.612	3.069	3.349	3.200	3.881	3.557	3.605	3.506	3.151	2.804	2.736	2.311	1.787	1.817	1.505	2.017	2.062	2.904	3.155	3.188	4.312	4.796	5.491	8.574	9.903	7.331	6.504	6.274	6.518	7.242	8.178	10.52	20.63	59.40	158.8	233.4
305.0	489.6	673.2	794.8	667.1	491.7	391.9	431.7	572.6	790.3	 1132	 1670	 2356	 1898	 1164	814.1	 1570	 8753	9999.9	 7485	91.01	24.45	16.71	12.97	10.36	8.515	7.322	6.078	5.105	4.203	4.445	4.527	3.792	3.530	2.918	2.675	3.044	3.529	3.295	3.344	3.086	3.011	3.167	3.247	3.363	3.479	3.895	3.633	3.847	3.697	3.141	2.675	2.667	2.254	2.346	1.811	1.867	2.403	2.559	2.792	2.948	3.320	4.375	4.825	5.370	6.776	8.375	9.932	9.893	7.918	6.516	5.317	5.026	4.631	6.184	14.95	40.68	101.6
310.0	455.6	684.6	763.3	689.2	535.1	434.7	497.8	629.2	848.6	 1162	 1574	 1960	 2260	 1659	899.5	752.5	 2305	 8542	9999.9	9999.9	480.1	27.76	17.32	13.50	10.46	8.327	7.786	6.455	5.263	4.996	4.514	4.266	3.527	3.839	3.247	3.442	3.491	3.551	3.364	3.097	3.088	3.148	3.288	3.060	3.586	3.457	3.874	3.991	3.828	3.208	3.048	2.793	2.456	2.202	2.258	2.380	2.364	2.812	2.887	3.502	3.545	4.571	4.838	5.607	6.197	7.357	8.411	9.500	10.06	8.917	7.316	5.223	4.177	3.634	5.221	10.70	24.39
315.0	482.1	666.3	825.9	725.9	567.7	482.6	548.8	680.6	896.9	 1177	 1540	 1826	 1957	 2076	 1357	718.3	871.5	 2139	 3994	9999.9	9999.9	125.4	28.08	18.61	14.66	11.50	9.122	7.676	5.945	5.898	4.816	4.823	4.162	3.325	3.568	3.773	3.443	3.277	3.236	3.263	3.042	3.223	3.177	3.252	3.533	3.646	4.129	3.721	3.828	3.192	3.058	2.876	2.520	2.603	2.492	2.719	2.689	2.848	3.553	3.853	3.804	4.374	5.353	5.943	6.279	7.001	7.540	8.223	8.258	9.448	9.690	8.255	4.847	3.960	3.638	4.707	7.260
320.0	514.9	808.9	961.6	787.2	614.9	513.7	583.1	724.2	935.9	 1220	 1566	 1883	 1947	 1924	 1890	975.8	660.8	789.8	 1127	 6041	9999.9	 7696	99.12	24.90	18.28	13.36	11.28	8.240	6.865	6.629	5.293	5.170	4.046	3.881	3.853	3.410	3.317	3.440	3.223	3.424	3.101	3.394	3.409	3.599	4.004	4.239	4.430	4.636	4.336	3.999	3.212	2.847	2.626	2.652	2.408	2.817	2.653	2.898	3.710	4.102	4.369	4.324	5.841	5.890	6.896	6.956	7.892	7.777	8.593	8.627	8.234	9.268	8.573	5.607	4.670	3.873	4.187
325.0	517.3	919.3	 1185	991.0	684.8	551.8	630.9	765.4	 1004	 1250	 1612	 1928	 1997	 1892	 1926	 1439	748.8	568.1	526.8	 1594	9999.9	9999.9	 6197	73.36	22.84	15.73	13.02	9.266	7.734	6.965	5.868	5.407	4.549	4.239	3.695	3.424	3.609	3.726	3.554	3.701	3.339	3.408	3.740	3.855	3.966	4.368	4.697	5.813	5.090	4.486	3.345	3.513	2.892	2.727	2.620	2.826	3.203	2.985	3.822	3.984	4.447	4.501	5.743	6.387	7.555	6.963	7.713	8.436	8.660	8.226	8.414	8.464	9.754	8.160	6.292	5.088	4.068
330.0	557.6	976.8	 1300	 1183	815.6	657.6	666.3	782.1	 1007	 1280	 1637	 1899	 2033	 1933	 1736	 1576	 1181	683.7	490.0	622.6	 2542	 9557	9999.9	9999.9	390.6	26.33	16.71	13.51	9.896	8.143	7.197	5.898	5.140	4.973	4.070	3.719	3.672	3.692	3.888	3.568	3.205	3.409	3.488	3.751	4.127	4.681	5.389	5.885	5.871	4.811	4.267	4.250	3.552	3.712	3.058	3.340	3.187	3.219	3.944	4.291	4.412	4.778	5.545	6.361	7.238	7.413	8.100	8.438	8.773	8.152	8.210	7.857	8.186	7.682	7.514	7.243	6.009
335.0	584.3	 1035	 1397	 1301	983.1	808.9	762.1	873.6	 1055	 1310	 1638	 1926	 2096	 2016	 1752	 1452	 1367	 1074	616.7	503.0	840.7	 2334	 4584	9999.9	9999.9	102.1	26.94	19.50	13.73	10.94	8.078	6.686	5.767	5.067	4.472	3.601	3.622	3.942	3.672	3.761	3.122	3.566	3.633	3.475	4.098	5.339	5.370	5.928	5.818	5.488	4.733	4.475	4.068	4.003	3.339	3.332	3.468	3.705	4.354	4.145	4.485	5.259	5.108	6.747	6.956	7.335	8.362	8.997	9.018	8.609	8.793	8.608	8.057	7.139	7.119	7.194	7.818
340.0	585.8	 1032	 1423	 1410	 1102	932.1	848.4	949.1	 1118	 1344	 1664	 1945	 2106	 2039	 1814	 1462	 1257	 1298	851.5	551.9	529.2	774.8	 1239	 7612	9999.9	 6201	83.68	27.44	17.80	14.08	10.76	8.533	6.592	6.098	4.663	4.218	3.847	3.803	3.545	3.989	3.230	3.662	3.827	4.040	4.437	5.176	5.492	5.949	5.993	5.597	5.160	4.583	4.637	4.016	4.161	3.556	4.120	4.342	4.266	4.628	5.023	5.693	6.037	6.609	6.882	6.881	7.916	8.762	8.957	9.327	9.073	8.825	8.560	7.599	6.769	6.782	7.046
345.0	560.6	 1025	 1437	 1476	 1264	 1050	954.7	 1015	 1180	 1395	 1660	 1933	 2067	 2056	 1858	 1519	 1239	 1204	 1130	691.7	526.8	493.6	515.4	 1983	9999.9	9999.9	 5261	65.85	25.38	17.12	12.48	10.45	7.664	6.261	5.409	4.591	4.451	3.949	3.845	3.525	3.584	3.819	3.468	3.907	4.444	5.377	5.383	6.225	6.243	5.522	5.219	5.231	5.150	4.619	4.203	4.523	4.366	4.581	4.738	4.818	5.653	6.194	6.412	6.617	6.653	7.912	7.946	8.707	8.976	9.229	8.933	8.674	8.565	8.047	7.001	7.115	6.609
350.0	531.5	944.0	 1359	 1475	 1370	 1197	 1135	 1158	 1289	 1453	 1739	 1925	 2059	 2067	 1896	 1588	 1312	 1142	 1141	 1027	689.1	532.8	445.9	694.4	 2612	9999.9	9999.9	9999.9	341.2	26.79	17.36	12.93	9.259	7.045	6.274	5.424	5.172	4.641	4.363	3.918	3.672	3.737	3.741	3.881	4.197	5.235	5.139	6.219	5.724	5.456	5.284	5.550	5.340	5.342	5.015	4.868	5.209	5.223	5.417	5.408	5.837	6.040	6.405	6.873	7.054	7.835	8.041	8.762	9.058	8.815	8.639	8.976	9.214	8.348	7.541	7.251	7.644
355.0	489.9	892.1	 1280	 1477	 1439	 1376	 1303	 1352	 1461	 1621	 1807	 1954	 2073	 2074	 1902	 1631	 1408	 1214	 1111	 1107	 1016	680.2	533.5	500.4	841.9	 2424	 5661	9999.9	9999.9	92.27	27.08	18.75	11.57	9.306	7.138	6.581	5.659	4.665	4.633	3.833	3.986	3.655	3.783	3.872	4.334	4.907	4.869	5.681	5.658	5.400	5.149	6.019	5.261	5.637	5.687	5.563	5.743	5.837	6.087	6.335	6.492	6.870	7.139	6.916	7.476	7.663	8.314	8.766	9.053	8.955	8.531	9.308	9.167	8.366	7.896	8.102	8.263
360.0	475.2	869.5	 1223	 1450	 1509	 1483	 1420	 1456	 1581	 1723	 1868	 1992	 2053	 2049	 1922	 1676	 1459	 1291	 1146	 1079	 1154	912.0	626.3	516.8	503.3	764.9	 1471	 9466	9999.9	 5631	73.06	23.67	14.97	11.88	7.914	7.219	5.771	4.859	4.991	4.094	4.107	3.689	3.618	3.457	3.737	4.933	4.564	5.766	5.867	5.370	5.330	6.134	5.906	6.042	6.097	6.604	6.506	6.733	6.217	5.889	7.054	6.897	7.425	7.530	7.362	7.882	8.300	8.640	9.329	9.184	9.072	8.936	9.399	8.734	8.867	8.405	8.169
365.0	441.3	802.4	 1185	 1409	 1515	 1539	 1511	 1576	 1623	 1786	 1900	 2002	 2072	 2053	 1921	 1696	 1499	 1338	 1200	 1101	 1113	 1112	786.0	587.1	484.8	440.8	526.0	 2437	9999.9	9999.9	 4631	56.15	21.41	14.74	10.10	7.600	6.210	5.578	5.113	4.398	3.980	3.871	4.318	4.095	3.964	4.655	4.505	5.753	5.797	5.231	5.429	6.131	6.142	6.026	6.431	6.241	6.495	6.391	6.438	6.254	6.716	7.023	7.529	7.655	7.880	8.066	8.189	9.136	8.394	8.906	8.960	8.900	8.661	8.507	8.961	8.820	8.134
370.0	444.8	743.1	 1106	 1368	 1540	 1591	 1621	 1655	 1738	 1854	 1945	 2013	 2054	 2020	 1912	 1716	 1548	 1406	 1280	 1179	 1115	 1123	 1045	772.4	581.0	459.7	383.1	735.5	 2709	9999.9	9999.9	9999.9	276.6	23.29	14.27	10.02	8.248	6.077	5.568	4.865	4.682	4.451	4.164	4.091	4.353	4.749	4.844	5.400	5.652	5.132	5.334	6.266	6.012	6.638	6.385	6.584	6.820	6.604	6.726	7.081	6.973	7.219	7.482	7.717	8.156	7.832	8.573	8.714	8.767	8.706	8.939	9.131	8.804	8.478	9.120	8.558	8.365
375.0	419.0	679.3	 1051	 1346	 1564	 1664	 1661	 1697	 1779	 1892	 1974	 2013	 2041	 1977	 1892	 1721	 1577	 1468	 1369	 1274	 1190	 1136	 1111	 1052	764.3	585.2	450.8	432.4	792.6	 2380	 7111	9999.9	9999.9	72.45	21.87	14.78	10.62	7.766	6.660	5.443	4.961	4.480	4.394	4.512	4.647	5.073	4.528	5.109	5.323	5.474	5.399	6.048	6.450	6.727	6.496	6.601	6.881	7.027	7.309	6.904	7.685	7.224	7.809	8.275	8.316	7.660	8.365	8.217	9.326	8.793	9.176	8.934	8.962	8.669	8.837	8.593	8.521
380.0	421.1	644.0	998.2	 1299	 1566	 1694	 1697	 1700	 1777	 1888	 1972	 2008	 1994	 1953	 1854	 1716	 1590	 1491	 1405	 1333	 1255	 1185	 1107	 1140	969.8	696.8	535.4	424.1	412.2	697.0	 1798	9999.9	9999.9	 4510	56.26	19.51	14.24	9.699	7.418	5.463	4.861	4.697	4.415	4.368	4.637	4.895	4.694	4.982	5.445	5.047	5.429	6.325	6.666	6.821	6.533	6.483	7.031	7.061	7.525	6.718	7.324	7.330	7.298	7.820	8.161	8.135	8.810	8.526	8.932	8.833	8.986	8.080	8.291	8.570	9.167	8.875	9.019
385.0	407.2	620.3	937.0	 1310	 1523	 1683	 1682	 1704	 1754	 1880	 1869	 1968	 1974	 1904	 1816	 1695	 1571	 1493	 1433	 1359	 1304	 1224	 1131	 1102	 1103	827.1	610.4	471.7	374.4	359.5	544.5	 2643	9999.9	9999.9	 3556	41.09	17.27	12.07	8.698	6.875	5.753	5.477	4.519	4.056	4.376	4.869	4.726	5.578	5.514	4.598	5.209	6.244	6.720	6.842	6.940	6.765	7.117	6.532	7.149	6.801	7.387	7.715	7.404	8.452	8.018	7.892	8.292	8.317	9.005	8.541	8.945	8.494	8.479	8.676	8.385	8.981	9.025
390.0	412.1	601.9	918.3	 1259	 1440	 1614	 1670	 1682	 1703	 1804	 1841	 1893	 1896	 1841	 1756	 1652	 1554	 1497	 1440	 1389	 1336	 1266	 1176	 1105	 1079	 1005	759.3	558.0	430.6	343.8	312.7	727.7	 2812	9999.9	9999.9	9999.9	211.1	18.54	12.36	8.843	7.185	5.802	4.944	4.769	4.683	4.747	4.639	5.111	5.362	4.833	4.843	6.144	6.557	6.832	6.682	6.834	7.093	6.811	6.748	7.334	6.773	6.996	7.690	7.806	7.467	7.633	7.694	8.374	8.606	8.422	7.994	8.457	8.278	8.745	8.480	8.719	8.905
395.0	407.5	589.3	879.3	 1190	 1406	 1528	 1608	 1661	 1659	 1729	 1775	 1811	 1833	 1755	 1685	 1595	 1520	 1473	 1431	 1393	 1341	 1281	 1212	 1130	 1059	 1019	952.3	685.2	520.0	400.1	309.6	334.4	749.6	 2346	 7088	9999.9	9999.9	59.82	18.56	11.95	9.631	7.246	5.346	5.115	4.925	5.083	4.961	5.339	4.851	4.851	4.731	6.460	6.510	6.703	6.320	6.984	7.328	6.574	7.131	6.971	6.978	7.289	7.147	7.404	7.521	7.102	7.643	8.309	8.249	8.085	8.118	8.659	8.183	8.654	8.425	7.857	8.678
400.0	387.3	560.3	854.6	 1114	 1364	 1508	 1585	 1617	 1648	 1713	 1744	 1751	 1761	 1717	 1643	 1546	 1484	 1447	 1412	 1385	 1346	 1279	 1226	 1136	 1071	989.7	982.7	817.8	586.9	450.4	343.8	279.9	314.5	627.7	 1767	9999.9	9999.9	 3723	45.99	15.81	11.69	9.024	6.390	4.972	5.460	5.249	4.774	5.164	5.198	5.052	5.013	5.933	5.864	6.514	5.854	6.406	6.812	6.444	6.719	7.035	7.743	6.694	7.148	7.416	6.319	6.825	7.494	7.841	7.537	7.729	7.995	7.929	8.096	8.014	7.919	8.159	8.637
405.0	368.1	567.4	832.8	 1088	 1328	 1475	 1531	 1547	 1605	 1631	 1708	 1704	 1689	 1652	 1588	 1505	 1442	 1427	 1378	 1364	 1316	 1283	 1222	 1152	 1075	987.7	937.5	896.1	692.1	505.5	390.7	296.6	241.1	262.3	486.6	 2650	9999.9	9999.9	 2830	34.43	13.63	10.03	7.958	5.779	5.596	5.209	4.892	5.027	5.060	4.906	4.825	5.791	6.083	6.464	6.018	6.159	6.647	6.486	6.968	6.715	7.487	6.311	6.583	7.022	7.055	6.470	7.345	7.579	7.942	8.494	8.171	7.668	7.566	7.758	7.482	7.483	8.712
410.0	340.8	508.9	771.6	 1021	 1225	 1393	 1483	 1530	 1563	 1589	 1603	 1620	 1611	 1571	 1507	 1417	 1369	 1358	 1329	 1310	 1281	 1247	 1198	 1142	 1073	996.8	916.1	862.6	801.2	612.3	447.0	345.2	263.7	212.9	220.1	675.4	 2766	9999.9	9999.9	 8596	40.36	14.13	10.09	7.538	6.634	5.555	5.243	5.170	5.031	4.745	4.680	5.653	5.829	5.795	5.816	5.922	6.002	6.763	6.399	6.662	7.219	6.056	6.482	6.639	6.752	6.516	6.762	7.098	6.949	7.550	7.471	7.593	7.734	7.158	7.596	7.304	7.862
