Sample:	'1
File name:	L2025090903Î÷ÎåÂ·ÇÅ.FD3
Run date:	'15:32:44, 09/09/2025
Operator:	Administrator
Comment:	'

Instrument
Model:	F-2700 FL Spectrophotometer
Serial number:	3064-004
ROM Version:	4J14000 07

Instrument parameters
Measurement type:	3-D scan
Data mode:	Fluorescence
EX  Start WL:	220.0 nm
EX  End WL:	600.0 nm
EX Sampling interval:	5.0 nm
EM  Start WL:	230.0 nm
EM  End WL:	650.0 nm
EM Sampling interval:	5.0 nm
Scan speed:	12000 nm/min
EX Slit:	5.0 nm
EM Slit:	5.0 nm
PMT Voltage:	700 V
Response:	Auto 
Corrected spectra:	Off
Contour interval:	50.000

Peak integration
Integration method:	Rectangular
Sensitivity:	1
Threshold:	1.000

Peaks
No.	ApexEX/EM(nm)	Height(Data)
1	225.0/595.0	23.20
2	230.0/345.0	505.1
3	230.0/600.0	23.82
4	230.0/610.0	22.13
5	235.0/615.0	23.86
6	240.0/520.0	265.5
7	240.0/605.0	20.80
8	245.0/530.0	238.9
9	245.0/595.0	25.59
10	250.0/540.0	226.5
11	255.0/280.0	612.4
12	255.0/550.0	188.7
13	260.0/285.0	766.8
14	260.0/570.0	165.5
15	265.0/290.0	703.0
16	265.0/430.0	968.4
17	265.0/580.0	157.4
18	270.0/295.0	 1077
19	270.0/415.0	 1004
20	270.0/590.0	139.7
21	275.0/305.0	 1315
22	275.0/405.0	985.9
23	275.0/605.0	133.4
24	280.0/310.0	 1274
25	280.0/340.0	893.8
26	280.0/400.0	 1009
27	280.0/615.0	105.2
28	285.0/315.0	 1302
29	285.0/630.0	89.22
30	290.0/240.0	4.159
31	290.0/320.0	 1246
32	290.0/390.0	996.8
33	290.0/645.0	67.40
34	295.0/330.0	941.7
35	295.0/405.0	963.6
36	300.0/335.0	857.5
37	305.0/340.0	853.3
38	310.0/345.0	759.5
39	315.0/355.0	707.4
40	320.0/360.0	792.9
41	325.0/365.0	798.1
42	330.0/375.0	763.1
43	335.0/380.0	805.3
44	340.0/385.0	793.0
45	350.0/400.0	737.9
46	355.0/405.0	702.0
47	440.0/515.0	66.13
48	445.0/525.0	54.70
49	450.0/530.0	45.97
50	505.0/275.0	2.907
51	510.0/280.0	3.364
52	520.0/285.0	3.669
53	530.0/290.0	3.728
54	540.0/295.0	4.829
55	545.0/300.0	6.161
56	550.0/305.0	6.607
57	560.0/310.0	6.041
58	570.0/315.0	6.872
59	575.0/290.0	62.17
60	575.0/320.0	6.140
61	595.0/330.0	5.207

Data points
	220.0	225.0	230.0	235.0	240.0	245.0	250.0	255.0	260.0	265.0	270.0	275.0	280.0	285.0	290.0	295.0	300.0	305.0	310.0	315.0	320.0	325.0	330.0	335.0	340.0	345.0	350.0	355.0	360.0	365.0	370.0	375.0	380.0	385.0	390.0	395.0	400.0	405.0	410.0	415.0	420.0	425.0	430.0	435.0	440.0	445.0	450.0	455.0	460.0	465.0	470.0	475.0	480.0	485.0	490.0	495.0	500.0	505.0	510.0	515.0	520.0	525.0	530.0	535.0	540.0	545.0	550.0	555.0	560.0	565.0	570.0	575.0	580.0	585.0	590.0	595.0	600.0
230.0	19.32	612.7	 3890	 2457	111.3	10.19	7.529	6.746	6.310	5.177	3.933	4.859	3.717	3.433	2.749	2.981	2.810	1.998	1.844	1.658	1.699	1.031	1.482	1.105	1.181	1.107	0.858	0.904	0.837	0.815	0.806	0.763	0.722	0.514	0.632	0.729	0.628	0.606	0.630	0.529	0.541	0.729	0.575	0.545	0.390	0.530	1.722	6.099	9.630	6.847	2.516	0.606	0.253	0.303	0.270	0.274	0.197	0.294	0.270	0.165	0.160	0.142	0.158	0.217	0.200	0.167	0.187	0.169	0.175	0.166	0.215	0.092	0.077	0.135	0.129	0.062	0.115
235.0	52.29	158.3	 1669	 5147	 2632	307.2	9.116	8.122	8.531	5.189	4.164	4.443	4.725	3.245	4.139	3.076	2.574	1.952	1.711	1.652	1.815	1.487	1.459	1.248	1.560	1.239	1.054	0.882	0.859	0.637	0.803	0.890	0.642	0.477	0.645	0.609	0.564	0.683	0.555	0.440	0.520	0.517	0.455	0.937	0.626	0.422	0.793	1.681	3.775	6.620	9.224	8.676	3.855	0.788	0.344	0.232	0.292	0.180	0.276	0.274	0.317	0.163	0.277	0.107	0.191	0.146	0.084	0.152	0.203	0.115	0.204	0.150	0.072	0.197	0.166	0.096	0.176
240.0	50.75	85.40	417.1	 2897	 6611	 2923	79.82	10.04	11.07	4.307	6.950	5.734	3.838	2.967	4.159	2.726	3.444	2.417	1.685	1.660	1.630	1.512	1.329	1.307	1.410	1.740	0.882	0.762	0.767	0.812	0.818	0.728	0.706	0.887	0.717	0.626	0.498	0.642	0.767	0.516	0.618	0.597	0.486	0.826	0.687	0.689	0.623	0.734	1.185	2.162	5.574	10.96	13.14	8.907	3.032	0.601	0.371	0.340	0.256	0.309	0.260	0.208	0.271	0.083	0.232	0.047	0.092	0.058	0.161	0.195	0.263	0.239	0.090	0.114	0.119	0.092	0.263
245.0	32.84	94.14	154.2	777.5	 5001	 7737	784.5	43.81	11.65	6.616	6.951	6.717	5.536	3.067	3.091	2.957	3.611	2.367	1.194	1.503	1.964	1.697	1.486	1.460	1.332	1.359	1.053	0.983	0.976	0.992	0.955	0.639	0.756	0.565	0.589	0.619	0.578	0.539	0.683	0.480	0.679	0.615	0.520	0.536	0.423	0.742	0.903	0.778	0.585	0.702	1.630	4.098	10.02	17.01	16.50	7.279	1.758	0.417	0.351	0.217	0.090	0.189	0.198	0.288	0.248	0.139	0.156	0.170	0.051	0.291	0.083	0.199	0.135	0.172	0.230	0.221	0.420
250.0	15.67	53.28	158.3	273.8	 1338	 4778	 7295	 2954	278.9	11.97	10.16	8.096	6.277	4.501	4.038	3.454	3.546	2.277	1.818	1.797	1.851	1.603	1.616	1.481	1.255	1.231	1.041	0.928	1.025	0.807	1.146	0.865	0.757	0.666	0.522	0.664	0.565	0.532	0.543	0.573	0.547	0.636	0.544	0.485	0.394	0.535	0.595	0.819	0.957	0.826	0.845	1.302	2.708	5.858	11.29	14.74	18.13	14.53	7.135	2.005	0.471	0.204	0.256	0.254	0.309	0.159	0.201	0.271	0.208	0.231	0.154	0.258	0.136	0.119	0.145	0.147	0.236
255.0	8.886	21.13	78.08	251.9	433.2	 1117	 3395	9999.9	 5011	254.3	14.44	11.62	7.895	5.443	4.089	3.484	4.601	2.678	2.262	2.633	2.514	1.812	1.648	1.274	1.757	1.104	1.388	1.130	0.821	0.959	0.867	0.599	0.817	0.624	0.716	0.773	0.672	0.473	0.460	0.530	0.535	0.716	0.514	0.361	0.380	0.409	0.417	0.478	0.605	0.993	1.030	1.264	1.118	1.574	2.704	3.782	7.691	18.02	29.58	26.17	10.32	1.674	0.318	0.250	0.296	0.166	0.284	0.150	0.243	0.201	0.050	0.255	0.115	0.167	0.207	0.093	0.317
260.0	11.86	19.26	34.00	166.6	362.1	342.1	844.4	 5847	9999.9	 3349	144.1	17.41	10.61	6.495	6.445	5.621	6.009	3.420	2.075	2.615	2.788	1.779	1.793	1.440	1.773	1.580	1.296	0.979	0.877	0.794	0.981	0.614	0.757	0.623	0.691	0.820	0.668	0.482	0.418	0.546	0.368	0.651	0.493	0.558	0.543	0.497	0.605	0.319	0.487	0.563	0.696	1.832	1.745	1.013	0.931	1.199	2.352	5.287	15.43	32.11	39.96	25.21	7.088	0.660	0.338	0.364	0.348	0.199	0.125	0.386	0.163	0.470	0.105	0.158	0.214	0.129	0.118
265.0	15.82	15.63	21.26	69.64	288.2	355.9	253.5	 1582	 8581	9999.9	 2675	57.90	13.59	7.832	7.523	5.190	6.402	3.028	2.440	2.828	2.356	1.876	1.486	1.515	1.625	1.439	1.310	1.144	1.297	0.987	1.028	1.033	1.031	0.771	0.623	0.963	0.458	0.798	0.532	0.567	0.624	0.703	0.618	0.611	0.433	0.527	0.485	0.426	0.421	0.357	0.533	0.845	1.559	1.729	1.216	0.820	0.852	1.417	4.165	10.76	26.35	44.31	42.58	21.41	3.603	0.528	0.232	0.356	0.196	0.193	0.201	0.320	0.117	0.184	0.121	0.180	0.202
270.0	26.41	23.15	23.46	34.87	109.5	308.3	399.4	447.0	 2260	 5406	9999.9	 7432	165.7	14.10	8.951	5.906	8.158	4.133	3.239	3.115	2.588	2.139	1.736	2.126	2.131	1.553	1.645	0.954	1.502	1.033	1.082	1.113	0.843	0.853	0.674	0.825	0.466	0.679	0.593	0.682	0.428	0.640	0.515	0.572	0.457	0.494	0.527	0.553	0.456	0.413	0.476	0.527	0.752	1.112	1.637	2.056	1.828	1.069	1.392	2.765	6.791	14.13	26.81	39.40	45.30	32.78	16.25	3.227	0.333	0.189	0.283	0.315	0.126	0.289	0.190	0.099	0.301
275.0	52.35	31.88	30.64	26.06	45.04	111.1	386.9	552.1	591.7	 1266	 5050	9999.9	9999.9	200.9	15.78	8.562	11.65	4.788	3.410	4.403	3.097	2.490	2.486	1.826	1.735	1.687	1.770	1.474	1.133	1.470	1.463	1.131	0.912	0.931	0.799	1.020	0.651	0.636	0.646	0.602	0.516	0.562	0.495	0.581	0.593	0.442	0.574	0.570	0.457	0.284	0.447	0.388	0.319	0.511	0.726	1.230	2.295	2.907	2.256	1.387	2.063	3.520	6.302	9.640	18.31	40.28	70.89	48.19	22.14	2.465	0.299	0.365	0.234	0.277	0.264	0.113	0.186
280.0	47.46	52.85	50.30	37.34	36.75	52.59	172.7	612.4	483.2	353.9	 1278	 5980	9999.9	 2528	114.4	12.28	15.44	5.316	4.173	4.097	2.869	2.766	2.317	2.209	1.626	2.146	2.373	1.365	1.384	1.293	1.042	1.161	0.696	1.074	1.036	1.001	0.684	0.557	0.675	0.744	0.576	0.661	0.484	0.716	0.970	0.585	0.656	0.615	0.520	0.506	0.572	0.491	0.373	0.406	0.392	0.521	0.962	2.250	3.364	2.950	1.505	1.174	1.984	2.494	4.807	11.15	31.72	65.15	85.32	41.73	10.44	0.986	0.225	0.245	0.185	0.259	0.231
285.0	59.73	66.03	71.29	55.56	43.04	43.05	73.97	340.4	766.8	316.8	392.8	 1569	 8984	9999.9	 1840	50.27	23.08	6.984	4.829	4.387	4.002	2.658	2.643	2.160	2.051	2.455	1.649	1.696	1.364	1.460	1.222	1.014	0.949	0.865	0.738	1.407	0.576	0.538	0.658	0.806	0.776	0.665	0.810	0.722	0.804	0.869	0.655	0.845	0.777	0.625	0.618	0.449	0.529	0.425	0.542	0.417	0.561	1.007	1.862	3.643	3.669	1.808	1.121	1.114	1.752	3.051	7.912	19.87	48.17	84.10	55.84	30.50	3.867	0.373	0.215	0.233	0.189
290.0	100.5	109.7	117.5	94.37	71.92	63.96	70.65	153.5	465.6	703.0	414.5	539.7	 2371	 6085	9999.9	 6342	121.4	12.17	7.721	5.415	4.380	3.877	2.936	2.730	2.331	2.272	2.004	1.745	1.740	1.415	1.302	1.380	1.190	1.017	0.989	1.069	0.840	1.025	0.921	1.049	0.760	0.782	0.788	0.798	0.863	0.981	0.795	1.099	1.031	0.832	0.740	0.540	0.547	0.470	0.578	0.446	0.593	0.660	0.866	1.648	2.839	3.520	3.728	2.462	1.780	1.713	2.593	5.303	12.10	24.61	38.60	62.17	60.10	54.49	20.49	4.598	0.524
295.0	131.8	147.3	170.2	140.2	106.8	100.1	98.28	141.2	237.0	489.4	 1077	515.5	806.7	 1577	 3434	9999.9	9999.9	128.5	12.05	7.498	5.474	4.625	3.607	3.645	2.667	2.620	2.214	1.654	1.415	1.345	1.526	1.459	1.421	1.014	0.950	1.223	1.236	1.449	0.991	1.005	1.017	1.017	0.835	1.182	0.889	1.063	0.957	1.113	1.127	1.007	0.847	0.642	0.668	0.689	0.807	0.664	0.653	0.733	0.774	0.919	1.502	1.843	2.748	4.323	4.829	3.035	1.851	2.409	3.866	6.730	9.607	14.98	20.17	51.15	92.72	56.47	29.59
300.0	153.8	169.5	193.5	169.9	142.0	135.1	129.0	156.8	213.4	345.2	921.9	 1145	546.2	630.8	977.4	 4177	9999.9	 6577	85.56	11.56	7.944	5.564	4.291	3.330	2.845	2.671	1.752	2.205	1.546	1.720	1.683	1.427	1.702	1.105	1.218	0.980	1.339	1.215	1.113	1.214	1.180	1.119	1.045	1.013	1.129	1.079	1.332	1.238	0.992	0.911	0.901	0.957	0.655	0.809	0.882	0.803	0.911	1.013	0.933	0.960	1.265	1.394	1.641	2.418	4.629	6.161	4.357	2.560	2.419	3.127	3.465	4.441	5.611	12.98	35.29	75.89	112.1
305.0	172.9	215.0	219.9	204.8	165.9	155.0	156.2	192.5	241.5	328.2	603.0	 1315	963.6	512.5	455.5	 1118	9999.9	9999.9	 1227	46.53	10.31	7.403	5.347	4.056	3.397	2.737	2.398	2.195	1.758	1.931	1.813	1.790	1.621	1.354	1.073	1.287	1.271	1.237	1.030	1.230	1.309	0.927	0.912	1.084	0.911	1.111	1.116	1.304	1.113	0.935	1.240	0.841	1.155	0.942	0.978	0.927	0.950	1.175	1.056	0.982	1.341	1.399	1.695	1.840	3.214	5.005	6.607	5.113	3.240	2.343	2.358	2.201	2.577	3.727	8.839	20.82	55.38
310.0	172.3	228.5	271.6	227.5	195.2	179.7	189.8	234.4	284.7	353.6	513.9	861.0	 1274	948.7	456.4	450.8	 2565	 5229	9999.9	 4906	73.51	11.02	7.438	4.952	4.219	3.059	2.841	2.725	2.199	1.996	2.008	1.661	1.747	1.406	1.046	1.134	1.345	1.352	1.130	1.373	1.214	1.270	1.232	1.251	1.128	1.283	1.223	1.376	1.490	1.182	1.199	1.119	1.137	1.079	0.996	1.136	1.059	1.310	1.242	1.162	1.422	1.590	1.922	2.148	2.652	3.094	4.071	5.604	6.041	4.923	3.534	2.318	2.216	1.910	3.050	5.515	13.48
315.0	175.7	233.1	314.4	273.0	204.2	198.2	220.6	276.5	341.0	400.4	537.8	693.2	911.4	 1302	836.2	375.8	757.5	 1269	 3022	9999.9	 7185	96.95	10.79	6.920	5.243	3.258	3.481	3.365	2.476	2.503	1.718	1.856	1.739	1.383	1.354	1.347	1.401	1.373	1.262	1.481	1.301	1.245	1.140	1.388	1.463	1.234	1.457	1.482	1.555	1.261	1.477	1.076	1.255	1.141	1.161	1.251	1.403	1.384	1.388	1.481	1.571	1.565	2.068	2.016	2.540	2.743	2.862	3.579	4.123	4.843	6.872	4.791	3.168	1.905	1.951	2.466	3.987
320.0	197.5	256.2	340.4	301.3	230.4	222.3	238.4	286.9	353.7	432.9	567.5	697.8	805.1	 1023	 1246	536.8	393.2	405.6	763.7	 3829	9999.9	 5412	65.15	9.343	6.845	4.846	3.903	3.990	3.169	2.371	1.951	1.948	1.647	1.217	1.303	1.421	1.296	1.701	1.538	1.756	1.383	1.364	1.356	1.578	1.758	1.331	1.453	1.552	1.630	1.521	1.437	1.161	1.139	1.503	1.070	1.364	1.232	1.673	1.556	1.642	1.599	1.882	2.116	2.366	2.672	2.634	3.012	3.647	3.717	3.932	5.134	6.140	6.015	3.305	1.809	1.776	2.117
325.0	194.6	301.4	388.9	353.6	280.1	241.8	253.3	304.9	371.8	466.9	613.2	737.2	790.2	862.9	 1148	936.9	386.8	244.9	271.5	956.5	 5361	9999.9	915.9	36.38	8.628	5.573	4.196	4.693	3.412	2.157	2.319	2.160	1.634	1.526	1.448	1.566	1.487	1.539	1.367	1.381	1.165	1.181	1.318	1.450	1.713	1.439	1.470	1.945	1.725	1.328	1.429	1.400	1.333	1.339	1.167	1.388	1.518	1.755	1.476	1.695	1.413	2.040	2.239	2.316	3.034	2.845	3.093	3.449	3.302	3.931	3.688	4.406	5.708	5.231	3.823	2.057	1.683
330.0	221.5	312.8	421.8	420.6	333.2	279.4	290.9	331.2	407.2	505.5	644.9	757.9	825.9	847.0	847.3	941.7	758.5	323.9	210.4	318.2	 1322	 4837	9999.9	 3797	58.64	8.965	5.983	4.705	3.478	2.858	2.748	2.210	1.489	1.625	1.724	1.441	1.446	1.563	1.432	1.531	1.137	1.366	1.352	1.530	1.526	1.729	1.978	1.827	1.927	1.673	1.499	1.449	1.513	1.384	1.438	1.451	1.550	1.714	1.559	2.013	1.805	2.165	2.307	2.663	2.946	3.053	3.029	3.481	3.651	4.015	3.672	3.534	3.758	4.185	4.792	5.207	3.954
335.0	218.4	353.3	451.1	468.3	387.5	319.4	302.8	368.8	435.3	538.9	670.5	777.0	860.5	858.2	785.1	710.7	857.5	676.7	280.8	213.5	412.2	 1165	 3061	9999.9	 5830	78.63	9.233	6.302	4.757	3.921	3.258	2.566	1.963	1.795	1.790	1.510	1.562	1.581	1.243	1.607	1.345	1.426	1.181	1.306	1.461	1.904	1.753	2.365	1.982	1.885	1.799	1.720	1.676	1.520	1.237	1.651	1.898	1.578	1.439	2.065	2.013	2.581	2.254	2.796	3.042	3.262	3.351	3.554	3.441	3.568	4.133	3.442	3.517	3.652	3.372	4.544	4.999
340.0	206.3	328.5	485.1	500.3	421.4	376.8	366.8	408.7	464.2	562.9	681.8	798.6	893.8	885.2	810.6	682.8	686.0	853.3	495.6	251.2	246.5	372.8	772.2	 3977	9999.9	 4444	53.75	8.524	5.944	4.170	3.554	3.161	2.661	1.687	1.587	1.565	1.350	1.769	1.716	1.559	1.385	1.330	1.569	1.560	1.429	1.813	1.859	2.194	2.354	1.861	1.702	1.731	1.599	1.459	1.795	1.668	1.997	1.790	1.659	2.266	2.234	2.610	2.426	2.845	2.956	3.229	3.559	3.425	3.637	3.549	3.653	3.500	3.807	3.469	3.141	3.268	3.775
345.0	224.3	339.8	505.1	502.7	471.4	419.7	404.6	435.7	504.2	558.0	712.6	807.5	890.9	893.6	829.6	703.0	620.6	712.1	759.5	372.8	249.9	230.7	280.7	998.7	 5564	9999.9	755.7	32.81	7.589	4.747	4.856	2.694	2.921	1.763	1.639	1.601	1.496	1.659	1.561	1.569	1.338	1.292	1.621	1.465	1.477	1.844	1.942	2.151	2.371	1.891	1.648	2.007	1.857	1.842	2.041	1.735	1.764	1.662	2.109	2.027	2.157	2.346	3.021	2.826	2.654	3.232	3.523	3.771	3.980	3.998	4.038	3.717	3.729	3.404	3.514	3.043	3.181
350.0	213.0	346.6	480.4	562.8	511.5	485.6	466.3	486.2	545.9	605.4	720.6	798.0	881.2	893.1	851.2	746.1	660.1	604.8	711.5	674.1	390.0	268.4	229.7	347.7	 1393	 4998	 8896	 3203	51.56	8.505	5.617	3.966	3.178	2.606	2.042	1.862	1.684	1.847	1.721	1.987	1.256	1.413	1.597	1.733	1.600	1.913	1.832	2.068	2.218	2.017	1.878	2.270	1.987	1.961	2.059	1.766	2.245	2.096	2.202	2.430	2.443	2.469	3.024	2.904	3.113	3.353	3.452	3.867	4.166	4.125	4.127	3.619	4.147	3.632	3.798	3.702	3.378
355.0	208.0	341.7	497.5	552.4	535.3	542.2	538.6	536.9	603.2	662.9	749.5	823.8	905.5	911.4	899.8	798.5	717.7	634.2	623.8	707.4	703.6	398.6	290.9	263.5	447.2	 1214	 2978	 9615	 4964	70.95	8.730	6.088	3.789	2.818	2.362	1.947	1.806	1.742	1.749	1.981	1.345	1.422	1.464	1.530	1.537	1.964	1.822	2.113	2.257	2.045	1.911	2.341	1.880	2.521	2.234	1.876	2.591	2.431	2.330	2.718	2.650	2.847	3.100	3.343	3.402	3.509	3.880	4.109	3.616	4.151	4.171	4.067	4.504	3.796	3.774	4.189	3.735
360.0	218.7	351.1	484.2	577.0	598.3	608.0	587.3	604.7	638.2	714.6	775.0	854.7	918.1	922.8	914.3	824.3	765.5	688.7	652.4	646.7	792.9	613.9	369.7	288.8	282.3	402.1	771.8	 4091	9999.9	 3819	47.78	7.800	5.320	3.581	2.459	2.078	1.896	1.818	1.833	1.949	1.619	1.514	1.581	1.539	1.670	1.758	1.913	1.976	2.068	2.175	2.041	2.322	2.371	2.920	2.345	2.433	2.536	2.552	2.400	2.697	3.027	2.844	3.484	3.210	3.383	3.656	3.560	3.815	3.708	3.776	4.132	4.195	4.285	4.058	4.095	4.106	3.659
365.0	235.3	348.2	499.3	598.8	603.6	646.4	630.7	643.3	680.8	755.0	817.6	870.1	922.7	954.6	924.7	853.5	804.6	751.7	707.2	650.3	720.4	798.1	511.9	353.1	290.3	258.3	295.1	 1041	 5740	9999.9	678.5	27.67	6.645	4.289	2.849	2.541	2.123	1.879	2.033	2.217	1.602	1.673	1.619	1.643	1.541	1.796	1.905	2.143	2.120	2.162	2.059	2.239	2.504	2.832	2.334	2.576	2.541	2.838	2.898	2.794	2.981	2.912	3.162	3.171	3.547	3.604	4.100	4.000	3.814	4.175	4.300	4.477	4.460	4.270	4.477	4.440	4.204
370.0	225.7	351.2	482.7	607.5	648.2	689.2	696.0	723.0	741.7	792.9	865.3	894.9	924.2	960.9	946.4	896.7	861.2	808.2	765.2	719.3	697.0	761.9	751.4	515.0	362.6	290.6	242.4	358.0	 1446	 5155	 8645	 2796	42.93	7.053	3.998	3.294	2.491	2.108	1.944	2.385	1.731	1.688	1.747	1.485	1.802	1.956	1.946	2.137	2.108	2.339	2.055	2.475	2.816	2.639	2.600	2.659	3.107	2.879	2.940	3.071	2.737	3.414	3.600	3.420	3.974	3.729	3.916	4.039	4.112	4.214	4.465	4.393	4.573	4.422	4.448	4.785	4.666
375.0	219.9	353.7	487.3	597.6	696.8	717.1	725.8	798.5	788.4	832.4	894.7	911.6	955.6	964.1	946.7	918.8	902.8	859.0	828.2	796.8	748.3	725.1	763.1	753.3	496.0	359.5	283.7	254.7	444.2	 1234	 3161	 9258	 4067	55.30	6.641	4.399	3.122	2.815	2.237	2.103	1.992	1.591	1.921	1.605	1.627	1.876	1.722	2.168	2.095	2.260	1.960	2.644	2.873	2.839	3.075	3.235	3.327	3.144	3.452	3.381	3.200	3.176	3.423	3.603	3.938	3.636	4.059	4.049	4.233	4.255	4.398	4.398	4.471	4.752	4.734	4.916	5.272
380.0	221.6	336.1	487.7	627.8	735.0	753.2	771.5	810.3	818.3	867.8	897.0	940.3	959.2	978.6	969.0	934.8	939.6	901.2	873.1	840.4	793.3	756.7	728.3	805.3	675.3	439.7	333.9	265.9	252.6	380.3	798.1	 4267	 9914	 2924	35.29	6.327	3.500	3.595	1.914	2.408	2.169	1.669	2.015	1.871	1.453	2.086	2.354	2.051	2.264	2.296	2.265	2.814	3.108	3.089	3.357	3.039	3.258	3.381	3.315	3.539	3.145	3.406	3.599	3.774	3.958	4.248	3.895	4.121	4.080	4.992	4.380	4.987	4.723	4.589	4.967	5.216	5.059
385.0	231.9	358.6	502.6	634.0	710.6	778.1	804.2	860.1	856.6	897.1	907.7	937.0	982.1	980.0	984.8	941.7	945.3	919.2	906.0	881.0	837.6	797.4	739.2	745.8	793.0	557.5	387.7	302.9	247.7	220.5	272.7	 1078	 5766	 8927	520.0	18.03	4.781	3.921	2.477	3.064	1.854	1.764	2.182	1.942	1.921	1.730	2.298	2.317	2.148	2.588	2.584	2.851	3.414	2.974	3.335	2.903	3.227	3.538	3.464	3.544	3.104	3.686	3.996	3.833	3.297	4.245	3.568	3.774	3.830	4.731	4.377	4.791	4.780	4.756	4.857	5.064	5.128
390.0	239.8	370.6	496.1	656.6	748.4	806.8	831.4	867.5	892.0	933.3	939.8	962.4	982.6	991.6	996.8	960.3	949.2	928.5	921.9	908.1	873.7	833.6	774.7	734.2	746.1	717.7	525.2	373.9	298.5	229.0	193.9	332.3	 1456	 4738	 6549	 2127	32.04	5.810	3.819	3.761	2.398	2.086	2.263	2.004	2.027	1.853	2.215	2.443	2.353	2.600	2.282	2.853	3.108	3.148	3.485	3.371	3.338	3.399	3.404	3.533	3.575	3.921	3.998	3.797	3.996	3.932	3.914	4.071	4.168	4.002	4.370	4.627	4.721	4.550	4.855	5.056	5.379
395.0	273.8	362.0	501.1	649.0	754.0	817.5	856.2	891.0	928.7	958.8	953.2	983.5	 1000	987.0	986.0	960.5	950.6	950.8	942.6	919.2	898.6	855.8	814.2	770.2	711.6	717.1	706.3	494.1	368.1	285.9	223.1	201.4	409.8	 1118	 2561	 7861	 3093	43.41	6.274	4.704	3.321	2.509	2.303	1.997	1.949	1.762	1.908	2.454	2.156	2.397	2.647	2.724	2.831	3.057	3.261	3.145	3.661	3.836	3.680	3.645	3.605	3.668	3.794	3.855	3.455	3.813	3.732	4.121	4.678	4.901	4.242	4.268	4.693	4.182	4.949	5.562	4.845
400.0	283.8	344.9	488.4	654.6	762.4	824.7	872.1	900.1	922.7	952.5	966.2	983.2	 1009	993.3	985.1	955.4	950.8	939.1	943.2	927.4	904.9	877.3	832.0	786.0	727.4	681.5	737.9	624.4	426.1	331.1	260.1	198.5	196.4	319.0	643.3	 3929	 7426	 2130	28.34	6.346	3.355	2.955	2.568	2.261	2.385	2.110	1.954	2.063	2.147	2.388	2.709	2.749	2.920	2.918	3.165	3.099	3.988	3.720	3.584	4.309	3.763	4.033	4.443	3.838	3.833	3.659	3.805	4.217	4.573	4.555	4.157	4.204	5.015	4.631	4.547	5.357	5.532
405.0	269.3	381.2	487.0	651.4	739.7	823.0	870.6	941.4	936.3	963.8	964.8	985.9	981.8	966.7	959.3	963.6	947.3	930.5	941.3	922.5	907.5	882.7	845.7	802.3	745.5	687.2	691.4	702.0	521.2	374.9	298.1	223.3	170.2	160.1	206.1	998.6	 4537	 6502	433.9	16.53	4.501	3.213	3.064	2.479	2.338	2.272	2.142	2.041	2.225	2.055	2.432	2.724	2.842	3.250	3.134	3.404	3.852	3.679	3.761	3.473	4.076	3.871	4.009	3.642	3.902	3.666	4.070	3.932	4.172	4.578	4.563	4.029	4.267	4.778	4.525	5.125	5.471
410.0	251.9	351.1	502.1	644.6	758.0	829.2	880.9	919.1	944.4	977.5	982.9	968.2	984.0	958.9	949.2	947.2	924.1	917.4	919.0	907.8	902.0	870.3	855.5	815.2	765.6	711.8	670.1	656.4	632.2	484.2	351.8	262.7	196.9	148.6	126.6	278.1	 1144	 3559	 4451	 1895	28.01	4.968	3.459	2.616	2.573	2.290	2.123	2.367	2.269	2.232	2.240	2.688	3.073	3.190	3.455	3.355	3.851	3.858	3.721	3.744	3.642	3.853	4.075	3.726	3.688	3.945	4.117	4.115	4.446	4.231	4.366	4.167	3.866	4.571	4.838	4.823	5.280
