Sample:	'1
File name:	城北污水厂南侧二沉池 5倍.FD3
Run date:	'15:49:25, 08/19/2024
Operator:	horiz
Comment:	'

Instrument
Model:	F-2700 FL Spectrophotometer
Serial number:	23B8-004
ROM Version:	4J14000 07

Instrument parameters
Measurement type:	3-D scan
Data mode:	Fluorescence
EX  Start WL:	220.0 nm
EX  End WL:	600.0 nm
EX Sampling interval:	5.0 nm
EM  Start WL:	230.0 nm
EM  End WL:	650.0 nm
EM Sampling interval:	5.0 nm
Scan speed:	12000 nm/min
EX Slit:	5.0 nm
EM Slit:	5.0 nm
PMT Voltage:	700 V
Response:	Auto 
Corrected spectra:	Off
Contour interval:	50.000

Peak integration
Integration method:	Rectangular
Sensitivity:	1
Threshold:	1.000

Peaks
No.	ApexEX/EM(nm)	Height(Data)
1	225.0/305.0	1900
2	225.0/345.0	8847
3	225.0/485.0	385.9
4	230.0/495.0	323.9
5	235.0/510.0	247.5
6	240.0/265.0	425.5
7	240.0/525.0	219.5
8	245.0/270.0	418.5
9	245.0/535.0	178.9
10	250.0/275.0	533.7
11	250.0/550.0	155.6
12	255.0/280.0	634.5
13	255.0/560.0	133.9
14	260.0/575.0	132.0
15	265.0/585.0	132.3
16	270.0/300.0	1677
17	270.0/600.0	142.8
18	275.0/305.0	1795
19	275.0/610.0	121.6
20	280.0/345.0	2628
21	280.0/625.0	93.44
22	315.0/355.0	667.7
23	320.0/360.0	640.2
24	325.0/370.0	556.4
25	330.0/375.0	501.8
26	350.0/400.0	280.6
27	360.0/415.0	215.1
28	365.0/420.0	202.8
29	375.0/435.0	140.8
30	380.0/440.0	129.2
31	395.0/460.0	83.17
32	410.0/480.0	50.82
33	415.0/485.0	44.37
34	425.0/500.0	30.18
35	430.0/505.0	25.32
36	445.0/525.0	14.53
37	455.0/345.0	25.63
38	455.0/540.0	9.341
39	470.0/560.0	4.585
40	485.0/265.0	2.648
41	505.0/275.0	3.460
42	510.0/280.0	3.553
43	520.0/285.0	4.312
44	540.0/295.0	7.019
45	545.0/300.0	7.978
46	550.0/305.0	8.324
47	565.0/345.0	11.48

Wavelength data
No.	EX/EM(nm)	Height(Data)	

Data points
	220.0	225.0	230.0	235.0	240.0	245.0	250.0	255.0	260.0	265.0	270.0	275.0	280.0	285.0	290.0	295.0	300.0	305.0	310.0	315.0	320.0	325.0	330.0	335.0	340.0	345.0	350.0	355.0	360.0	365.0	370.0	375.0	380.0	385.0	390.0	395.0	400.0	405.0	410.0	415.0	420.0	425.0	430.0	435.0	440.0	445.0	450.0	455.0	460.0	465.0	470.0	475.0	480.0	485.0	490.0	495.0	500.0	505.0	510.0	515.0	520.0	525.0	530.0	535.0	540.0	545.0	550.0	555.0	560.0	565.0	570.0	575.0	580.0	585.0	590.0	595.0	600.0
230.0	124.7	1964	3813	1308	50.88	13.86	9.882	8.961	7.759	6.796	6.400	5.522	4.623	3.859	3.444	2.943	2.516	2.188	1.902	1.879	1.698	1.552	1.489	1.361	1.222	1.229	1.073	1.102	1.060	1.029	1.033	0.925	0.826	0.843	0.836	0.800	0.756	0.775	0.731	0.707	0.896	1.186	1.031	0.803	0.655	0.669	2.363	8.295	12.38	8.409	3.032	0.874	0.533	0.555	0.510	0.567	0.535	0.583	0.569	0.525	0.564	0.566	0.557	0.573	0.570	0.566	0.519	0.554	0.563	0.580	0.538	0.571	0.550	0.616	0.559	0.573	0.617
235.0	189.2	554.0	2283	3877	685.3	69.32	10.77	8.840	9.162	7.550	6.869	5.560	4.986	4.121	3.636	3.031	3.197	2.028	1.954	1.722	1.607	1.584	1.595	1.382	1.196	1.233	1.126	1.183	1.066	1.026	1.070	0.900	0.825	0.779	0.778	0.696	0.851	0.759	0.735	0.762	0.683	0.897	1.051	1.196	1.008	0.737	1.091	2.522	5.020	7.867	10.81	10.73	4.915	1.305	0.557	0.516	0.541	0.566	0.554	0.537	0.575	0.523	0.521	0.536	0.528	0.529	0.585	0.530	0.547	0.548	0.538	0.564	0.547	0.567	0.544	0.514	0.649
240.0	277.1	269.2	701.8	3113	3737	546.5	34.93	11.30	9.519	7.797	7.384	5.680	5.158	4.237	3.654	2.968	2.942	2.448	2.243	1.909	1.699	1.775	1.362	1.339	1.245	1.194	1.146	1.149	1.028	1.097	1.057	0.915	0.859	0.778	0.719	0.693	0.841	0.761	0.813	0.768	0.801	0.805	0.775	1.020	1.184	1.170	1.011	1.140	1.565	2.586	5.989	13.68	16.04	11.07	4.048	0.898	0.596	0.594	0.583	0.534	0.609	0.499	0.590	0.530	0.578	0.522	0.589	0.596	0.674	0.565	0.638	0.589	0.552	0.579	0.567	0.512	0.654
245.0	204.8	305.7	245.7	1069	3848	4045	390.8	18.53	9.484	9.448	7.985	6.360	6.020	4.771	3.439	2.998	2.947	2.402	2.046	1.949	1.806	1.743	1.736	1.298	1.279	1.218	1.262	1.258	1.146	0.988	1.084	0.945	0.916	0.867	0.687	0.737	0.785	0.766	0.734	0.811	0.756	0.793	0.686	0.754	0.945	1.086	1.364	1.309	0.858	0.957	1.827	4.869	11.09	17.61	17.29	8.980	2.565	0.690	0.566	0.531	0.502	0.567	0.593	0.600	0.646	0.581	0.510	0.575	0.585	0.596	0.584	0.632	0.602	0.576	0.583	0.550	0.702
250.0	98.16	221.2	309.4	356.7	1241	4185	3963	1349	81.75	10.54	8.712	6.634	6.232	5.121	3.957	3.286	2.917	2.457	2.295	1.970	1.827	1.652	1.625	1.381	1.372	1.330	1.205	1.197	1.141	1.056	1.082	1.002	0.863	0.931	0.783	0.774	0.784	0.827	0.762	0.818	0.796	0.724	0.797	0.696	0.815	0.764	0.962	1.253	1.351	1.156	1.035	1.591	3.111	5.842	10.35	15.33	18.31	15.68	8.244	2.586	0.717	0.558	0.637	0.567	0.551	0.611	0.548	0.609	0.581	0.562	0.617	0.595	0.568	0.572	0.610	0.563	0.626
255.0	58.64	87.60	214.9	380.6	392.2	1059	3011	5719	1835	81.70	11.22	9.184	7.450	5.815	4.159	3.647	3.200	2.585	2.194	2.137	1.837	1.819	1.498	1.431	1.460	1.219	1.157	1.286	1.121	1.068	1.049	0.974	1.020	0.946	0.756	0.823	0.785	0.759	0.768	0.808	0.730	0.762	0.818	0.757	0.735	0.650	0.666	0.700	0.882	1.160	1.711	1.843	1.357	1.767	2.762	4.074	7.023	15.86	26.44	26.21	12.23	2.559	0.678	0.616	0.659	0.594	0.597	0.615	0.606	0.566	0.602	0.562	0.554	0.617	0.626	0.568	0.622
260.0	60.14	51.27	97.26	325.6	377.8	303.0	904.2	4560	6097	328.9	40.16	10.70	7.341	6.039	4.701	3.759	3.064	2.724	2.423	2.218	1.820	1.786	1.640	1.561	1.360	1.301	1.033	1.231	1.201	1.129	1.149	1.069	1.040	0.892	0.728	0.762	0.852	0.794	0.737	0.727	0.790	0.795	0.762	0.753	0.695	0.666	0.574	0.642	0.711	0.737	1.291	2.276	2.175	1.520	1.199	1.325	2.192	4.610	11.87	25.74	33.15	24.70	9.057	1.606	0.575	0.630	0.632	0.585	0.598	0.572	0.644	0.682	0.589	0.547	0.640	0.570	0.674
265.0	59.20	45.99	50.67	152.4	425.5	287.8	252.0	1517	6187	5627	267.9	18.66	9.110	7.761	5.182	4.183	3.409	2.902	2.449	2.074	2.102	1.825	1.692	1.623	1.467	1.519	1.294	1.312	1.214	1.026	1.172	0.995	1.068	0.822	0.891	0.813	0.892	0.881	0.650	0.704	0.734	0.745	0.827	0.731	0.634	0.725	0.611	0.596	0.623	0.551	0.749	1.299	1.910	2.648	1.614	1.054	1.053	1.526	3.341	7.959	18.39	32.77	34.21	20.32	5.358	0.873	0.651	0.690	0.607	0.564	0.636	0.626	0.631	0.621	0.673	0.577	0.591
270.0	82.16	55.88	45.76	65.18	214.1	418.5	315.3	409.2	1940	5437	6546	1008	65.15	10.16	6.624	5.481	4.046	3.048	2.905	2.359	2.326	1.966	1.790	1.691	1.521	1.286	1.305	1.324	1.185	1.210	1.171	1.119	0.949	0.952	0.891	0.861	0.898	0.924	0.756	0.797	0.837	0.830	0.857	0.725	0.731	0.775	0.744	0.672	0.613	0.537	0.591	0.768	1.010	1.568	2.033	2.401	2.208	1.541	1.401	2.347	4.773	9.751	17.46	26.95	30.36	27.98	14.52	4.720	1.010	0.686	0.676	0.637	0.636	0.603	0.651	0.598	0.626
275.0	167.9	119.4	77.27	62.81	94.05	215.8	533.7	373.0	512.4	1380	4686	8817	1420	65.63	9.876	6.783	4.971	3.600	3.199	2.617	2.589	1.971	2.008	1.658	1.524	1.375	1.386	1.552	1.387	1.166	1.194	1.162	1.133	1.120	0.968	1.017	1.095	1.046	0.916	1.002	1.141	0.986	1.044	0.959	0.886	0.945	0.898	0.785	0.700	0.580	0.559	0.687	0.771	0.903	1.025	1.413	2.537	3.460	2.545	1.600	1.765	2.859	4.636	6.988	9.570	20.49	39.00	34.94	21.69	4.744	0.900	0.697	0.616	0.605	0.616	0.609	0.630
280.0	332.1	268.8	190.8	105.1	82.54	121.5	369.4	634.5	333.4	448.8	1425	6837	8278	1025	30.19	7.983	6.390	4.045	3.171	2.708	2.572	2.455	2.168	1.636	1.456	1.351	1.411	1.450	1.451	1.295	1.221	1.161	1.230	1.375	1.198	1.277	1.416	1.349	1.297	1.329	1.311	1.326	1.313	1.218	1.326	1.380	1.120	1.092	1.005	0.798	0.587	0.767	0.720	0.779	0.794	1.033	1.493	2.574	3.553	3.249	2.181	1.548	1.991	2.583	3.079	5.952	14.10	29.80	46.80	32.82	15.49	2.784	0.757	0.761	0.667	0.642	0.650
285.0	588.2	572.7	411.7	196.9	110.2	113.9	204.1	604.1	628.4	365.1	575.9	2284	8279	7299	149.9	14.29	7.635	5.034	3.768	3.114	2.568	2.671	2.336	1.694	1.778	1.721	1.456	1.436	1.512	1.316	1.302	1.167	1.231	1.354	1.364	1.609	1.816	1.869	1.599	1.585	1.511	1.585	1.748	1.744	1.811	1.776	2.000	1.722	1.602	1.186	0.952	0.969	0.910	0.949	0.991	0.830	1.263	1.465	2.199	3.665	4.312	2.887	2.040	2.114	2.120	2.793	4.737	8.813	20.02	38.31	48.97	28.69	9.717	1.514	0.748	0.610	0.655
290.0	1059	1097	818.9	398.6	189.3	156.5	190.5	378.0	771.6	900.0	718.8	1016	2725	6654	6445	1675	41.28	6.885	4.941	3.875	3.002	2.778	2.459	2.014	1.827	1.806	1.479	1.484	1.568	1.343	1.283	1.231	1.244	1.255	1.583	2.205	2.373	2.326	2.252	2.022	2.099	2.087	2.446	2.414	2.600	2.977	2.982	3.068	2.692	1.982	1.512	1.389	1.190	1.062	1.043	1.022	1.291	1.295	1.811	2.260	3.266	4.118	4.793	4.291	3.372	3.465	3.564	4.416	6.872	11.38	19.99	29.16	31.64	32.80	18.64	8.217	1.846
295.0	1463	1576	1165	582.9	284.0	208.6	242.4	359.1	604.6	1177	1341	1010	1169	1802	4185	8016	851.3	41.39	6.334	4.905	3.757	3.216	2.577	2.312	2.038	1.917	1.578	1.541	1.658	1.425	1.359	1.338	1.228	1.310	1.893	2.601	2.992	2.942	2.580	2.296	2.410	2.489	3.002	3.284	3.529	4.130	4.124	4.138	3.652	2.940	2.158	1.923	1.562	1.391	1.266	1.348	1.343	1.478	1.817	1.976	2.489	3.125	4.135	6.016	7.019	5.883	4.592	4.268	4.728	5.302	6.778	8.205	8.968	16.13	35.00	49.98	30.38
300.0	1722	1779	1384	695.3	343.0	255.0	295.2	412.4	612.9	1019	1677	1363	942.8	740.0	1212	5709	6908	637.3	19.28	6.712	4.529	3.527	2.784	2.325	2.109	1.893	1.713	1.582	1.703	1.434	1.446	1.326	1.182	1.540	2.070	2.732	3.261	3.292	2.934	2.730	2.537	2.759	3.141	3.639	3.885	4.639	4.524	4.973	4.112	3.287	2.431	2.192	1.645	1.519	1.400	1.412	1.473	1.704	2.084	2.364	2.649	3.226	3.927	4.821	6.711	7.978	7.456	5.602	4.585	4.506	3.951	3.576	3.315	4.857	10.73	26.61	47.22
305.0	1735	1900	1426	744.1	380.1	303.7	342.5	470.3	674.0	976.9	1503	1795	1060	566.6	445.5	1712	7177	5453	91.83	10.15	5.747	4.073	3.246	2.566	2.234	1.900	1.777	1.923	1.777	1.665	1.516	1.292	1.240	1.423	1.916	2.615	3.520	3.405	3.030	2.686	2.848	2.977	3.251	3.597	4.259	4.619	4.948	5.015	4.238	3.415	2.556	2.323	1.872	1.552	1.650	1.729	1.561	1.973	2.217	2.701	2.948	3.528	4.249	4.484	5.653	6.907	8.324	7.836	5.851	4.595	3.631	2.888	2.388	2.265	3.516	7.166	16.59
310.0	1680	1813	1384	745.2	399.8	326.6	362.0	492.1	691.9	954.7	1260	1582	1444	705.8	335.5	518.9	2084	4894	5092	1277	27.71	5.635	4.480	3.124	2.717	2.205	2.044	1.814	1.664	1.648	1.475	1.321	1.224	1.461	1.916	2.673	3.355	3.242	3.183	2.816	2.759	2.872	3.146	3.572	4.108	4.718	4.879	5.052	4.438	3.292	2.551	2.405	1.937	1.702	1.711	1.665	1.816	2.190	2.318	2.612	2.933	3.724	4.167	4.591	5.229	5.546	6.319	7.002	7.021	6.550	5.224	3.228	2.391	2.047	2.064	2.824	4.854
315.0	2093	2118	1587	778.0	428.7	354.6	393.5	535.4	724.5	1001	1259	1411	1454	1247	569.4	403.0	653.3	1240	3255	5473	574.9	28.95	6.325	3.964	3.191	2.852	2.341	2.037	1.894	1.684	1.459	1.358	1.362	1.636	1.823	2.297	2.954	3.469	3.076	2.975	2.873	3.052	3.523	4.178	4.693	5.851	6.071	6.142	4.666	3.594	2.672	2.551	2.110	1.823	1.798	1.771	2.088	2.380	2.351	2.778	3.313	3.819	4.247	4.724	5.429	5.466	6.266	6.067	6.180	5.995	6.916	6.236	4.347	2.946	2.299	2.634	2.805
320.0	3029	3620	2429	1025	569.6	423.3	467.8	638.3	886.2	1195	1514	1696	1662	1683	1153	678.6	525.9	488.1	951.5	4228	4740	453.4	15.42	5.760	3.897	3.156	2.877	2.212	2.052	1.827	1.863	1.520	1.669	1.497	1.844	2.283	3.100	3.320	3.116	3.558	3.355	3.981	4.854	5.885	7.161	8.919	9.820	9.976	7.165	5.067	3.623	3.156	2.434	2.436	1.844	2.044	2.429	2.473	2.848	3.173	3.701	4.329	4.864	5.558	6.263	6.507	7.119	7.062	7.235	7.069	7.404	7.972	7.930	5.982	4.363	4.059	3.763
325.0	4504	5465	3963	2010	814.7	583.9	582.6	764.8	1064	1425	1833	2071	2021	1910	1704	1072	653.5	420.2	402.9	1349	4936	3959	68.69	9.489	4.967	3.826	3.086	2.687	2.266	2.006	1.808	1.561	1.480	1.686	1.713	2.503	3.031	3.696	3.660	3.641	4.224	5.264	6.163	7.641	9.657	12.75	13.86	14.45	11.85	8.593	6.354	5.598	4.028	2.991	2.435	2.328	2.762	3.113	3.495	3.702	4.331	4.960	5.796	6.568	7.097	7.513	8.436	8.641	8.809	8.778	8.611	8.633	9.202	8.718	7.509	5.956	5.000
330.0	5392	6817	5494	3131	1397	753.5	713.7	877.6	1190	1584	2026	2314	2308	2121	1799	1507	915.7	496.3	350.1	502.4	1545	3742	4286	1019	21.79	5.471	3.837	2.979	2.431	2.268	1.955	1.681	1.583	1.642	1.720	2.322	2.838	3.446	3.900	4.190	4.765	5.943	7.029	9.092	11.60	15.31	17.16	18.89	15.87	12.38	10.05	8.470	5.794	4.086	3.250	2.953	3.240	3.542	3.808	4.024	4.856	5.532	6.412	7.274	7.863	8.657	9.291	9.607	9.723	9.690	10.07	9.505	9.466	8.625	8.447	8.091	7.479
335.0	5993	7750	6438	3846	1750	911.0	796.8	938.4	1259	1651	2113	2429	2477	2276	1856	1499	1203	659.7	393.9	364.9	550.6	1014	2928	5020	460.1	22.28	5.061	3.590	2.767	2.703	2.166	1.992	1.772	1.674	1.775	2.451	3.022	3.492	3.950	4.426	5.298	6.264	7.855	10.05	12.77	16.74	18.85	21.45	18.46	14.50	12.08	10.72	7.233	4.938	3.882	3.285	3.657	3.718	4.012	4.531	5.316	5.612	6.743	7.456	8.110	8.627	9.941	9.792	10.38	10.33	10.23	9.980	9.580	9.055	8.374	7.921	7.736
340.0	6508	8436	7547	4622	2088	1074	883.9	1033	1338	1746	2210	2529	2604	2406	1971	1510	1162	866.6	485.9	379.3	382.6	426.0	889.7	3718	3779	357.9	10.63	4.332	3.067	2.767	2.561	2.004	1.936	1.703	1.752	2.104	2.742	3.473	4.102	4.812	5.370	6.656	8.103	10.31	13.96	17.73	20.68	23.59	21.30	17.26	14.34	12.94	8.149	5.864	4.366	3.825	4.018	4.175	4.414	4.923	5.206	5.930	7.277	7.995	8.633	9.321	9.716	10.19	10.76	10.55	10.81	10.31	10.20	9.610	8.599	8.225	7.215
345.0	6649	8847	8254	5136	2404	1216	972.7	1090	1394	1802	2242	2552	2628	2430	2012	1510	1071	902.7	639.9	432.8	390.4	343.8	373.2	1187	4103	3165	56.66	6.201	3.786	3.173	2.605	2.131	1.977	1.917	1.893	2.058	2.848	3.552	3.906	5.073	5.617	6.849	8.486	10.91	13.90	18.25	21.68	25.63	23.33	18.87	15.72	14.00	9.219	6.672	4.879	4.233	4.138	4.189	4.756	5.291	5.697	6.374	7.375	8.112	8.893	9.717	10.16	10.29	11.02	11.48	11.05	10.51	10.55	10.05	8.808	8.198	7.146
350.0	6119	8228	7884	5103	2505	1377	1139	1247	1445	1772	2140	2405	2441	2265	1905	1436	999.7	760.3	717.9	566.9	429.7	360.5	296.8	417.2	1275	3042	3091	243.4	16.64	3.819	3.301	2.446	2.017	1.814	1.845	2.020	2.673	3.330	3.854	4.495	5.235	6.112	7.687	9.782	12.88	16.70	20.04	23.72	22.47	18.73	15.51	14.14	9.674	7.114	5.366	4.661	4.889	4.920	5.116	5.415	5.996	6.556	7.127	8.013	8.782	8.893	9.624	10.10	10.34	10.69	10.27	9.870	9.772	9.387	8.587	7.673	6.908
355.0	5337	7539	7225	4814	2471	1420	1202	1285	1434	1676	1969	2198	2241	2044	1746	1329	929.8	681.8	610.4	667.7	542.1	392.5	309.1	271.4	380.4	765.9	2260	3540	388.6	13.66	3.927	2.907	2.417	1.967	1.783	1.989	2.561	3.152	3.568	4.151	4.946	5.540	6.788	8.417	11.72	14.72	18.38	21.33	21.03	17.46	14.40	13.12	9.670	7.096	5.660	4.886	5.173	5.244	5.569	5.849	6.054	6.164	6.952	7.706	7.983	8.308	8.633	9.283	9.323	9.689	9.313	8.991	8.680	8.566	7.978	7.295	6.682
360.0	4924	6855	6772	4531	2372	1402	1178	1233	1345	1581	1812	2021	2042	1869	1623	1234	874.1	653.1	566.2	608.6	640.2	450.0	332.6	255.8	197.3	233.3	646.0	3051	3221	57.74	7.467	3.384	2.647	2.096	2.009	2.079	2.330	2.963	3.476	3.775	4.687	5.016	6.442	8.017	10.48	13.93	16.51	19.77	19.62	16.77	13.56	12.75	9.082	6.647	5.691	4.994	5.422	5.059	5.415	5.632	5.791	6.096	6.380	7.144	7.466	7.447	7.954	8.162	8.568	9.078	8.861	8.252	8.033	7.639	7.498	6.712	6.157
365.0	4326	6163	6117	4202	2238	1387	1141	1204	1276	1465	1674	1829	1850	1708	1480	1141	826.0	632.5	547.5	536.7	625.3	540.9	358.8	264.0	171.0	125.7	190.6	969.6	3640	2544	49.90	5.036	3.276	2.338	2.040	2.251	2.328	3.159	3.373	3.645	4.458	4.756	5.926	6.940	9.460	12.36	14.84	17.42	17.84	15.18	12.48	12.04	8.554	6.610	5.830	4.814	4.999	4.873	5.277	5.235	5.328	5.631	5.872	6.741	7.040	7.438	7.447	7.447	7.645	7.924	7.920	7.546	7.621	7.356	6.627	6.213	5.609
370.0	3580	5063	5104	3596	2036	1352	1159	1185	1209	1336	1490	1587	1606	1474	1302	1023	771.7	600.4	530.0	501.4	519.8	556.4	454.7	291.9	186.4	123.4	105.5	260.3	1127	2700	2844	210.6	13.09	3.049	2.411	2.213	2.316	2.671	3.006	3.370	3.814	4.344	5.283	5.769	7.996	10.23	12.45	14.68	14.68	12.84	10.95	10.21	7.870	6.323	5.453	4.829	4.913	4.818	5.107	5.228	5.241	5.115	5.564	5.989	6.322	6.780	6.418	6.733	6.842	6.708	6.866	6.722	6.676	6.901	5.878	5.307	5.210
375.0	2857	3989	4194	2992	1832	1253	1095	1078	1086	1185	1280	1367	1364	1253	1114	901.1	700.9	566.5	507.6	484.1	470.5	469.6	501.8	380.4	218.6	147.5	109.2	116.3	289.6	669.8	2221	2984	318.0	9.489	3.178	2.650	2.468	2.450	2.553	3.163	3.457	3.749	4.538	5.196	7.025	8.939	9.996	12.08	11.93	10.50	9.269	8.905	7.082	5.822	5.402	4.700	4.590	4.565	4.983	4.906	5.053	4.749	5.056	5.409	5.524	5.606	5.476	6.194	6.175	6.010	5.941	5.782	5.608	5.744	5.195	4.827	4.713
380.0	2462	3359	3536	2585	1658	1179	1012	974.3	981.1	1068	1126	1198	1195	1095	981.1	805.8	646.5	542.1	488.5	469.8	451.9	425.4	447.2	436.0	266.5	166.9	122.3	96.95	112.7	181.3	631.0	2563	2625	47.46	4.827	3.012	2.483	2.622	2.657	2.877	3.025	3.590	3.861	4.600	5.741	7.560	8.531	10.02	10.54	8.939	7.877	7.819	6.392	5.582	4.710	4.522	4.392	4.322	4.634	4.541	4.502	4.259	4.749	4.905	5.046	5.101	5.062	5.337	5.402	5.651	5.261	5.275	4.849	5.299	4.702	4.498	4.412
385.0	2078	2832	2992	2275	1478	1088	963.3	904.3	895.4	956.0	1015	1061	1069	980.1	880.4	727.8	595.9	517.3	470.9	454.0	434.1	406.8	396.7	407.5	336.5	194.2	136.9	102.1	82.40	79.28	168.0	815.8	2919	1905	36.94	3.674	2.811	2.691	2.667	2.818	2.926	3.168	3.533	3.954	4.923	6.121	7.091	8.641	8.818	7.879	6.924	7.210	5.603	5.127	4.398	4.236	4.094	3.993	3.886	4.328	4.157	4.111	4.273	4.514	4.650	4.497	4.528	4.987	4.946	4.753	4.515	4.707	4.773	4.745	4.228	4.084	3.870
390.0	1739	2277	2453	1899	1315	1029	915.2	860.7	826.2	848.3	888.3	920.2	903.8	841.0	766.5	648.2	550.8	482.8	444.8	431.7	416.9	392.1	365.2	343.7	342.3	272.9	170.7	118.7	89.76	69.85	73.17	207.3	892.4	2024	1818	164.9	9.854	3.271	2.915	2.777	2.620	2.941	3.281	3.417	4.373	5.096	5.806	7.057	7.211	6.392	5.771	6.019	5.144	4.322	4.283	3.790	4.006	4.001	3.887	3.883	3.913	3.806	3.966	3.926	4.081	3.974	4.122	4.318	4.279	4.416	4.156	3.963	4.036	4.041	3.877	3.692	3.574
395.0	1441	1833	1944	1582	1175	952.6	855.7	815.6	762.3	748.3	767.2	797.5	779.8	728.9	664.3	568.6	502.6	447.9	422.4	406.2	396.0	379.4	353.1	321.4	290.5	298.6	244.2	147.4	105.3	79.63	63.30	77.29	220.3	499.9	1464	2172	256.5	8.005	2.934	2.764	2.708	2.768	2.911	3.188	3.725	4.321	4.645	5.725	5.960	5.222	4.779	5.187	4.468	4.178	3.853	3.591	3.753	3.784	3.781	3.696	3.543	3.459	3.471	3.635	3.651	3.668	3.739	3.941	3.620	3.683	3.594	3.459	3.403	3.645	3.466	3.357	3.255
400.0	1217	1552	1649	1369	1060	867.7	803.0	769.9	718.2	690.2	698.8	709.7	697.8	647.7	600.4	521.2	468.0	425.4	402.5	391.5	378.2	364.5	343.1	312.0	271.0	270.4	280.6	188.7	122.1	91.34	68.49	54.60	75.77	130.0	419.1	1847	1821	40.26	4.675	2.763	2.666	2.771	2.824	3.016	3.412	3.861	3.919	5.038	5.132	4.519	4.278	4.521	4.104	3.846	3.635	3.435	3.673	3.522	3.614	3.555	3.416	3.318	3.172	3.363	3.571	3.174	3.304	3.182	3.215	3.220	3.238	3.420	3.439	3.308	3.072	3.091	2.916
405.0	1113	1360	1457	1209	974.4	832.6	783.3	739.5	667.6	649.2	652.5	646.7	629.5	597.8	555.9	485.8	439.6	403.0	381.3	374.6	363.1	352.8	330.8	303.6	264.7	243.4	262.7	239.8	146.1	101.5	76.90	56.21	48.84	51.94	110.9	585.3	1985	1365	32.64	3.572	2.938	2.856	2.758	2.933	3.353	3.320	3.790	4.408	4.271	4.185	3.767	3.950	4.036	3.654	3.385	3.349	3.496	3.410	3.466	3.512	3.348	3.145	3.017	3.124	3.163	2.937	3.124	2.889	3.033	3.225	3.074	3.358	3.011	2.816	2.780	2.908	3.060
410.0	981.8	1141	1213	1056	869.5	787.7	751.3	711.1	639.1	600.7	580.7	583.9	568.3	538.7	500.6	446.8	404.6	374.7	360.5	351.6	343.8	334.3	316.9	292.1	263.1	234.7	223.3	235.6	203.1	128.8	88.94	64.73	50.87	40.50	46.08	147.3	604.9	1430	1358	152.2	8.443	3.009	2.726	2.858	2.821	3.064	3.226	3.925	3.761	3.524	3.285	3.714	3.455	3.336	3.339	3.205	3.356	3.529	3.400	3.236	3.147	2.945	2.897	3.030	2.939	2.627	2.928	2.771	2.740	2.952	2.854	2.834	2.908	2.771	2.837	2.771	2.767
415.0	840.1	983.6	1039	902.8	807.0	750.9	725.0	671.9	612.3	567.1	533.1	523.0	511.2	485.7	454.1	407.7	373.7	351.9	338.5	327.9	322.2	312.1	302.6	281.8	257.4	230.3	208.8	198.3	215.1	182.0	107.0	74.05	56.44	43.83	35.61	50.87	149.2	354.1	1063	1533	222.0	6.769	3.073	2.644	3.091	2.852	2.913	3.466	3.325	3.259	3.038	3.299	3.069	3.034	3.219	3.000	3.158	3.282	3.243	3.221	3.063	2.830	2.840	2.833	2.904	2.694	2.622	2.513	2.760	2.659	2.491	2.590	2.527	2.814	2.548	2.540	2.528
