Sample:	'1
File name:	G2025090904山东石化污水井.FD3
Run date:	'14:22:53, 09/10/2025
Operator:	Administrator
Comment:	'

Instrument
Model:	F-2700 FL Spectrophotometer
Serial number:	24D1-003
ROM Version:	4J14000 07

Instrument parameters
Measurement type:	3-D scan
Data mode:	Fluorescence
EX  Start WL:	220.0 nm
EX  End WL:	600.0 nm
EX Sampling interval:	5.0 nm
EM  Start WL:	230.0 nm
EM  End WL:	650.0 nm
EM Sampling interval:	5.0 nm
Scan speed:	12000 nm/min
EX Slit:	5.0 nm
EM Slit:	5.0 nm
PMT Voltage:	700 V
Response:	Auto 
Corrected spectra:	Off
Contour interval:	50.000

Peak integration
Integration method:	Rectangular
Sensitivity:	1
Threshold:	1.000

Peaks
No.	ApexEX/EM(nm)	Height(Data)
1	225.0/595.0	123.7
2	230.0/305.0	1586
3	230.0/505.0	146.8
4	230.0/590.0	120.6
5	235.0/515.0	163.4
6	240.0/265.0	394.6
7	240.0/525.0	159.0
8	245.0/270.0	399.4
9	245.0/535.0	148.6
10	250.0/275.0	496.1
11	250.0/550.0	135.0
12	255.0/280.0	673.9
13	255.0/565.0	131.3
14	260.0/575.0	160.0
15	270.0/300.0	3611
16	270.0/600.0	274.0
17	275.0/305.0	4035
18	275.0/610.0	260.3
19	300.0/335.0	607.6
20	305.0/340.0	572.0
21	315.0/355.0	362.7
22	320.0/360.0	386.3
23	325.0/365.0	353.4
24	335.0/380.0	314.6
25	340.0/385.0	298.8
26	345.0/390.0	255.0
27	350.0/400.0	245.0
28	355.0/405.0	240.3
29	360.0/410.0	209.9
30	365.0/420.0	197.2
31	370.0/425.0	185.8
32	380.0/440.0	141.4
33	385.0/445.0	125.6
34	400.0/465.0	82.04
35	415.0/485.0	50.13
36	425.0/500.0	36.40
37	430.0/505.0	31.40
38	440.0/520.0	22.47
39	445.0/525.0	18.87
40	455.0/540.0	12.74
41	460.0/305.0	5.409
42	465.0/555.0	8.331
43	470.0/560.0	7.032
44	495.0/270.0	2.272
45	505.0/275.0	3.181
46	510.0/280.0	3.693
47	540.0/295.0	13.36
48	545.0/300.0	16.35
49	550.0/305.0	16.31
50	560.0/310.0	13.63

Data points
	220.0	225.0	230.0	235.0	240.0	245.0	250.0	255.0	260.0	265.0	270.0	275.0	280.0	285.0	290.0	295.0	300.0	305.0	310.0	315.0	320.0	325.0	330.0	335.0	340.0	345.0	350.0	355.0	360.0	365.0	370.0	375.0	380.0	385.0	390.0	395.0	400.0	405.0	410.0	415.0	420.0	425.0	430.0	435.0	440.0	445.0	450.0	455.0	460.0	465.0	470.0	475.0	480.0	485.0	490.0	495.0	500.0	505.0	510.0	515.0	520.0	525.0	530.0	535.0	540.0	545.0	550.0	555.0	560.0	565.0	570.0	575.0	580.0	585.0	590.0	595.0	600.0
230.0	32.35	455.6	1420	375.6	20.20	8.420	7.066	6.162	5.298	5.301	4.873	4.632	3.652	3.351	2.442	2.381	1.974	1.593	1.478	1.442	1.359	1.225	1.173	1.101	0.947	0.962	0.923	0.871	0.896	0.804	0.799	0.813	0.695	0.663	0.635	0.667	0.605	0.600	0.589	0.569	0.495	0.505	0.545	0.473	0.441	0.475	0.563	1.938	4.398	4.113	1.800	0.563	0.446	0.389	0.386	0.400	0.414	0.460	0.425	0.384	0.387	0.413	0.452	0.401	0.420	0.454	0.436	0.460	0.432	0.450	0.393	0.453	0.432	0.490	0.514	0.504	0.492
235.0	37.73	138.0	1079	2548	450.3	33.92	7.764	5.721	6.738	5.377	4.615	4.598	3.713	3.172	2.362	2.366	1.751	1.629	1.733	1.300	1.591	1.225	1.006	1.142	0.974	0.984	0.844	0.813	0.822	0.736	0.835	0.943	0.651	0.723	0.553	0.688	0.647	0.652	0.586	0.590	0.457	0.525	0.598	0.483	0.586	0.573	0.431	0.880	1.844	4.251	7.478	8.496	5.136	1.397	0.413	0.431	0.382	0.532	0.447	0.420	0.468	0.437	0.409	0.397	0.405	0.493	0.345	0.416	0.411	0.492	0.416	0.390	0.416	0.468	0.458	0.609	0.507
240.0	62.80	71.53	339.5	2373	3320	366.5	17.81	7.288	7.665	5.699	4.898	4.780	4.054	3.429	2.589	2.642	1.977	1.716	1.652	1.504	1.656	1.328	1.183	1.214	0.990	0.784	0.751	0.839	0.819	0.838	0.760	0.914	0.714	0.694	0.593	0.644	0.620	0.648	0.600	0.573	0.596	0.556	0.471	0.505	0.650	0.689	0.592	0.668	0.779	1.447	4.161	10.59	15.04	11.33	4.038	0.821	0.387	0.488	0.390	0.343	0.402	0.543	0.451	0.377	0.439	0.406	0.420	0.403	0.434	0.413	0.489	0.382	0.418	0.505	0.442	0.480	0.456
245.0	53.62	107.8	118.3	794.3	3648	3179	289.0	12.52	7.429	6.955	5.524	5.197	4.948	3.472	2.896	3.071	2.116	1.820	1.664	1.491	1.435	1.388	1.216	1.124	0.955	0.984	0.947	0.888	1.004	1.000	0.771	0.940	0.679	0.674	0.603	0.602	0.563	0.566	0.517	0.578	0.544	0.466	0.450	0.503	0.585	0.529	0.650	0.730	0.694	0.637	1.292	3.584	8.946	16.91	18.28	10.24	2.935	0.506	0.449	0.366	0.358	0.510	0.450	0.425	0.458	0.338	0.367	0.306	0.463	0.490	0.434	0.386	0.392	0.425	0.468	0.540	0.469
250.0	34.39	96.10	185.1	253.1	1131	3333	3883	1167	67.18	8.278	6.557	5.695	5.457	3.675	3.153	2.610	2.284	1.980	1.793	1.456	1.415	1.430	1.193	1.304	1.122	1.023	1.013	0.896	1.008	0.994	0.755	0.818	0.744	0.668	0.663	0.649	0.532	0.603	0.594	0.652	0.560	0.523	0.517	0.476	0.547	0.504	0.497	0.725	0.958	0.892	0.838	1.222	2.408	5.299	9.570	14.34	17.35	15.53	8.955	2.768	0.689	0.494	0.515	0.513	0.520	0.423	0.419	0.474	0.458	0.451	0.401	0.490	0.514	0.437	0.442	0.480	0.450
255.0	30.37	44.40	142.4	326.6	337.0	821.5	2815	5943	1700	66.76	10.26	6.431	6.129	4.096	3.575	3.167	2.318	2.014	1.833	1.655	1.440	1.248	1.420	1.281	1.175	1.083	0.880	0.960	1.182	0.903	0.697	0.826	0.500	0.651	0.666	0.658	0.590	0.579	0.530	0.540	0.541	0.532	0.499	0.485	0.536	0.526	0.481	0.525	0.641	0.817	1.233	1.571	1.391	1.530	2.434	3.670	5.683	13.17	24.08	25.61	14.00	3.062	0.656	0.390	0.390	0.420	0.384	0.462	0.378	0.544	0.456	0.441	0.403	0.349	0.395	0.409	0.398
260.0	25.37	26.94	64.15	288.9	330.3	232.7	812.9	4422	6525	1242	31.85	8.148	6.627	4.533	4.109	2.806	2.896	1.887	1.441	1.618	1.522	1.251	1.381	1.298	1.357	1.207	1.165	1.197	0.977	0.816	0.883	0.911	0.553	0.668	0.598	0.739	0.780	0.540	0.451	0.567	0.530	0.545	0.524	0.556	0.498	0.519	0.556	0.535	0.529	0.546	0.878	1.645	2.050	1.427	1.051	1.228	1.747	3.714	10.01	22.02	30.79	24.06	9.819	1.379	0.467	0.500	0.386	0.531	0.483	0.432	0.468	0.535	0.443	0.499	0.389	0.419	0.478
265.0	22.83	25.67	27.28	126.3	394.6	261.3	216.5	1343	5766	6583	223.9	15.71	8.304	5.995	3.786	3.387	3.034	2.546	1.660	1.698	1.854	1.438	1.445	1.351	1.296	1.290	1.063	1.019	0.950	1.007	0.888	0.863	0.615	0.747	0.712	0.587	0.763	0.600	0.500	0.545	0.553	0.556	0.541	0.530	0.512	0.490	0.428	0.485	0.423	0.458	0.497	0.919	1.816	2.292	2.027	1.009	0.885	1.233	2.694	6.419	15.08	29.26	32.12	20.91	5.587	0.757	0.486	0.521	0.566	0.434	0.465	0.524	0.433	0.424	0.384	0.473	0.492
270.0	31.76	28.08	22.68	44.15	177.0	399.4	287.9	350.4	1646	5133	7032	2689	71.48	9.060	5.356	3.889	3.167	2.641	1.839	1.773	1.793	1.548	1.251	1.283	1.295	1.211	1.134	1.022	1.015	1.012	0.918	0.914	0.767	0.726	0.662	0.657	0.649	0.569	0.662	0.523	0.521	0.489	0.525	0.471	0.568	0.514	0.443	0.551	0.425	0.433	0.407	0.585	0.869	1.193	1.961	2.272	2.048	1.424	1.117	1.844	3.921	8.254	15.25	24.99	28.12	28.69	14.09	4.981	0.740	0.476	0.527	0.544	0.467	0.461	0.534	0.583	0.494
275.0	46.44	55.94	48.15	35.58	56.93	165.8	496.1	348.7	433.2	1260	3684	9949	1388	87.79	10.44	5.239	3.938	2.893	2.432	2.364	2.081	1.731	1.495	1.361	1.259	1.063	1.141	1.065	1.209	1.010	0.932	0.837	0.840	0.832	0.767	0.752	0.746	0.603	0.578	0.441	0.544	0.585	0.429	0.514	0.533	0.545	0.564	0.675	0.528	0.551	0.485	0.507	0.559	0.688	0.750	1.222	2.018	3.181	2.681	1.478	1.383	2.482	3.960	6.435	8.782	19.23	37.86	32.25	22.05	5.057	0.710	0.605	0.527	0.550	0.587	0.509	0.601
280.0	86.50	146.7	149.7	75.36	46.55	73.15	308.2	673.9	325.3	476.9	1200	5973	9999.9	1111	57.22	7.711	4.616	3.605	2.731	2.300	2.314	1.864	1.684	1.415	1.181	0.842	1.144	1.125	1.193	1.121	0.983	0.994	0.867	1.007	0.683	0.766	0.677	0.604	0.620	0.557	0.668	0.734	0.543	0.615	0.589	0.712	0.774	0.862	0.910	0.747	0.586	0.620	0.602	0.544	0.583	0.697	1.055	2.100	3.693	3.502	2.272	1.815	1.938	2.712	3.258	6.057	13.55	29.25	50.87	31.10	15.31	1.993	0.569	0.539	0.564	0.437	0.609
285.0	206.6	421.8	404.5	187.6	82.86	82.81	190.1	645.4	928.5	716.8	996.6	2322	7099	9374	839.1	25.52	6.436	4.640	3.286	2.645	2.333	2.044	1.752	1.558	1.366	1.085	1.159	1.025	1.154	1.036	1.098	0.911	0.916	0.814	0.792	0.652	0.655	0.644	0.598	0.543	0.647	0.766	0.665	0.634	0.733	0.911	1.178	1.644	1.713	1.334	0.921	0.827	0.703	0.584	0.670	0.675	1.089	1.379	2.257	3.951	5.057	4.154	3.244	3.352	3.728	4.641	6.489	10.34	22.09	39.77	54.04	26.58	8.273	0.827	0.619	0.497	0.565
290.0	429.7	894.6	915.2	405.0	160.2	148.7	254.0	570.2	1232	1772	1758	2162	3066	5905	7608	2996	46.26	6.326	4.207	3.446	2.828	2.253	1.882	1.779	1.544	1.412	1.325	1.127	1.213	1.067	1.094	1.007	0.946	1.001	0.873	0.735	0.823	0.741	0.602	0.698	0.626	0.636	0.735	0.800	1.052	1.698	2.330	3.075	3.282	2.640	1.714	1.346	1.159	0.884	0.907	1.005	1.281	1.569	2.223	3.042	4.512	6.283	7.521	7.679	7.198	7.508	8.249	8.462	10.76	14.78	22.53	32.01	41.60	36.88	16.73	6.434	0.903
295.0	616.7	1337	1341	606.7	237.8	215.9	353.0	678.3	1287	2310	3189	2895	2602	2229	2896	9022	4352	57.97	6.372	4.457	3.188	2.451	2.243	1.780	1.552	1.483	1.480	1.378	1.228	1.035	1.060	1.209	0.948	1.153	0.968	0.810	0.865	0.645	0.482	0.705	0.659	0.725	0.764	0.817	1.374	2.343	3.214	4.512	4.592	3.770	2.528	1.848	1.542	1.042	1.100	1.313	1.750	2.005	2.831	3.532	4.862	6.299	8.069	11.08	13.36	12.72	11.72	11.20	11.01	10.43	9.843	9.634	11.88	21.70	44.37	57.65	25.91
300.0	696.9	1560	1559	694.9	279.1	255.6	407.3	757.0	1372	2289	3611	3608	2706	1529	932.8	4021	9893	692.3	37.53	5.739	4.130	3.257	2.361	1.988	1.772	1.566	1.496	1.336	1.257	1.069	1.166	1.036	1.017	0.979	0.954	0.927	0.939	0.820	0.621	0.714	0.698	0.678	0.842	1.078	1.582	2.578	3.580	5.130	5.249	4.168	2.871	2.152	1.747	1.191	1.224	1.558	1.750	2.447	3.280	3.874	5.125	6.754	8.558	10.40	13.20	16.35	15.38	13.25	12.10	10.41	7.604	5.154	4.268	6.060	14.22	36.87	59.49
305.0	726.6	1584	1586	749.8	308.3	276.8	441.9	785.7	1388	2268	3339	4035	2986	1431	518.3	1077	5331	8671	570.5	17.92	5.134	3.579	2.654	2.539	1.916	1.582	1.635	1.447	1.238	1.196	1.456	1.074	1.156	1.033	0.883	0.952	0.828	0.805	0.687	0.859	0.762	0.636	0.842	1.110	1.624	2.640	3.735	5.399	5.409	4.251	3.082	2.155	1.855	1.379	1.365	1.612	1.935	2.476	2.958	4.359	5.166	6.595	8.867	10.22	12.36	14.49	16.31	15.71	13.11	10.79	7.294	4.237	2.668	2.394	4.105	9.862	22.65
310.0	628.7	1435	1473	691.9	300.2	283.2	437.6	750.3	1298	2058	2863	3407	3124	1582	472.3	384.2	1363	4476	5543	2355	34.57	5.291	3.572	2.862	2.335	1.843	1.646	1.481	1.352	1.148	1.278	1.096	1.068	1.049	0.918	0.895	0.896	0.891	0.750	0.779	0.746	0.704	0.829	1.077	1.465	2.345	3.487	4.794	5.090	3.954	2.793	2.145	1.748	1.359	1.404	1.588	1.861	2.447	2.964	4.024	5.025	6.190	7.948	9.179	10.64	12.31	13.10	13.47	13.63	12.19	8.262	4.470	2.516	1.877	2.070	3.178	5.981
315.0	526.5	1203	1243	598.5	287.2	283.1	410.1	672.5	1112	1752	2396	2659	2449	1776	668.4	271.1	422.2	1090	2043	7234	3394	44.25	5.537	3.529	2.475	1.862	2.126	1.517	1.318	1.242	1.377	1.099	1.054	1.027	0.867	1.013	0.900	0.806	0.660	0.702	0.703	0.707	0.809	0.993	1.320	2.009	2.872	4.192	4.550	3.382	2.536	1.933	1.495	1.254	1.370	1.500	1.834	2.256	2.695	3.638	4.261	5.461	6.843	7.647	9.329	9.899	10.23	10.48	9.770	9.900	8.748	6.379	3.566	2.180	1.795	1.661	2.321
320.0	445.0	1022	1064	538.3	273.7	272.2	378.0	611.9	984.9	1504	2041	2228	1987	1486	970.7	344.2	242.5	349.7	532.9	3153	7797	2365	30.40	4.322	2.933	2.200	2.208	1.660	1.471	1.411	1.248	1.039	1.135	0.944	0.811	0.921	0.851	0.871	0.722	0.645	0.671	0.762	0.753	0.846	1.262	1.756	2.506	3.471	3.928	2.939	2.340	1.663	1.387	1.263	1.484	1.461	1.792	2.154	2.460	3.225	3.865	4.776	5.906	6.728	7.896	8.822	8.914	8.752	8.382	8.043	6.699	6.119	5.519	3.313	2.141	1.742	1.398
325.0	390.8	890.1	975.2	511.7	276.7	263.3	364.5	547.6	874.8	1297	1748	1915	1693	1149	958.5	602.7	243.5	202.3	192.8	797.9	4235	7223	457.6	15.88	3.938	2.890	2.062	1.787	1.764	1.542	1.520	1.156	1.060	1.142	0.922	0.757	0.800	0.870	0.776	0.710	0.649	0.764	0.674	0.745	1.220	1.446	2.141	3.239	3.548	2.838	2.076	1.781	1.473	1.512	1.345	1.432	1.685	1.890	2.332	2.679	3.315	4.336	5.225	6.074	6.723	7.378	7.682	7.894	7.441	7.015	5.355	4.626	4.698	4.801	3.709	2.158	1.493
330.0	317.2	738.2	857.5	533.4	307.1	270.2	335.1	487.7	733.4	1084	1425	1565	1409	965.4	690.0	691.1	480.1	212.2	136.6	242.5	1053	3623	5432	1892	29.00	4.297	2.794	2.419	1.887	1.670	1.443	1.234	1.041	1.307	0.914	0.888	0.878	0.802	0.727	0.741	0.626	0.601	0.722	0.804	1.123	1.366	1.840	2.779	3.006	2.611	2.035	1.968	1.653	1.516	1.480	1.479	1.607	1.728	2.219	2.480	2.996	3.542	4.214	4.993	5.438	5.875	6.287	6.388	6.238	5.816	4.626	3.678	3.300	3.487	3.938	4.019	3.331
335.0	248.1	612.2	738.8	518.4	353.6	292.2	320.1	438.0	639.8	899.6	1170	1283	1180	864.4	594.0	495.0	607.6	422.0	163.2	141.3	296.4	850.4	1918	6068	2811	39.78	4.213	2.846	2.182	1.664	1.392	1.346	1.124	1.168	1.070	0.970	0.762	0.773	0.783	0.783	0.605	0.738	0.701	0.822	0.993	1.255	1.507	2.211	2.602	2.328	2.024	2.097	1.800	1.530	1.554	1.424	1.574	1.708	2.078	2.430	2.645	2.963	3.589	4.153	4.684	5.055	5.301	5.160	5.168	5.039	4.078	3.345	3.107	2.865	2.592	3.110	3.768
340.0	217.6	524.0	661.5	513.9	374.9	307.3	318.9	409.1	575.4	792.0	1016	1105	1042	805.5	565.4	429.6	465.6	572.0	269.0	135.7	140.0	240.1	478.5	2763	6520	2016	26.71	3.701	2.593	1.800	1.553	1.341	1.394	1.014	1.028	0.919	0.937	0.854	0.723	0.637	0.635	0.631	0.669	0.820	0.865	1.196	1.443	1.938	2.410	2.131	1.966	1.940	2.012	1.782	1.446	1.609	1.779	1.891	1.995	2.028	2.437	2.632	3.144	3.649	3.917	4.427	4.380	4.627	4.560	4.574	4.203	3.473	2.928	2.557	2.480	2.504	2.648
345.0	197.4	455.5	604.1	495.3	380.2	310.2	314.7	390.4	527.9	704.3	903.8	968.1	921.4	727.6	540.0	413.6	357.7	481.7	434.9	177.5	114.0	112.9	152.0	697.9	3698	5858	388.9	13.94	3.225	2.391	1.721	1.539	1.446	1.081	1.070	0.952	0.805	0.783	0.794	0.635	0.756	0.647	0.674	0.706	0.793	1.133	1.335	1.806	2.227	2.170	1.951	1.826	2.007	1.751	1.614	1.590	1.819	1.766	1.847	2.031	2.352	2.579	2.959	3.405	3.470	3.787	4.245	4.192	4.011	4.123	3.846	3.209	2.891	2.538	2.504	2.263	2.274
350.0	172.2	370.9	522.4	479.7	389.5	320.7	318.9	379.0	481.9	622.1	764.3	827.6	791.5	660.1	520.2	399.6	327.4	329.6	405.5	351.1	161.4	103.8	93.64	200.1	923.4	3020	3643	1607	25.63	3.334	2.371	1.776	1.474	1.128	0.979	1.061	0.818	0.753	0.731	0.739	0.772	0.722	0.714	0.696	0.698	0.996	1.203	1.703	1.920	1.923	1.758	1.889	1.996	1.705	1.560	1.618	1.544	1.709	1.785	1.952	2.257	2.497	2.668	2.817	3.264	3.285	3.562	3.509	3.595	3.552	3.343	2.955	2.777	2.567	2.528	2.344	2.242
355.0	149.0	326.3	467.8	442.0	385.6	324.8	322.4	370.6	454.1	556.4	659.4	711.8	697.5	593.0	485.8	389.0	324.3	287.6	279.8	362.7	322.4	141.2	98.36	104.6	249.8	707.0	1440	4872	2389	30.60	3.456	2.129	1.640	1.327	1.077	1.139	1.010	0.809	0.793	0.744	0.822	0.681	0.727	0.672	0.738	0.836	1.066	1.420	1.602	1.638	1.491	1.772	1.963	1.723	1.646	1.649	1.666	1.660	1.769	1.995	2.073	2.226	2.528	2.516	2.905	2.874	2.975	3.130	3.055	2.785	2.950	3.014	2.670	2.534	2.490	2.243	2.236
360.0	120.9	298.0	426.3	422.6	381.6	332.1	326.5	359.8	438.7	512.9	603.6	639.1	633.5	550.8	467.8	380.6	326.6	280.7	247.7	274.9	386.3	242.9	119.5	96.35	108.4	195.6	360.3	2253	5320	391.8	20.96	3.023	2.029	1.539	1.144	1.059	1.003	0.800	0.801	0.807	0.804	0.585	0.601	0.719	0.748	0.825	0.996	1.383	1.573	1.520	1.550	1.689	1.831	1.626	1.693	1.729	1.665	1.823	1.611	1.810	1.992	2.253	2.373	2.455	2.582	2.693	2.716	2.843	2.841	2.655	2.750	2.697	2.592	2.427	2.496	2.269	2.219
365.0	119.7	266.2	384.0	399.5	371.1	340.1	324.4	359.6	419.2	482.5	556.4	581.9	585.7	519.3	446.6	368.0	323.1	280.0	246.8	237.5	310.6	353.4	177.8	105.3	88.30	92.18	113.7	569.6	3038	4603	345.2	6.440	2.446	1.923	1.390	1.201	0.931	0.827	0.823	0.809	0.718	0.605	0.712	0.756	0.675	0.828	0.929	1.278	1.411	1.425	1.550	1.633	1.896	1.540	1.679	1.639	1.774	1.730	1.727	1.768	2.042	1.970	2.226	2.340	2.510	2.389	2.542	2.539	2.549	2.873	2.510	2.421	2.396	2.403	2.336	2.007	2.045
370.0	108.4	231.9	345.6	375.8	360.2	334.4	329.0	349.1	396.3	452.1	512.1	525.6	517.8	472.3	419.8	353.4	315.2	282.4	256.0	236.3	241.9	305.5	302.8	169.0	103.4	82.27	70.44	160.5	760.1	2733	3336	1145	18.07	2.672	1.649	1.390	1.117	0.947	0.834	0.767	0.732	0.711	0.763	0.731	0.773	0.884	0.880	1.153	1.335	1.409	1.375	1.545	1.869	1.622	1.550	1.594	1.670	1.554	1.729	1.636	1.998	1.895	2.114	2.195	2.259	2.237	2.408	2.482	2.507	2.458	2.359	2.281	2.264	2.399	2.392	2.048	2.171
375.0	93.40	206.8	310.7	355.0	359.0	339.1	324.2	348.2	382.5	426.2	471.2	479.1	464.1	431.8	393.4	339.7	307.1	280.4	262.8	243.0	233.1	235.9	291.7	297.2	151.4	98.99	76.15	80.70	200.8	636.7	1409	4321	1622	22.32	2.314	1.669	1.347	1.028	0.870	0.976	0.760	0.761	0.862	0.653	0.737	0.770	0.877	1.055	1.093	1.251	1.280	1.435	1.716	1.657	1.675	1.530	1.559	1.668	1.690	1.731	1.714	1.993	1.943	2.005	2.120	2.361	2.212	2.405	2.267	2.237	2.254	2.120	2.234	2.216	2.156	1.954	2.101
380.0	92.31	191.4	292.9	339.2	355.9	338.4	332.4	340.3	371.9	406.2	447.8	447.0	436.5	406.1	368.1	325.0	299.3	282.0	263.8	249.3	234.8	221.1	236.5	314.6	234.5	120.6	89.13	71.96	84.31	170.1	350.0	2408	4183	315.7	12.24	2.084	1.739	1.217	1.021	0.874	0.896	0.693	0.777	0.731	0.697	0.788	0.850	0.971	1.078	1.162	1.265	1.427	1.665	1.575	1.764	1.555	1.511	1.548	1.604	1.822	1.913	1.771	1.824	1.913	2.266	2.337	2.151	2.233	2.356	2.228	2.171	2.126	2.318	2.002	2.253	1.952	1.858
385.0	95.75	178.9	277.0	328.0	345.9	336.6	332.3	340.0	364.1	392.0	424.7	427.8	415.5	378.2	350.8	314.1	289.6	280.3	267.7	251.8	238.0	223.2	216.4	253.8	298.8	174.2	103.5	78.76	66.88	72.58	103.7	635.0	2861	2591	252.1	5.330	2.072	1.586	1.111	0.947	0.845	0.698	0.652	0.827	0.767	0.818	0.923	1.088	1.118	1.117	1.357	1.489	1.647	1.484	1.670	1.486	1.536	1.642	1.635	1.807	1.882	1.899	1.835	1.907	1.881	2.087	2.006	2.158	2.075	2.047	2.068	1.993	2.199	1.896	2.035	2.034	2.097
390.0	87.28	172.5	261.7	315.1	335.4	336.4	330.5	332.5	358.2	378.2	404.2	401.9	389.3	363.9	335.3	299.6	281.8	272.2	262.3	253.3	242.9	231.8	218.2	214.5	251.3	255.0	158.8	97.13	75.04	62.17	57.31	165.8	747.0	1980	2534	882.4	14.79	2.147	1.553	1.160	0.958	0.794	0.718	0.708	0.704	0.799	0.855	1.023	1.092	1.140	1.226	1.416	1.641	1.531	1.706	1.588	1.532	1.695	1.726	1.720	1.696	1.784	1.805	1.874	1.797	1.851	2.067	2.003	1.818	2.020	1.912	2.015	1.940	1.876	1.884	2.017	2.040
395.0	81.29	155.5	245.5	311.3	331.7	334.8	322.2	334.5	352.0	368.1	384.7	380.3	367.3	347.5	316.1	288.8	271.2	264.7	262.2	250.7	244.7	235.2	225.0	211.0	207.4	228.9	242.7	139.8	92.15	71.23	57.16	68.50	189.2	464.1	1182	3057	1273	19.08	2.006	1.539	1.148	1.008	0.774	0.730	0.654	0.819	0.728	0.979	1.028	1.127	1.134	1.468	1.610	1.441	1.680	1.615	1.591	1.656	1.768	1.700	1.607	1.823	1.829	1.863	1.703	1.898	1.896	1.915	1.980	1.815	1.701	1.842	1.855	1.824	1.888	1.985	1.867
400.0	78.19	153.6	236.5	308.8	332.1	333.3	327.7	331.5	344.6	367.2	378.1	371.0	355.9	327.8	305.9	283.1	267.9	258.8	254.1	248.8	243.8	236.5	227.0	211.9	198.6	194.9	245.0	202.7	113.9	82.71	64.94	52.61	69.55	123.8	296.0	1664	3023	270.3	10.42	1.958	1.324	1.020	0.876	0.821	0.749	0.976	0.740	0.946	0.964	1.094	1.023	1.352	1.434	1.392	1.462	1.733	1.715	1.491	1.774	1.751	1.731	1.815	1.800	1.675	1.722	1.808	1.698	1.625	1.916	1.737	1.575	1.793	1.748	1.866	1.750	1.995	2.009
405.0	83.37	144.5	223.2	302.6	319.5	330.3	327.9	333.7	347.8	359.4	363.7	366.8	346.2	321.5	298.8	269.2	257.8	253.1	246.5	241.4	239.8	235.0	226.0	215.1	196.9	184.6	204.7	240.3	158.6	94.90	74.46	56.11	48.80	51.52	83.71	433.8	1992	2184	221.1	4.112	1.478	1.226	0.827	0.913	0.845	0.876	0.718	0.923	0.997	1.031	1.012	1.282	1.494	1.536	1.545	1.521	1.738	1.613	1.824	1.655	1.743	1.500	1.754	1.889	1.673	1.620	1.636	1.611	1.972	1.885	1.535	1.757	1.687	1.938	1.662	1.945	1.787
410.0	74.34	139.6	214.2	281.1	314.0	324.7	332.4	333.1	335.7	353.2	357.6	357.4	333.7	308.9	282.2	259.8	246.5	241.4	236.2	234.4	232.2	230.0	224.0	214.1	200.3	185.1	177.7	200.6	209.9	138.3	89.36	65.86	51.56	42.26	41.20	113.0	515.1	1478	1953	712.4	13.38	1.683	1.147	1.071	0.888	0.812	0.791	0.951	1.012	1.049	1.042	1.460	1.454	1.499	1.585	1.546	1.741	1.667	1.663	1.662	1.523	1.683	1.750	1.690	1.643	1.577	1.654	1.753	1.825	1.807	1.679	1.649	1.777	1.729	1.733	1.701	1.744
415.0	72.49	129.0	214.9	278.1	306.3	310.9	326.6	325.1	328.6	342.0	348.8	338.0	313.7	289.3	268.3	249.3	235.5	228.4	226.0	221.2	220.7	220.6	217.4	207.9	198.7	186.3	172.0	166.9	184.1	196.7	123.7	76.74	60.19	46.65	37.23	45.88	129.7	343.9	878.0	2202	932.9	16.93	1.628	1.207	1.003	0.813	0.866	1.067	1.014	1.085	1.048	1.487	1.594	1.576	1.503	1.611	1.714	1.651	1.707	1.697	1.799	1.698	1.509	1.698	1.714	1.603	1.642	1.740	1.716	1.629	1.611	1.659	1.718	1.650	1.667	1.698	1.790
