Sample:	'1
File name:	J2025051401兴济河汇入口.FD3
Run date:	'15:47:00, 05/15/2025
Operator:	Administrator
Comment:	'

Instrument
Model:	F-2700 FL Spectrophotometer
Serial number:	23B8-004
ROM Version:	4J14000 07

Instrument parameters
Measurement type:	3-D scan
Data mode:	Fluorescence
EX  Start WL:	220.0 nm
EX  End WL:	600.0 nm
EX Sampling interval:	5.0 nm
EM  Start WL:	230.0 nm
EM  End WL:	650.0 nm
EM Sampling interval:	5.0 nm
Scan speed:	12000 nm/min
EX Slit:	5.0 nm
EM Slit:	5.0 nm
PMT Voltage:	700 V
Response:	Auto 
Corrected spectra:	Off
Contour interval:	50.000

Peak integration
Integration method:	Rectangular
Sensitivity:	1
Threshold:	1.000

Peaks
No.	ApexEX/EM(nm)	Height(Data)
1	225.0/305.0	451.7
2	225.0/555.0	61.94
3	225.0/565.0	60.90
4	225.0/585.0	58.21
5	230.0/340.0	1647
6	230.0/570.0	57.44
7	235.0/510.0	259.0
8	240.0/265.0	384.5
9	240.0/525.0	230.3
10	245.0/270.0	387.5
11	245.0/535.0	193.2
12	245.0/635.0	17.80
13	250.0/275.0	501.3
14	250.0/550.0	151.0
15	255.0/280.0	553.9
16	255.0/565.0	132.3
17	260.0/290.0	541.1
18	260.0/575.0	111.6
19	265.0/295.0	715.4
20	265.0/585.0	97.84
21	270.0/300.0	982.6
22	270.0/415.0	1166
23	270.0/435.0	1083
24	270.0/600.0	92.32
25	275.0/305.0	990.9
26	275.0/340.0	915.1
27	275.0/610.0	76.90
28	280.0/315.0	871.3
29	280.0/625.0	64.48
30	285.0/320.0	927.9
31	285.0/640.0	49.09
32	290.0/325.0	860.2
33	305.0/345.0	594.0
34	320.0/365.0	422.4
35	330.0/375.0	382.6
36	330.0/415.0	588.5
37	335.0/385.0	376.1
38	360.0/415.0	548.5
39	360.0/435.0	525.6
40	405.0/470.0	84.17
41	455.0/540.0	11.29
42	460.0/340.0	4.573
43	485.0/265.0	2.009
44	505.0/275.0	3.040
45	505.0/420.0	4.057
46	510.0/280.0	3.448
47	520.0/285.0	3.410
48	530.0/290.0	3.269
49	540.0/295.0	4.431
50	545.0/300.0	5.351
51	550.0/305.0	5.508
52	560.0/310.0	4.959
53	565.0/340.0	4.534
54	570.0/315.0	4.931
55	575.0/320.0	4.991
56	585.0/325.0	4.986

Data points
	220.0	225.0	230.0	235.0	240.0	245.0	250.0	255.0	260.0	265.0	270.0	275.0	280.0	285.0	290.0	295.0	300.0	305.0	310.0	315.0	320.0	325.0	330.0	335.0	340.0	345.0	350.0	355.0	360.0	365.0	370.0	375.0	380.0	385.0	390.0	395.0	400.0	405.0	410.0	415.0	420.0	425.0	430.0	435.0	440.0	445.0	450.0	455.0	460.0	465.0	470.0	475.0	480.0	485.0	490.0	495.0	500.0	505.0	510.0	515.0	520.0	525.0	530.0	535.0	540.0	545.0	550.0	555.0	560.0	565.0	570.0	575.0	580.0	585.0	590.0	595.0	600.0
230.0	42.09	573.3	1886	700.8	35.71	5.928	5.043	4.215	3.701	3.421	4.352	3.852	2.976	2.463	1.836	1.502	1.229	1.018	1.077	0.898	0.896	0.867	1.167	0.927	0.745	0.605	0.570	0.535	0.776	0.676	0.525	0.495	0.444	0.389	0.359	0.380	0.424	0.384	0.397	0.450	0.386	0.382	0.410	0.316	0.314	0.314	0.633	2.616	5.383	4.528	2.106	0.488	0.239	0.212	0.227	0.219	0.240	0.284	0.249	0.234	0.217	0.221	0.222	0.255	0.222	0.280	0.262	0.229	0.239	0.245	0.230	0.235	0.230	0.232	0.228	0.241	0.241
235.0	82.38	176.1	1072	2143	565.8	48.40	5.973	5.160	4.699	3.702	4.481	4.373	3.115	2.376	1.974	1.506	1.223	1.171	1.126	0.938	0.938	0.824	1.195	0.933	0.752	0.567	0.602	0.659	0.806	0.662	0.611	0.456	0.411	0.439	0.445	0.354	0.391	0.402	0.383	0.468	0.405	0.347	0.406	0.459	0.453	0.385	0.392	0.837	2.103	4.261	6.354	7.459	3.402	0.824	0.267	0.254	0.238	0.307	0.213	0.246	0.246	0.209	0.207	0.208	0.206	0.289	0.238	0.212	0.234	0.215	0.261	0.244	0.236	0.232	0.225	0.231	0.260
240.0	121.8	132.1	322.2	1718	2415	448.8	27.25	6.009	4.727	4.179	5.022	4.128	3.263	2.747	1.760	1.487	1.388	1.341	1.193	0.940	0.994	0.748	1.166	1.058	0.780	0.549	0.605	0.562	0.768	0.614	0.555	0.429	0.466	0.400	0.421	0.373	0.417	0.400	0.425	0.455	0.366	0.326	0.360	0.398	0.464	0.574	0.485	0.486	0.656	1.311	3.371	8.796	10.99	7.995	2.800	0.608	0.303	0.276	0.258	0.201	0.221	0.252	0.260	0.223	0.217	0.265	0.239	0.226	0.223	0.261	0.245	0.235	0.251	0.230	0.208	0.264	0.209
245.0	101.3	189.0	139.0	565.9	2458	2515	321.3	11.42	5.251	5.409	6.073	5.477	3.666	3.260	1.924	1.677	1.482	1.240	1.316	0.908	0.890	0.879	1.442	1.039	0.765	0.650	0.633	0.629	0.841	0.632	0.558	0.538	0.434	0.347	0.364	0.402	0.403	0.412	0.347	0.432	0.430	0.343	0.347	0.378	0.409	0.575	0.742	0.699	0.481	0.467	0.973	2.905	7.312	12.85	12.55	7.296	1.985	0.491	0.275	0.251	0.259	0.269	0.245	0.234	0.239	0.255	0.238	0.218	0.231	0.225	0.232	0.229	0.245	0.253	0.248	0.274	0.210
250.0	45.65	144.2	232.5	224.1	765.2	2328	3033	1068	59.70	6.878	7.773	6.877	4.386	3.149	2.232	1.750	1.494	1.298	1.168	0.960	0.931	0.867	1.270	1.078	0.862	0.695	0.581	0.695	0.820	0.627	0.575	0.519	0.424	0.464	0.395	0.348	0.374	0.393	0.392	0.467	0.439	0.324	0.363	0.316	0.316	0.425	0.482	0.697	0.874	0.752	0.706	0.960	1.926	4.125	7.616	11.77	15.60	20.48	10.40	2.153	0.413	0.303	0.265	0.276	0.238	0.282	0.244	0.221	0.250	0.254	0.220	0.247	0.252	0.253	0.265	0.261	0.275
255.0	39.95	53.00	172.4	328.1	260.1	593.3	2282	4607	1438	53.96	11.97	8.573	5.513	3.930	2.353	2.141	1.580	1.468	1.180	1.048	0.900	0.901	1.274	1.096	0.994	0.914	0.633	0.679	0.759	0.710	0.546	0.575	0.475	0.415	0.368	0.375	0.381	0.407	0.412	0.480	0.448	0.345	0.315	0.327	0.328	0.347	0.376	0.383	0.470	0.891	1.398	1.355	0.895	1.138	1.960	2.968	5.737	22.84	33.78	23.96	11.15	2.208	0.381	0.252	0.252	0.315	0.253	0.258	0.288	0.251	0.247	0.265	0.235	0.269	0.296	0.252	0.291
260.0	34.31	32.15	68.90	281.8	323.3	189.1	694.8	3789	5119	269.3	45.57	10.49	7.320	4.254	3.315	2.322	1.808	1.505	1.425	1.140	1.304	0.891	1.360	1.168	1.024	0.725	0.727	0.786	0.818	0.632	0.563	0.588	0.559	0.441	0.383	0.392	0.341	0.408	0.401	0.478	0.401	0.336	0.312	0.374	0.336	0.334	0.324	0.300	0.319	0.427	0.805	1.624	1.597	1.007	0.814	0.921	1.544	6.184	15.21	22.85	30.60	22.69	8.701	1.103	0.284	0.356	0.269	0.243	0.256	0.311	0.237	0.253	0.236	0.251	0.317	0.273	0.262
265.0	38.21	27.35	30.61	131.0	384.5	241.8	192.7	1268	5448	4873	236.1	20.06	9.577	5.800	3.367	2.331	1.850	1.546	1.594	1.200	1.259	0.924	1.464	1.261	1.008	0.769	0.726	0.837	0.987	0.890	0.595	0.566	0.519	0.465	0.424	0.462	0.374	0.361	0.414	0.566	0.432	0.383	0.424	0.397	0.327	0.349	0.291	0.275	0.303	0.261	0.413	0.856	1.635	2.009	1.289	0.634	0.619	1.741	3.818	6.702	16.93	31.89	31.94	19.77	4.787	0.714	0.343	0.342	0.223	0.302	0.270	0.258	0.209	0.224	0.287	0.278	0.223
270.0	51.62	43.29	37.68	52.90	192.4	387.5	271.0	332.4	1769	5288	9999.9	865.3	55.47	8.829	4.741	3.238	2.445	1.971	1.694	1.353	1.135	1.135	1.623	1.376	1.022	0.840	0.736	0.776	1.002	0.940	0.640	0.631	0.536	0.514	0.465	0.492	0.447	0.461	0.525	0.591	0.453	0.356	0.440	0.372	0.400	0.402	0.379	0.335	0.334	0.293	0.288	0.423	0.712	1.231	1.797	1.768	1.644	1.164	1.215	1.826	4.265	9.429	17.20	27.94	30.47	30.12	13.43	4.296	0.560	0.335	0.304	0.296	0.299	0.302	0.304	0.290	0.249
275.0	101.2	104.8	94.45	58.52	73.78	189.6	501.3	306.7	443.5	1354	9999.9	9999.9	1188	39.57	6.585	4.345	3.325	2.413	2.021	1.573	1.273	1.170	1.911	1.591	1.139	0.857	0.796	0.873	1.219	0.802	0.586	0.601	0.636	0.632	0.654	0.514	0.516	0.461	0.569	0.647	0.513	0.421	0.426	0.480	0.498	0.533	0.439	0.502	0.398	0.384	0.360	0.355	0.430	0.560	0.722	1.001	2.354	3.040	2.331	0.968	1.281	2.541	4.261	6.862	10.01	23.18	42.98	32.57	20.80	4.027	0.407	0.372	0.301	0.313	0.334	0.301	0.265
280.0	157.1	192.4	167.7	89.23	52.53	82.14	331.8	553.9	240.2	372.2	3086	9999.9	9999.9	151.5	12.71	5.626	4.059	2.666	2.405	1.901	1.671	1.313	1.905	1.620	1.207	0.842	0.757	0.811	1.192	0.900	0.722	0.680	0.610	0.688	0.744	0.632	0.605	0.557	0.552	0.730	0.508	0.441	0.438	0.534	0.561	0.605	0.636	0.676	0.515	0.471	0.452	0.374	0.435	0.410	0.502	0.541	1.049	2.349	3.448	2.497	1.208	1.060	1.453	2.127	2.792	6.188	15.63	33.29	52.58	30.83	14.71	1.863	0.425	0.322	0.307	0.320	0.298
285.0	202.6	252.4	224.6	125.3	60.90	57.43	149.6	531.1	353.0	201.8	811.5	3716	9999.9	7486	102.1	7.872	5.053	3.534	2.858	2.271	1.643	1.420	2.335	1.934	1.195	0.975	0.858	0.804	1.381	0.921	0.764	0.796	0.745	0.778	0.703	0.667	0.695	0.583	0.635	0.800	0.542	0.487	0.456	0.511	0.692	0.764	0.758	0.885	0.792	0.656	0.528	0.631	0.467	0.471	0.376	0.467	0.630	1.060	2.016	3.394	3.410	1.834	1.035	1.054	1.303	2.201	4.145	9.367	22.63	42.23	54.25	26.86	8.378	0.901	0.336	0.358	0.335
290.0	258.9	333.0	308.1	174.5	91.87	69.59	96.88	246.5	541.1	491.2	365.1	1001	3575	9999.9	6036	409.6	19.06	4.658	3.470	2.511	1.918	1.665	2.646	1.957	1.441	0.977	0.901	0.997	1.384	1.058	0.796	0.693	0.749	0.760	0.767	0.700	0.672	0.658	0.743	0.870	0.601	0.575	0.621	0.655	0.690	0.811	1.023	1.138	1.016	0.825	0.636	0.637	0.549	0.491	0.482	0.494	0.585	0.739	1.029	1.526	2.406	3.194	3.269	2.538	1.558	1.497	1.802	2.980	5.921	11.58	21.70	31.19	31.85	35.85	17.50	7.048	1.047
295.0	322.4	397.5	381.4	223.0	122.8	100.1	108.7	163.9	304.4	715.4	682.3	477.7	981.9	2497	5048	6292	543.5	13.57	4.858	3.385	2.461	2.200	3.158	2.286	1.416	1.139	1.007	1.104	1.530	1.153	0.811	0.804	0.660	0.837	0.823	0.789	0.718	0.689	0.857	1.055	0.667	0.518	0.584	0.761	0.746	0.929	1.098	1.258	1.251	0.955	0.725	0.804	0.662	0.565	0.569	0.629	0.712	0.771	0.840	1.044	1.317	1.573	2.440	4.178	4.431	3.118	1.631	1.807	2.447	3.620	5.688	7.897	8.937	19.53	38.28	49.77	27.58
300.0	341.2	416.5	416.3	264.1	147.6	130.0	147.7	184.8	263.8	506.1	982.6	584.6	464.8	725.8	1491	6082	5091	81.82	7.605	4.377	2.864	2.512	3.837	2.843	1.838	1.182	1.082	1.195	1.539	1.309	0.955	0.776	0.713	0.913	0.811	0.901	0.737	0.718	0.839	1.014	0.629	0.658	0.654	0.741	0.820	0.972	1.086	1.361	1.235	1.068	0.943	0.904	0.779	0.703	0.730	0.704	0.856	0.970	0.970	1.054	1.247	1.442	1.758	2.561	4.267	5.351	3.779	2.372	1.869	2.066	2.395	2.710	2.783	5.291	11.78	28.91	48.82
305.0	346.0	451.7	428.7	284.0	184.6	162.0	184.7	238.1	298.5	426.9	833.7	990.9	478.1	380.8	468.7	1998	6715	3740	58.85	6.290	4.204	3.097	4.056	3.029	1.835	1.243	1.213	1.191	1.631	1.257	0.937	0.738	0.682	0.902	0.856	0.896	0.847	0.754	1.034	0.982	0.649	0.603	0.728	0.679	0.848	1.071	1.117	1.423	1.258	1.153	0.968	0.954	0.899	0.764	0.906	0.795	0.957	1.058	1.205	1.257	1.427	1.795	1.759	2.139	2.825	4.486	5.508	4.938	3.266	2.039	1.887	1.899	1.608	2.152	3.449	7.606	17.30
310.0	347.2	451.0	438.9	315.3	213.9	194.9	235.1	281.9	345.1	438.2	616.2	926.5	857.4	436.5	286.5	552.5	2124	4678	4021	278.2	13.18	4.341	5.829	3.914	2.233	1.498	1.273	1.414	1.897	1.416	0.916	0.834	0.731	0.776	0.861	0.866	0.771	0.791	0.977	1.098	0.697	0.636	0.684	0.763	0.845	1.117	1.123	1.367	1.324	1.141	1.033	1.113	0.923	0.996	0.966	0.966	1.157	1.289	1.361	1.483	1.593	1.806	1.938	2.170	2.489	2.989	3.438	4.369	4.959	4.196	3.378	2.283	1.699	1.673	1.822	2.515	4.632
315.0	327.0	448.7	466.6	330.2	246.2	234.0	270.0	326.2	391.0	483.0	594.1	694.3	871.3	800.0	348.0	270.9	571.4	1181	3499	4361	392.6	9.852	8.703	5.171	2.927	1.874	1.375	1.556	2.072	1.522	1.052	0.846	0.807	0.831	0.817	0.797	0.844	0.830	1.011	1.057	0.769	0.664	0.788	0.913	0.858	0.958	1.309	1.423	1.478	1.171	1.122	1.214	1.125	1.177	0.907	1.081	1.296	1.478	1.702	1.705	1.833	2.061	2.031	2.359	2.514	2.640	2.791	3.185	3.337	4.003	4.931	4.574	2.932	2.035	1.550	1.676	1.919
320.0	378.7	597.5	639.9	426.0	296.4	279.1	307.2	360.8	449.4	536.3	638.6	701.5	747.5	927.9	594.7	276.8	279.8	362.0	1034	4329	3673	61.68	14.30	6.888	3.250	2.044	1.569	1.734	2.482	1.587	1.113	0.817	0.860	0.807	0.833	0.903	0.856	0.735	0.944	1.152	0.837	0.751	0.784	0.858	1.087	1.339	1.478	1.809	1.915	1.566	1.399	1.352	1.216	1.217	1.227	1.294	1.523	1.688	1.837	1.677	2.077	2.147	2.366	2.494	2.708	2.976	2.874	3.273	3.238	3.383	3.956	4.991	4.865	3.705	2.364	1.791	1.695
325.0	511.5	838.5	999.1	634.1	365.6	325.1	350.2	410.3	500.5	615.6	711.6	779.4	764.7	819.6	860.2	420.7	258.6	216.4	321.4	1455	4759	2982	59.11	9.695	4.195	2.304	1.865	2.014	2.611	1.638	1.130	0.908	0.960	0.884	0.961	0.836	0.925	0.767	0.913	1.186	0.866	0.855	0.834	0.949	1.241	1.685	1.920	2.783	2.765	2.455	1.727	1.699	1.433	1.288	1.412	1.393	1.688	1.865	1.982	1.955	2.301	2.473	2.655	2.782	3.181	3.423	3.218	3.664	3.532	3.559	3.544	4.087	4.602	4.986	4.070	2.812	2.156
330.0	637.6	1070	1279	851.9	490.7	392.8	401.1	453.2	549.7	658.5	782.0	848.3	817.6	765.6	770.0	675.2	385.6	226.6	191.8	412.6	1535	4034	8215	1145	13.74	3.042	2.439	2.476	3.160	2.191	1.252	1.096	0.892	0.844	0.969	0.820	0.897	0.788	1.038	1.181	0.852	0.801	0.843	0.939	1.236	1.929	2.393	3.279	3.778	3.090	2.377	2.305	1.903	1.652	1.702	1.646	1.804	1.933	2.086	2.090	2.348	2.677	2.919	3.226	3.484	3.615	3.633	3.789	3.831	3.912	3.803	3.913	3.875	4.012	4.423	4.228	3.697
335.0	665.0	1215	1497	1016	616.5	467.8	451.7	500.1	590.3	702.4	839.0	900.4	877.1	801.5	704.3	647.8	636.5	341.3	205.1	211.2	415.0	1020	7392	9999.9	357.9	7.779	3.099	3.102	3.802	2.655	1.306	1.175	0.941	0.878	0.983	0.833	0.816	0.843	1.086	1.310	0.950	0.752	0.923	1.175	1.325	2.028	2.685	3.609	4.188	3.546	2.856	2.670	2.254	2.116	1.927	1.886	2.089	2.163	2.147	2.505	2.541	2.809	3.075	3.279	3.556	3.653	3.810	3.863	4.170	4.234	4.255	3.955	4.016	3.828	3.700	3.790	4.153
340.0	732.2	1284	1647	1146	694.4	539.0	499.0	536.9	620.9	738.7	850.4	915.1	904.9	834.2	717.2	600.2	651.1	516.0	256.1	189.1	185.2	285.8	2042	9190	3462	52.11	5.253	3.797	4.693	2.821	1.492	1.412	1.047	1.068	1.007	0.890	0.786	0.975	1.076	1.225	0.925	0.771	1.030	1.222	1.446	2.305	2.922	3.843	4.573	4.249	3.258	3.093	2.450	2.295	2.104	2.115	2.201	2.433	2.277	2.565	2.617	2.845	3.123	3.291	3.736	3.848	3.819	3.775	4.069	4.534	4.413	4.191	3.939	4.105	3.712	3.643	3.490
345.0	720.9	1282	1621	1178	755.6	586.8	535.7	545.9	638.2	747.4	837.0	897.7	903.0	824.0	715.7	587.1	552.8	594.0	367.4	208.3	152.2	135.2	512.2	2910	5856	2371	41.76	5.460	5.821	3.589	1.804	1.581	1.236	1.062	0.945	0.941	0.826	0.844	0.999	1.104	0.828	0.854	1.063	1.199	1.463	2.262	2.815	3.690	4.300	4.067	3.343	3.160	2.688	2.452	2.179	2.201	2.371	2.653	2.412	2.468	2.673	2.840	3.048	3.390	3.442	3.943	4.045	3.788	4.034	4.269	4.212	4.186	4.350	3.765	3.585	3.438	3.620
350.0	665.3	1147	1478	1150	798.6	635.2	573.7	568.7	632.3	723.8	809.0	862.7	867.4	811.0	710.4	591.6	509.2	488.2	479.7	320.8	179.1	130.8	188.2	707.2	1810	2673	2406	219.0	16.53	4.575	1.977	1.613	1.244	1.141	1.024	0.835	0.910	0.858	1.085	1.166	0.823	0.889	0.975	1.112	1.297	1.899	2.474	3.370	3.827	3.630	3.167	3.161	2.886	2.754	2.390	2.331	2.499	2.509	2.622	2.503	2.791	2.839	3.136	3.355	3.271	3.792	3.612	3.604	4.045	4.150	4.108	3.843	4.022	3.901	3.748	3.573	3.370
355.0	596.5	1012	1349	1091	814.1	690.4	622.2	609.7	657.6	717.2	786.4	832.3	834.6	791.0	708.2	605.1	518.3	452.7	425.9	445.4	280.6	164.9	145.2	236.2	453.9	667.5	1976	5169	383.4	13.73	2.671	1.814	1.364	1.336	1.014	0.866	0.882	0.964	1.134	1.184	0.875	0.766	0.883	1.045	1.258	1.690	2.447	3.078	3.445	3.471	3.185	3.279	3.054	2.894	2.586	2.554	2.696	2.583	2.846	2.639	2.900	3.013	3.128	3.357	3.315	3.623	3.737	3.579	3.752	3.944	3.983	3.939	4.033	3.945	3.814	3.730	3.466
360.0	530.7	949.5	1236	1061	838.6	725.3	661.2	642.7	662.1	723.6	775.6	807.6	800.1	776.1	698.6	611.1	529.1	459.4	400.7	422.4	393.1	223.4	158.5	150.5	170.3	193.2	564.8	4134	8074	300.6	4.789	2.313	1.766	1.330	1.150	0.881	0.922	0.938	1.195	1.301	0.844	0.749	0.842	0.970	1.270	1.833	2.243	2.774	3.285	3.121	2.957	3.257	2.905	2.994	2.935	2.708	2.668	2.679	2.816	2.742	2.851	2.875	3.094	3.443	3.451	3.532	3.536	3.664	3.593	4.010	3.950	3.727	3.853	3.955	3.591	3.621	3.455
365.0	505.4	898.0	1132	1031	853.1	746.7	690.4	663.9	684.9	733.7	766.6	777.4	788.3	748.6	685.7	611.7	539.2	478.1	410.3	383.8	422.4	324.6	194.7	150.9	125.2	101.8	166.1	1222	8923	3089	43.42	3.641	2.147	1.559	1.179	1.068	0.911	0.914	1.284	1.363	0.840	0.812	0.894	0.968	1.075	1.697	1.985	2.543	3.011	2.909	2.892	3.430	3.018	3.279	2.943	2.957	2.757	2.780	3.002	2.783	2.933	3.216	3.240	3.312	3.042	3.241	3.341	3.608	3.693	3.808	3.700	3.833	3.996	3.813	3.625	3.458	3.325
370.0	469.8	789.6	1043	986.9	862.8	768.3	707.6	677.5	689.3	725.9	755.6	760.3	753.2	721.6	672.7	609.3	551.2	496.3	437.8	393.3	376.8	388.7	308.0	198.2	146.4	108.0	95.61	315.7	2617	4529	2309	196.1	11.80	2.189	1.612	1.260	1.034	0.906	1.382	1.417	0.827	0.831	0.849	0.936	1.112	1.456	1.826	2.200	2.725	2.671	2.656	3.303	3.077	3.102	2.914	2.891	2.828	3.046	3.000	2.880	2.858	3.131	3.172	3.226	3.276	3.193	3.540	3.392	3.590	3.733	3.457	3.554	3.722	3.602	3.591	3.493	3.580
375.0	447.4	742.3	927.4	927.4	849.4	794.9	724.1	688.7	712.1	727.2	751.0	745.1	724.9	703.5	655.0	609.2	562.0	507.8	461.5	416.3	377.0	362.5	382.6	301.1	189.5	137.4	105.6	130.6	626.1	1091	1664	2638	303.3	11.07	2.228	1.497	1.219	1.025	1.485	1.687	0.962	0.856	0.817	0.969	1.183	1.449	1.725	2.097	2.582	2.571	2.615	3.200	2.987	3.220	2.904	2.965	2.998	3.139	2.747	2.893	2.934	3.140	2.877	3.220	3.240	3.212	3.253	3.390	3.466	3.305	3.535	3.412	3.655	3.633	3.555	3.368	3.666
380.0	421.7	656.4	869.6	890.6	858.3	794.4	725.5	687.3	707.7	712.4	731.7	734.6	715.9	687.3	644.4	598.3	563.7	518.0	475.2	430.5	391.5	357.2	369.1	375.5	246.4	165.9	124.3	103.4	195.1	282.5	461.2	2013	2298	231.9	4.916	1.759	1.336	1.107	1.712	1.735	0.982	0.815	0.820	0.957	1.092	1.479	1.608	2.160	2.405	2.302	2.410	2.874	2.938	3.241	3.003	3.014	3.166	3.105	2.868	2.966	2.934	3.179	3.021	3.288	3.138	3.403	3.167	3.369	3.294	3.232	3.460	3.307	3.441	3.579	3.511	3.411	3.524
385.0	421.2	593.5	830.8	867.7	834.9	799.1	735.4	694.4	694.9	710.0	719.2	723.4	698.9	665.1	622.8	581.9	553.7	516.6	484.0	446.0	406.0	369.4	352.5	376.1	326.6	204.9	148.9	116.4	113.9	111.0	136.4	597.5	2186	1830	37.88	2.885	1.623	1.457	1.955	1.891	1.083	0.713	0.905	0.870	1.001	1.452	1.601	1.981	2.119	2.254	2.348	2.961	2.953	3.008	2.899	3.045	2.970	3.036	2.984	2.816	2.857	3.054	2.966	3.184	3.131	3.280	3.172	3.327	2.926	3.421	3.408	3.555	3.327	3.570	3.457	3.279	3.370
390.0	405.4	583.8	771.5	845.5	822.4	791.3	732.9	694.0	696.9	699.0	715.8	705.2	673.6	650.3	603.6	567.2	542.2	512.7	486.1	454.5	419.9	392.6	366.9	351.2	350.0	293.9	197.0	149.9	125.9	99.13	78.38	165.0	628.8	1546	1628	159.0	11.26	2.259	2.819	2.322	1.129	0.886	0.980	0.871	1.058	1.421	1.516	1.886	2.075	2.034	2.264	2.879	2.821	3.002	2.980	2.883	3.031	3.289	3.116	2.778	2.964	2.948	3.001	3.101	3.052	3.088	3.228	3.138	3.133	3.363	3.216	3.392	3.287	3.524	3.344	3.322	3.460
395.0	400.7	581.3	716.1	795.1	802.2	779.7	718.9	691.0	682.0	693.1	748.5	712.0	670.5	633.9	585.3	549.5	525.3	497.0	482.8	457.4	428.1	412.0	401.0	370.4	338.8	330.5	285.4	207.2	173.6	137.1	89.81	81.54	172.0	376.2	988.5	1854	268.7	13.71	5.294	3.641	1.387	1.066	0.979	0.866	1.076	1.467	1.513	1.783	1.961	1.971	2.244	2.685	2.815	3.037	2.906	3.017	3.126	3.285	3.258	2.881	3.104	2.836	2.942	2.792	2.745	3.077	2.998	2.908	2.970	3.047	2.926	3.149	3.246	3.220	3.168	3.209	3.189
400.0	374.2	564.5	694.4	766.5	795.7	773.5	717.0	685.7	668.0	693.0	817.7	759.1	694.0	642.7	577.8	536.7	508.1	486.5	472.3	453.2	430.9	428.1	442.1	411.1	355.0	321.4	327.8	289.0	238.9	192.5	112.4	79.98	78.78	111.3	266.0	1223	1694	229.0	15.88	5.160	1.765	1.067	1.018	0.890	1.085	1.522	1.509	1.684	1.930	1.872	2.125	2.682	2.648	2.993	2.772	3.041	3.112	3.492	3.006	2.814	2.918	2.936	2.970	2.977	2.887	3.097	2.968	2.843	2.919	3.064	2.949	3.013	2.905	3.204	3.145	3.089	3.138
405.0	344.8	542.7	690.0	747.2	770.4	751.2	715.0	683.5	662.2	719.2	944.8	840.0	737.0	657.9	576.9	520.1	495.3	480.8	461.2	445.5	422.6	444.2	496.4	459.2	388.3	322.5	321.9	383.3	341.4	264.4	142.6	92.74	70.32	59.45	82.80	339.7	1353	1793	230.7	9.602	2.135	1.185	0.969	0.966	1.100	1.376	1.332	1.655	1.973	1.907	1.983	2.584	2.590	2.816	2.875	2.560	3.214	3.521	3.411	2.863	2.817	2.899	3.051	2.936	3.114	3.061	2.871	2.860	2.766	2.713	2.703	2.878	2.964	2.978	2.970	2.960	3.281
410.0	351.0	502.6	644.4	727.3	731.3	721.1	699.9	665.6	649.2	750.8	1103	952.3	788.0	679.6	560.4	495.6	472.1	457.3	442.7	429.6	416.4	455.9	563.1	516.3	422.5	333.4	311.0	442.4	494.9	382.3	182.9	112.5	82.92	59.55	50.15	97.92	369.1	1248	3636	1006	12.98	1.510	1.236	1.089	1.086	1.423	1.636	1.639	1.830	1.714	1.993	2.472	2.508	2.665	2.819	2.594	3.130	3.821	3.455	2.842	2.926	2.805	2.876	2.960	2.960	3.138	2.845	2.735	2.826	2.964	2.733	2.851	2.973	2.931	2.949	2.976	3.160
