Sample:	'1
File name:	t2025070302ÌØ¿í·ùÏû·ÀË®³Ø.FD3
Run date:	'09:24:11, 07/07/2025
Operator:	Administrator
Comment:	'

Instrument
Model:	F-2700 FL Spectrophotometer
Serial number:	23B8-004
ROM Version:	4J14000 07

Instrument parameters
Measurement type:	3-D scan
Data mode:	Fluorescence
EX  Start WL:	220.0 nm
EX  End WL:	600.0 nm
EX Sampling interval:	5.0 nm
EM  Start WL:	230.0 nm
EM  End WL:	650.0 nm
EM Sampling interval:	5.0 nm
Scan speed:	12000 nm/min
EX Slit:	5.0 nm
EM Slit:	5.0 nm
PMT Voltage:	700 V
Response:	Auto 
Corrected spectra:	Off
Contour interval:	50.000

Peak integration
Integration method:	Rectangular
Sensitivity:	1
Threshold:	1.000

Peaks
No.	ApexEX/EM(nm)	Height(Data)
1	225.0/550.0	57.17
2	225.0/570.0	53.05
3	225.0/615.0	44.35
4	230.0/340.0	1710
5	230.0/500.0	309.5
6	235.0/515.0	267.8
7	240.0/265.0	475.9
8	240.0/525.0	237.1
9	245.0/270.0	491.9
10	245.0/535.0	208.4
11	250.0/275.0	626.2
12	250.0/550.0	170.2
13	255.0/285.0	646.5
14	255.0/565.0	137.6
15	260.0/290.0	625.6
16	260.0/575.0	112.2
17	265.0/295.0	739.6
18	265.0/585.0	99.97
19	270.0/600.0	92.79
20	275.0/310.0	1217
21	275.0/415.0	2813
22	275.0/435.0	2762
23	275.0/610.0	89.59
24	280.0/315.0	1158
25	280.0/625.0	81.11
26	285.0/320.0	1161
27	285.0/635.0	61.33
28	290.0/325.0	1004
29	305.0/345.0	506.3
30	310.0/350.0	394.1
31	315.0/355.0	378.0
32	320.0/360.0	366.6
33	325.0/370.0	344.2
34	330.0/375.0	327.7
35	335.0/380.0	319.0
36	350.0/435.0	1424
37	355.0/415.0	1416
38	425.0/500.0	25.88
39	440.0/520.0	15.89
40	455.0/335.0	4.755
41	455.0/540.0	8.818
42	460.0/340.0	4.909
43	470.0/560.0	4.383
44	485.0/265.0	2.252
45	495.0/270.0	2.546
46	505.0/275.0	3.662
47	510.0/280.0	4.474
48	520.0/285.0	4.302
49	525.0/290.0	3.799
50	535.0/270.0	42.13
51	540.0/295.0	4.768
52	545.0/300.0	5.427
53	545.0/435.0	7.373
54	550.0/305.0	6.812
55	550.0/415.0	7.420
56	560.0/310.0	6.761
57	570.0/315.0	6.720
58	575.0/320.0	6.770
59	585.0/325.0	6.746

Data points
	220.0	225.0	230.0	235.0	240.0	245.0	250.0	255.0	260.0	265.0	270.0	275.0	280.0	285.0	290.0	295.0	300.0	305.0	310.0	315.0	320.0	325.0	330.0	335.0	340.0	345.0	350.0	355.0	360.0	365.0	370.0	375.0	380.0	385.0	390.0	395.0	400.0	405.0	410.0	415.0	420.0	425.0	430.0	435.0	440.0	445.0	450.0	455.0	460.0	465.0	470.0	475.0	480.0	485.0	490.0	495.0	500.0	505.0	510.0	515.0	520.0	525.0	530.0	535.0	540.0	545.0	550.0	555.0	560.0	565.0	570.0	575.0	580.0	585.0	590.0	595.0	600.0
230.0	57.64	1453	3324	726.4	28.12	4.451	3.714	2.875	2.990	2.730	2.435	2.325	2.212	1.713	1.576	1.317	1.088	0.911	0.744	0.744	0.728	0.637	0.654	0.588	0.557	0.553	0.511	0.466	0.437	0.439	0.390	0.411	0.373	0.285	0.295	0.293	0.272	0.213	0.208	0.159	0.222	0.416	0.395	0.242	0.171	0.189	1.676	7.026	11.08	7.233	2.598	0.467	0.134	0.113	0.104	0.108	0.131	0.130	0.122	0.101	0.076	0.112	0.078	0.106	0.127	0.077	0.094	0.093	0.085	0.084	0.094	0.103	0.076	0.077	0.074	0.073	0.096
235.0	126.1	406.4	2358	3201	527.7	36.94	4.547	4.727	3.399	2.554	2.608	2.459	2.452	2.237	1.326	1.551	1.144	0.940	0.845	0.650	0.623	0.704	0.554	0.665	0.655	0.715	0.548	0.516	0.587	0.388	0.525	0.419	0.452	0.241	0.320	0.302	0.213	0.251	0.237	0.171	0.149	0.247	0.416	0.503	0.353	0.313	0.496	1.903	4.599	8.357	11.62	11.17	4.719	0.865	0.128	0.125	0.124	0.126	0.110	0.112	0.155	0.111	0.106	0.117	0.117	0.102	0.083	0.106	0.104	0.121	0.106	0.123	0.052	0.102	0.105	0.082	0.126
240.0	182.5	189.3	751.5	3011	3205	389.9	16.17	5.167	4.189	3.374	3.106	2.723	2.938	2.150	1.897	1.514	1.240	1.167	0.912	0.873	0.622	0.668	0.547	0.654	0.542	0.654	0.562	0.528	0.530	0.411	0.523	0.461	0.338	0.320	0.330	0.291	0.223	0.278	0.243	0.147	0.192	0.189	0.265	0.367	0.467	0.599	0.407	0.587	1.176	2.658	6.798	15.86	17.25	10.77	3.305	0.498	0.104	0.089	0.112	0.079	0.161	0.178	0.107	0.155	0.112	0.054	0.101	0.138	0.119	0.092	0.079	0.073	0.111	0.124	0.112	0.108	0.111
245.0	151.6	246.8	234.8	1118	3974	2990	269.6	9.913	5.994	4.827	3.641	2.994	2.829	2.711	2.332	1.480	1.247	1.159	0.993	0.909	0.806	0.748	0.587	0.749	0.589	0.626	0.661	0.580	0.569	0.539	0.463	0.423	0.394	0.365	0.304	0.275	0.218	0.291	0.250	0.159	0.194	0.186	0.242	0.218	0.304	0.662	0.849	0.599	0.437	0.693	1.749	5.709	13.60	21.89	19.72	9.546	2.059	0.260	0.130	0.106	0.161	0.204	0.101	0.149	0.109	0.058	0.112	0.100	0.100	0.086	0.111	0.082	0.084	0.171	0.108	0.127	0.107
250.0	58.44	199.4	299.9	349.2	1395	3716	3894	1011	59.23	5.925	5.395	4.213	3.481	2.781	2.416	1.746	1.520	1.347	1.027	0.883	0.864	0.885	0.729	0.751	0.691	0.674	0.707	0.628	0.655	0.533	0.563	0.435	0.486	0.359	0.329	0.296	0.245	0.220	0.250	0.224	0.172	0.181	0.236	0.155	0.220	0.343	0.506	0.752	1.014	0.856	0.759	1.484	3.476	7.495	13.69	19.97	24.26	18.09	9.691	2.254	0.328	0.161	0.157	0.141	0.115	0.154	0.131	0.121	0.125	0.088	0.121	0.083	0.087	0.098	0.088	0.095	0.105
255.0	29.46	68.47	244.2	381.0	397.8	1025	4020	6187	1496	41.89	7.523	5.116	4.244	3.003	2.579	2.041	1.643	1.541	1.154	0.893	0.924	0.816	0.833	0.859	0.733	0.744	0.748	0.558	0.630	0.711	0.582	0.524	0.535	0.505	0.296	0.439	0.342	0.206	0.240	0.235	0.243	0.229	0.309	0.205	0.188	0.267	0.232	0.304	0.590	0.999	1.418	1.528	1.254	1.931	3.289	4.938	10.55	23.93	38.87	27.52	13.90	2.300	0.248	0.180	0.150	0.147	0.131	0.134	0.132	0.120	0.122	0.099	0.119	0.085	0.086	0.160	0.118
260.0	19.84	28.07	100.7	367.4	352.3	290.9	1377	6215	7192	240.1	20.98	7.784	6.022	4.139	3.064	2.274	1.977	1.737	1.346	1.038	0.784	0.895	0.803	0.804	0.922	0.619	0.717	0.614	0.650	0.614	0.628	0.448	0.444	0.426	0.429	0.355	0.300	0.248	0.223	0.304	0.236	0.269	0.201	0.187	0.184	0.250	0.220	0.194	0.292	0.445	1.052	2.129	1.808	1.192	1.089	1.373	2.697	6.873	19.10	37.73	48.36	25.68	10.28	0.959	0.200	0.165	0.103	0.122	0.196	0.181	0.165	0.115	0.276	0.123	0.099	0.142	0.114
265.0	18.63	20.42	42.60	192.2	475.9	271.3	369.5	2401	9190	5665	185.7	13.98	7.101	5.001	4.107	2.570	2.196	1.958	1.400	1.149	1.085	1.194	0.900	0.910	0.782	0.710	0.776	0.692	0.706	0.548	0.692	0.525	0.447	0.415	0.410	0.287	0.225	0.234	0.257	0.268	0.230	0.250	0.259	0.228	0.267	0.282	0.155	0.201	0.247	0.231	0.441	1.224	2.233	2.252	1.563	0.853	1.009	1.767	4.857	12.11	29.93	50.12	52.99	21.23	5.064	0.383	0.221	0.177	0.209	0.148	0.140	0.190	0.141	0.120	0.159	0.095	0.104
270.0	46.81	37.53	41.54	75.64	274.9	491.9	315.6	615.3	3215	7282	7590	750.7	41.68	7.986	4.962	3.386	2.772	2.108	1.767	1.464	1.189	1.239	1.022	1.041	0.916	0.771	0.794	0.693	0.683	0.697	0.605	0.616	0.549	0.499	0.476	0.376	0.342	0.282	0.283	0.297	0.311	0.262	0.243	0.272	0.258	0.272	0.252	0.296	0.267	0.232	0.269	0.474	0.807	1.554	2.281	2.546	1.910	1.314	1.550	3.091	7.400	15.33	28.95	42.13	40.49	42.00	14.65	4.801	0.472	0.203	0.193	0.202	0.168	0.168	0.166	0.100	0.159
275.0	110.4	113.2	90.05	58.85	123.0	310.9	626.2	371.0	778.1	1918	6902	9999.9	1039	35.90	7.321	5.219	3.723	2.474	2.221	1.903	1.335	1.136	1.226	1.206	1.090	0.871	0.934	0.808	0.890	0.682	0.597	0.491	0.672	0.653	0.531	0.452	0.549	0.398	0.360	0.416	0.417	0.352	0.346	0.364	0.459	0.409	0.505	0.433	0.332	0.342	0.304	0.376	0.475	0.685	1.042	1.475	3.127	3.662	2.593	1.350	2.085	3.773	6.823	10.14	14.29	36.54	64.81	67.13	22.77	4.770	0.346	0.207	0.233	0.142	0.201	0.147	0.188
280.0	198.5	188.1	143.5	74.81	88.97	168.2	485.5	630.9	314.6	499.7	2115	9742	8925	146.2	17.09	7.475	4.299	3.377	2.475	2.054	1.528	1.497	1.378	1.135	1.233	0.989	1.007	0.876	0.961	0.853	0.693	0.593	0.796	0.723	0.755	0.634	0.511	0.444	0.484	0.469	0.392	0.455	0.415	0.539	0.579	0.613	0.761	0.623	0.479	0.439	0.332	0.374	0.337	0.473	0.748	0.863	1.532	2.840	4.474	3.182	1.659	1.243	2.032	2.673	3.735	9.654	24.47	55.35	75.78	32.77	16.98	1.923	0.312	0.210	0.238	0.234	0.166
285.0	256.3	288.8	202.0	97.94	83.72	117.7	244.6	646.5	498.6	220.1	573.7	3279	9999.9	6650	109.6	11.77	6.164	4.186	2.949	2.218	1.885	1.626	1.338	1.346	1.194	0.982	1.060	0.919	1.015	0.859	0.675	0.752	0.833	0.788	0.799	0.756	0.690	0.602	0.638	0.563	0.368	0.522	0.523	0.648	0.777	0.759	0.918	0.801	0.787	0.611	0.420	0.448	0.385	0.454	0.605	0.662	0.825	1.330	2.447	3.832	4.302	2.154	1.151	1.119	1.484	2.774	6.071	14.85	35.07	62.34	77.81	28.06	10.22	0.724	0.252	0.282	0.157
290.0	342.9	372.2	270.0	131.2	88.07	101.9	139.6	304.7	625.6	490.8	286.0	872.3	3284	8281	7510	435.0	26.16	6.606	4.405	2.753	2.291	1.986	1.739	1.518	1.175	1.192	1.015	1.034	1.005	0.924	0.837	0.823	0.829	0.860	0.895	0.958	0.780	0.679	0.667	0.626	0.506	0.573	0.602	0.794	0.950	1.000	1.146	1.094	1.088	0.744	0.538	0.514	0.441	0.462	0.558	0.609	0.664	0.748	1.003	1.618	2.770	3.799	3.618	2.566	1.429	1.389	2.135	4.077	8.693	16.90	32.85	44.67	57.76	48.71	18.59	7.847	0.982
295.0	399.3	436.9	323.5	162.8	100.0	106.1	127.5	175.8	323.5	739.6	638.3	374.8	879.8	2104	6176	9280	617.2	22.61	6.531	4.139	2.779	2.409	2.037	1.705	1.501	1.374	1.155	1.142	1.202	0.798	0.800	0.879	0.888	0.979	0.931	1.070	0.970	0.805	0.727	0.708	0.643	0.566	0.727	0.882	0.987	1.243	1.197	1.208	1.305	0.906	0.668	0.626	0.516	0.559	0.591	0.706	0.719	0.716	0.675	0.936	1.341	1.770	2.416	4.337	4.768	2.779	1.577	1.981	2.851	4.585	8.064	10.67	16.00	29.50	60.30	74.77	29.27
300.0	446.5	480.3	388.2	211.3	138.1	142.0	164.0	208.4	284.1	558.3	1015	571.9	447.5	644.6	1828	8203	5680	87.08	12.60	5.502	4.103	2.858	2.164	1.908	1.810	1.644	1.230	1.240	1.197	0.926	1.006	0.858	0.972	0.892	1.058	1.054	0.975	0.903	0.812	0.852	0.638	0.687	0.841	0.966	1.177	1.269	1.256	1.410	1.295	0.987	0.767	0.856	0.631	0.792	0.625	0.819	0.804	0.939	0.958	1.115	1.198	1.537	1.857	2.807	4.572	5.427	4.339	2.520	2.117	2.441	3.100	3.496	4.545	7.793	19.39	47.10	72.66
305.0	495.6	560.8	454.4	279.0	190.0	201.9	253.2	331.3	418.3	579.6	1017	1170	607.9	471.9	654.9	2733	8744	4495	70.09	8.415	5.001	3.431	2.549	2.166	1.992	1.636	1.320	1.334	1.239	1.043	0.971	0.863	0.964	0.941	1.090	1.100	0.988	0.937	0.720	0.768	0.802	0.829	0.927	1.009	1.143	1.510	1.597	1.744	1.532	1.294	0.935	1.024	0.853	0.948	0.987	0.998	1.171	1.346	1.635	1.890	2.079	2.235	2.599	2.886	3.620	5.007	6.812	5.825	4.026	3.124	2.788	2.683	2.742	3.207	5.800	12.65	27.76
310.0	548.7	635.2	569.8	352.3	265.5	274.3	340.3	438.3	537.1	691.6	888.0	1217	1132	645.9	499.7	857.1	2861	6159	5582	303.7	18.12	5.086	3.565	2.712	2.240	1.911	1.672	1.337	1.238	1.070	1.113	0.891	0.990	1.117	1.088	1.026	1.048	0.926	0.842	0.841	0.857	0.983	1.016	1.127	1.179	1.540	1.815	1.913	1.755	1.504	1.191	1.315	1.175	1.182	1.223	1.268	1.581	1.850	2.030	2.155	2.537	2.710	3.248	3.535	3.891	4.382	5.091	5.974	6.761	6.127	4.681	3.402	2.923	3.007	3.179	4.496	7.660
315.0	632.3	741.0	691.5	441.6	324.5	318.3	397.9	491.4	602.4	754.3	883.6	1016	1158	1066	581.4	474.4	874.2	1589	4553	6946	458.2	16.02	5.016	3.471	2.649	2.256	2.008	1.621	1.584	1.187	1.088	1.080	1.085	0.938	1.097	1.016	1.114	1.003	0.851	0.860	0.903	0.892	1.138	1.285	1.329	1.697	1.991	2.217	2.051	1.712	1.327	1.456	1.472	1.282	1.409	1.543	1.787	2.073	2.427	2.563	2.727	2.913	3.523	3.777	4.091	4.661	4.613	4.934	5.146	5.918	6.720	6.466	4.235	3.293	2.959	2.697	3.402
320.0	728.4	946.9	845.7	537.1	368.1	358.6	429.5	538.7	643.3	797.9	914.7	1003	1018	1161	819.9	432.2	452.8	495.2	1274	5821	4177	65.72	9.584	4.714	3.315	2.696	2.147	1.869	1.530	1.342	1.379	1.026	1.021	1.166	1.152	1.070	1.036	0.990	1.099	0.944	1.008	1.062	1.183	1.269	1.623	1.986	2.403	2.645	2.542	1.986	1.764	1.685	1.529	1.579	1.583	1.605	1.894	2.125	2.537	2.732	2.718	3.074	3.380	3.678	4.265	4.297	4.696	4.870	4.855	5.154	5.732	6.770	6.697	5.325	3.540	2.592	2.521
325.0	884.8	1173	1100	666.4	430.3	383.8	456.2	546.5	646.6	790.8	919.2	998.8	967.4	971.5	1004	538.3	364.9	261.7	349.7	1796	6083	3482	55.48	7.010	4.051	3.113	2.322	1.934	1.686	1.468	1.385	1.182	0.915	0.960	1.099	0.939	1.063	1.030	1.145	1.014	0.893	1.181	1.224	1.517	1.909	2.319	2.940	3.205	3.182	2.541	2.238	2.042	1.783	1.730	1.688	1.802	1.981	2.147	2.905	2.656	2.733	3.205	3.395	3.955	4.220	4.365	4.575	4.812	4.844	5.069	4.898	5.257	5.797	6.746	4.773	3.180	2.504
330.0	980.8	1390	1386	947.2	590.1	449.8	469.1	541.9	622.0	767.1	899.2	981.1	952.7	858.5	840.8	732.7	456.8	230.0	163.2	459.6	1856	4379	4280	978.8	17.09	4.075	3.104	2.348	2.013	1.628	1.622	1.200	0.998	1.145	1.149	1.074	0.987	1.125	1.117	0.981	0.944	1.154	1.302	1.614	2.042	2.772	3.370	4.133	4.159	3.384	3.045	2.943	2.555	2.178	1.942	1.733	2.124	2.190	2.584	2.825	2.803	3.047	3.392	3.954	3.938	4.250	4.487	4.674	4.903	5.010	4.868	4.664	4.574	5.061	4.827	4.700	4.131
335.0	1038	1545	1598	1190	808.1	550.8	492.9	547.4	622.2	747.1	872.0	955.1	923.6	834.9	720.0	635.0	650.8	322.8	153.4	184.8	474.7	1078	3338	5763	400.0	17.19	4.426	3.028	2.261	1.832	1.750	1.426	1.292	1.172	1.084	1.134	1.004	1.056	1.047	0.903	0.961	1.123	1.336	1.584	2.132	3.147	3.759	4.755	4.700	4.016	3.705	4.117	3.354	3.027	2.575	2.085	2.389	2.446	2.575	2.826	2.997	3.089	3.050	3.707	4.059	4.286	4.531	4.524	4.693	4.884	4.939	4.652	4.231	4.256	3.945	3.860	4.308
340.0	1061	1593	1710	1308	885.6	590.5	491.4	539.6	603.1	719.0	834.1	907.0	885.9	804.0	675.2	541.5	588.8	472.7	195.6	137.6	178.7	297.5	928.8	4509	3481	322.2	8.916	3.651	2.789	2.195	1.877	1.521	1.439	1.319	1.136	1.069	1.064	1.114	1.064	0.990	0.980	1.059	1.255	1.714	2.126	3.154	3.685	4.604	4.909	4.318	3.986	4.369	3.727	3.084	2.544	2.226	2.267	2.462	2.507	2.651	2.734	2.792	3.135	3.490	3.607	3.848	4.325	4.416	4.353	4.600	4.591	4.265	4.110	4.068	3.730	3.364	3.381
345.0	992.2	1476	1616	1294	891.9	595.6	493.7	511.7	569.6	669.9	774.4	830.3	825.5	753.4	637.2	490.0	449.9	506.3	307.9	147.5	128.8	133.7	257.6	1357	4648	3094	50.50	5.672	3.510	2.501	2.125	1.464	1.469	1.435	1.239	1.099	1.076	1.049	0.943	0.850	0.997	1.031	1.128	1.478	2.156	2.947	3.403	4.072	4.672	4.320	4.062	4.494	4.007	3.164	2.659	2.284	2.277	2.358	2.369	2.647	2.689	2.776	2.931	3.455	3.372	3.768	3.942	4.096	4.097	4.240	4.278	4.021	4.122	3.993	3.405	3.032	2.799
350.0	923.2	1344	1470	1267	895.1	605.3	491.0	492.9	541.5	618.4	702.3	750.8	747.7	691.1	583.1	460.6	392.6	379.2	394.1	271.6	152.8	121.3	124.4	350.4	1387	3333	3446	888.1	16.40	3.574	2.541	1.962	1.590	1.429	1.214	1.043	0.932	0.957	0.933	0.866	0.879	0.975	1.173	1.500	1.948	2.687	3.150	3.979	4.309	3.976	3.783	4.186	3.788	3.194	2.585	2.349	2.273	2.318	2.234	2.363	2.419	2.538	2.783	3.135	3.211	3.408	3.616	3.546	3.738	4.011	3.898	3.662	3.788	3.510	3.286	2.757	2.632
355.0	763.7	1148	1310	1151	870.7	610.4	496.9	494.4	525.4	586.1	632.9	676.2	674.4	623.7	548.8	446.2	377.2	329.3	319.0	378.0	262.1	152.4	122.1	146.1	352.9	801.0	2336	4387	386.0	18.26	3.417	2.794	1.942	1.502	1.252	1.081	1.211	1.016	0.954	0.964	0.862	0.930	1.118	1.309	1.588	2.265	2.817	3.341	3.815	3.448	3.641	3.550	3.744	3.231	2.737	2.169	2.287	2.314	2.166	2.302	2.303	2.520	2.550	2.857	3.090	3.027	3.300	3.380	3.533	3.651	3.435	3.260	3.269	3.350	2.950	2.994	2.682
360.0	692.6	1024	1166	1040	812.7	594.9	490.9	482.3	504.5	541.0	589.4	624.1	623.5	584.1	512.7	428.1	372.0	320.8	293.6	333.7	366.6	214.5	141.0	116.9	134.7	216.8	622.9	3088	3239	323.6	9.736	3.295	2.341	1.740	1.438	1.202	1.253	1.006	0.873	0.922	0.894	0.945	0.986	1.197	1.488	2.042	2.482	2.928	3.451	3.240	3.353	3.449	3.337	3.190	2.334	2.187	2.308	2.222	2.142	2.417	2.309	2.505	2.550	2.721	2.943	2.833	2.936	3.182	3.022	3.238	3.158	3.166	3.030	3.256	2.860	3.058	2.748
365.0	624.2	928.0	1053	949.5	765.3	585.1	489.1	471.1	481.6	520.6	556.7	583.4	575.4	539.3	481.7	418.6	369.6	326.8	297.5	289.8	364.1	318.2	177.0	126.1	99.39	96.46	172.3	879.6	3472	2957	49.56	5.250	2.916	2.051	1.585	1.324	1.141	1.055	0.909	0.840	0.828	0.917	1.051	1.082	1.406	1.893	2.079	2.555	3.012	2.892	3.010	3.315	3.118	2.813	2.513	2.136	2.051	2.106	2.034	2.193	2.164	2.385	2.451	2.575	2.699	2.541	2.846	2.908	3.007	3.083	2.899	2.896	2.910	3.116	2.589	2.916	2.626
370.0	549.0	802.5	926.5	853.0	722.5	571.5	483.3	464.0	471.1	498.6	533.2	540.2	530.6	500.2	455.2	406.2	371.2	340.9	311.2	294.1	304.0	344.2	283.9	164.5	111.4	85.07	82.71	228.3	986.9	2704	3027	880.8	16.10	2.950	2.101	1.559	1.196	1.046	0.911	0.816	0.840	0.912	0.939	1.014	1.431	1.559	1.926	2.452	2.587	2.421	2.571	3.169	2.771	2.666	2.335	2.111	2.204	2.257	2.137	2.132	2.169	2.111	2.380	2.464	2.488	2.561	2.701	2.689	2.681	2.805	2.765	2.786	2.650	2.665	2.640	2.780	2.562
375.0	517.5	683.4	804.3	746.7	679.1	553.1	484.3	463.0	463.7	475.3	499.2	507.0	496.1	467.0	428.4	392.7	368.1	347.8	328.0	309.1	294.1	292.3	327.7	262.1	145.3	101.2	78.91	94.65	250.1	641.5	1836	3774	337.6	18.62	3.289	2.295	1.949	1.116	0.956	0.812	0.914	0.972	0.967	1.039	1.217	1.379	1.698	2.023	2.214	2.222	2.322	2.629	2.651	2.485	2.508	2.083	2.250	2.269	1.997	1.906	2.097	2.256	2.303	2.291	2.393	2.394	2.443	2.459	2.316	2.608	2.612	2.337	2.405	2.672	2.528	2.418	2.463
380.0	458.8	631.5	715.2	697.7	638.7	541.7	488.8	461.2	451.3	468.5	497.8	489.8	469.6	446.2	421.7	385.7	360.5	348.2	333.9	316.0	302.5	278.8	291.5	319.0	204.2	123.9	92.95	78.03	97.22	174.0	481.8	2497	2779	283.0	10.43	3.621	2.418	1.680	1.150	1.046	0.918	0.985	0.915	0.989	1.109	1.340	1.517	1.832	2.050	1.985	2.149	2.473	2.508	2.299	2.380	2.096	2.092	1.973	2.065	2.149	2.078	2.252	2.201	2.295	2.240	2.351	2.293	2.158	2.383	2.332	2.549	2.245	2.510	2.537	2.361	2.583	2.477
385.0	444.3	592.3	659.8	656.8	611.0	538.2	479.6	459.9	463.6	476.7	499.0	493.4	475.7	451.1	417.3	383.8	361.7	349.7	339.3	327.2	312.4	290.8	273.0	304.7	282.7	168.3	116.9	94.21	83.41	83.96	144.4	701.5	2671	2459	41.30	8.843	4.478	2.574	1.394	1.124	0.922	0.919	0.878	1.037	1.167	1.398	1.517	1.889	1.901	1.909	2.164	2.401	2.336	2.170	2.328	2.075	2.230	2.206	2.162	2.147	2.139	2.029	2.176	2.342	2.235	2.206	2.213	2.136	2.239	2.183	2.520	2.356	2.409	2.558	2.325	2.384	2.403
390.0	424.9	532.5	612.2	641.2	611.9	568.7	520.6	517.5	543.1	571.7	607.5	614.8	583.8	541.1	487.3	427.0	391.3	371.7	367.7	358.8	354.1	341.4	322.4	323.4	339.5	310.5	222.1	177.7	156.6	139.7	134.8	239.1	782.1	2012	2268	704.0	20.90	7.912	3.055	1.713	1.118	0.942	1.024	0.982	1.151	1.306	1.389	1.814	1.685	1.911	1.969	2.329	2.368	2.467	2.408	2.203	2.238	2.329	2.441	2.228	2.267	2.307	2.410	2.544	2.425	2.534	2.434	2.450	2.498	2.551	2.581	2.477	2.750	2.834	2.466	2.518	2.463
395.0	409.3	523.7	597.0	651.2	667.6	650.2	647.9	677.2	776.2	870.4	966.4	985.6	930.9	837.0	714.3	589.2	494.1	448.3	443.4	446.1	461.8	476.5	478.6	475.2	470.1	478.0	443.5	392.7	364.2	337.4	302.5	281.8	355.1	602.0	1394	2769	287.9	28.91	8.635	3.300	1.594	1.187	1.124	1.260	1.368	1.377	1.402	1.780	1.856	2.001	2.031	2.646	2.424	2.567	2.623	2.537	2.532	2.728	2.787	2.856	2.714	2.861	3.138	3.229	3.416	3.409	3.561	3.443	3.438	3.310	3.284	3.196	3.205	3.035	2.770	3.007	2.731
400.0	408.9	530.0	623.7	703.8	753.1	773.7	822.0	911.8	1083	1284	1460	1504	1379	1217	1018	811.7	647.0	566.3	555.0	574.2	600.2	653.4	691.9	720.7	731.7	749.7	783.7	734.6	664.6	615.3	563.1	420.0	395.1	401.7	558.5	1874	2289	257.2	22.09	5.735	2.322	1.577	1.389	1.505	1.600	1.502	1.544	1.995	2.027	2.085	2.187	2.885	2.804	3.082	3.007	3.201	3.239	3.130	3.490	3.241	3.556	3.807	3.951	4.184	4.554	4.548	4.904	4.377	4.448	4.443	4.434	4.241	3.933	3.779	4.025	3.601	3.193
405.0	402.1	566.4	671.3	773.9	855.6	928.9	1021	1190	1441	1780	1979	2127	1973	1739	1420	1083	820.7	700.5	683.4	725.0	782.2	858.2	937.5	998.4	1040	1061	1107	1114	1023	959.0	882.2	748.3	612.3	503.7	429.4	755.2	2085	2021	193.6	10.52	3.665	2.212	1.631	1.573	1.580	1.866	1.767	2.138	2.270	2.478	2.407	3.113	3.357	3.514	3.689	3.657	3.912	3.789	4.361	4.209	4.258	4.639	5.235	5.475	5.735	5.933	6.045	5.867	5.933	5.967	6.029	5.441	4.710	5.189	4.876	4.374	3.823
410.0	430.5	578.4	697.0	825.3	948.6	1071	1199	1430	1786	2230	2574	2704	2513	2193	1771	1335	989.6	821.4	792.9	850.1	935.3	1046	1153	1247	1309	1358	1384	1408	1373	1279	1179	1018	822.3	652.3	536.2	512.6	776.6	1586	1759	542.9	14.12	2.964	2.051	1.860	1.833	1.932	2.019	2.427	2.617	2.477	2.712	3.597	3.777	3.993	4.077	4.083	4.329	4.601	4.979	4.890	5.207	5.468	5.980	6.545	6.921	7.328	7.214	7.032	7.086	7.114	6.753	6.328	6.038	5.880	5.484	4.982	4.565
