Sample:	'1
File name:	Default_20230216_151735.FD3
Run date:	'15:11:14, 02/16/2023
Operator:	dsjg
Comment:	'

Instrument
Model:	F-2700 FL Spectrophotometer
Serial number:	2198-001
ROM Version:	4J14000 07

Instrument parameters
Measurement type:	3-D scan
Data mode:	Fluorescence
EX  Start WL:	220.0 nm
EX  End WL:	600.0 nm
EX Sampling interval:	5.0 nm
EM  Start WL:	230.0 nm
EM  End WL:	650.0 nm
EM Sampling interval:	5.0 nm
Scan speed:	12000 nm/min
EX Slit:	5.0 nm
EM Slit:	5.0 nm
PMT Voltage:	700 V
Response:	Auto 
Corrected spectra:	Off
Contour interval:	50.000

Peak integration
Integration method:	Rectangular
Sensitivity:	1
Threshold:	1.000

Peaks
No.	ApexEX/EM(nm)	Height(Data)
1	225.0/495.0	82.96
2	225.0/605.0	6.934
3	230.0/350.0	253.6
4	230.0/505.0	94.11
5	235.0/260.0	174.3
6	235.0/380.0	239.8
7	235.0/520.0	83.80
8	235.0/600.0	5.924
9	240.0/265.0	194.3
10	240.0/530.0	70.03
11	245.0/270.0	175.3
12	245.0/400.0	221.3
13	245.0/410.0	215.8
14	245.0/540.0	62.84
15	250.0/275.0	212.2
16	250.0/550.0	58.24
17	255.0/280.0	236.9
18	255.0/430.0	205.4
19	255.0/560.0	46.38
20	260.0/575.0	39.43
21	265.0/585.0	36.78
22	270.0/300.0	374.4
23	270.0/595.0	34.38
24	275.0/305.0	397.9
25	275.0/370.0	259.6
26	275.0/610.0	27.28
27	280.0/310.0	339.4
28	280.0/360.0	265.5
29	280.0/620.0	23.36
30	285.0/315.0	319.9
31	285.0/630.0	16.85
32	290.0/325.0	310.3
33	295.0/330.0	246.0
34	300.0/335.0	245.4
35	305.0/345.0	220.9
36	310.0/350.0	189.5
37	315.0/355.0	178.5
38	320.0/360.0	183.7
39	325.0/370.0	164.6
40	330.0/375.0	162.8
41	335.0/380.0	172.4
42	345.0/395.0	132.2
43	350.0/400.0	136.8
44	355.0/405.0	124.1
45	365.0/420.0	101.8
46	370.0/425.0	94.39
47	380.0/440.0	70.99
48	385.0/445.0	63.57
49	395.0/460.0	45.24
50	400.0/465.0	39.26
51	415.0/485.0	23.81
52	425.0/495.0	16.86
53	430.0/505.0	14.85
54	445.0/525.0	9.025
55	455.0/540.0	5.768
56	460.0/545.0	4.988
57	470.0/560.0	3.261
58	510.0/280.0	1.443
59	520.0/285.0	1.454
60	540.0/295.0	1.955
61	545.0/300.0	2.020
62	550.0/305.0	1.973
63	560.0/310.0	1.820
64	570.0/315.0	1.852
65	575.0/320.0	1.861
66	585.0/325.0	1.833

Data points
	220.0	225.0	230.0	235.0	240.0	245.0	250.0	255.0	260.0	265.0	270.0	275.0	280.0	285.0	290.0	295.0	300.0	305.0	310.0	315.0	320.0	325.0	330.0	335.0	340.0	345.0	350.0	355.0	360.0	365.0	370.0	375.0	380.0	385.0	390.0	395.0	400.0	405.0	410.0	415.0	420.0	425.0	430.0	435.0	440.0	445.0	450.0	455.0	460.0	465.0	470.0	475.0	480.0	485.0	490.0	495.0	500.0	505.0	510.0	515.0	520.0	525.0	530.0	535.0	540.0	545.0	550.0	555.0	560.0	565.0	570.0	575.0	580.0	585.0	590.0	595.0	600.0
230.0	41.97	552.3	844.6	145.2	3.094	1.064	0.801	0.732	0.506	0.636	0.561	0.647	0.387	0.383	0.349	0.313	0.214	0.271	0.164	0.186	0.226	0.161	0.173	0.176	0.150	0.148	0.119	0.117	0.129	0.126	0.094	0.146	0.128	0.076	0.136	0.207	0.255	0.211	0.168	0.180	0.181	0.229	0.213	0.139	0.112	0.123	0.262	1.292	2.832	2.256	0.852	0.150	0.077	0.051	0.058	0.048	0.050	0.031	0.034	0.030	0.038	0.023	0.024	0.018	0.022	0.017	0.012	0.015	0.009	0.008	0.010	0.008	0.002	0.005	-0.002	-0.001	0.017
235.0	30.58	175.9	799.5	838.8	194.1	3.390	1.133	0.987	0.719	0.830	0.747	0.557	0.538	0.514	0.390	0.207	0.242	0.214	0.209	0.150	0.256	0.169	0.170	0.122	0.153	0.093	0.116	0.090	0.101	0.094	0.126	0.174	0.069	0.070	0.094	0.115	0.223	0.236	0.177	0.198	0.139	0.181	0.183	0.221	0.231	0.172	0.150	0.379	1.017	1.902	2.834	3.270	1.577	0.278	0.068	0.066	0.046	0.049	0.017	0.021	0.027	0.020	0.010	0.033	0.036	0.016	0.026	0.022	0.006	-0.003	0.004	0.005	0.014	-0.007	0.017	-0.007	-0.002
240.0	52.88	63.02	307.3	 1033	701.4	122.1	1.776	1.339	1.452	0.791	0.590	0.709	0.602	0.470	0.439	0.282	0.293	0.237	0.285	0.227	0.216	0.119	0.206	0.108	0.153	0.098	0.155	0.112	0.097	0.119	0.100	0.144	0.105	0.120	0.077	0.095	0.162	0.244	0.234	0.207	0.153	0.130	0.157	0.146	0.256	0.398	0.270	0.215	0.311	0.580	1.476	3.623	4.668	3.409	1.241	0.108	0.055	0.085	0.018	0.012	0.031	0.042	0.019	0.027	0.040	0.023	0.003	0.034	0.003	0.004	0.011	0.014	0.011	-0.007	0.031	0.001	0.005
245.0	66.39	74.90	89.71	469.0	 1237	574.6	67.07	1.896	1.476	1.308	1.002	0.669	0.577	0.596	0.271	0.299	0.239	0.247	0.259	0.194	0.190	0.182	0.241	0.156	0.115	0.112	0.190	0.133	0.181	0.083	0.070	0.179	0.129	0.083	0.091	0.082	0.096	0.203	0.190	0.224	0.214	0.159	0.183	0.204	0.148	0.313	0.444	0.315	0.220	0.199	0.424	1.304	2.943	4.887	5.353	2.593	0.542	0.078	0.037	0.018	0.050	0.017	0.023	0.086	0.037	0.040	0.005	0.034	0.022	-0.008	0.009	0.001	0.023	0.011	0.014	-0.001	-0.010
250.0	27.82	85.29	113.7	137.4	491.7	 1005	882.3	193.2	7.603	2.134	0.951	0.741	0.664	0.568	0.399	0.245	0.421	0.259	0.333	0.210	0.211	0.190	0.258	0.168	0.162	0.130	0.174	0.186	0.130	0.070	0.101	0.127	0.084	0.100	0.140	0.081	0.055	0.119	0.132	0.184	0.179	0.164	0.183	0.181	0.146	0.187	0.256	0.389	0.515	0.433	0.343	0.409	0.786	1.583	3.096	4.667	5.386	4.475	2.352	0.590	0.069	0.032	0.041	0.061	0.032	0.032	0.008	0.022	0.028	0.023	0.008	0.012	0.024	0.009	0.012	0.015	-0.007
255.0	7.852	27.60	116.6	156.7	137.0	299.5	969.2	 1378	268.3	8.280	1.341	1.314	0.917	0.701	0.508	0.439	0.489	0.464	0.308	0.243	0.294	0.253	0.272	0.233	0.185	0.224	0.187	0.171	0.146	0.127	0.179	0.125	0.151	0.135	0.128	0.081	0.054	0.058	0.091	0.123	0.171	0.198	0.175	0.167	0.164	0.168	0.155	0.196	0.237	0.477	0.637	0.691	0.515	0.448	0.765	1.221	1.989	4.992	7.257	7.121	3.517	0.539	0.023	0.073	0.040	0.032	0.046	0.037	0.038	0.036	0.001	0.034	0.002	-0.008	0.024	-0.005	0.000
260.0	5.234	7.369	56.55	174.3	132.1	82.12	351.5	 1362	 1398	197.6	3.868	1.750	1.299	1.045	0.522	0.528	0.487	0.389	0.306	0.294	0.277	0.236	0.241	0.177	0.183	0.204	0.138	0.140	0.156	0.203	0.119	0.089	0.074	0.086	0.165	0.078	0.114	0.073	0.090	0.067	0.110	0.190	0.199	0.180	0.170	0.190	0.145	0.156	0.138	0.228	0.394	0.887	0.991	0.546	0.359	0.351	0.535	1.426	3.406	7.233	9.118	6.255	2.312	0.220	0.037	0.045	0.033	0.020	0.024	0.007	0.004	0.024	0.012	-0.008	0.034	0.002	0.011
265.0	4.917	3.574	19.26	99.62	194.3	87.08	93.74	541.3	 1675	 1302	136.7	2.598	1.116	1.302	0.820	0.728	0.479	0.433	0.256	0.333	0.250	0.314	0.204	0.203	0.203	0.139	0.233	0.214	0.155	0.174	0.147	0.125	0.108	0.079	0.126	0.103	0.093	0.077	0.061	0.097	0.111	0.154	0.208	0.217	0.230	0.133	0.172	0.149	0.114	0.140	0.196	0.381	0.803	0.989	0.846	0.327	0.207	0.392	0.870	2.331	5.306	9.283	9.903	5.381	1.146	0.078	0.049	0.036	0.010	0.009	0.037	0.018	0.003	0.007	0.009	-0.010	0.009
270.0	5.087	7.263	8.744	30.43	109.2	175.3	112.6	142.4	589.6	 1398	 1510	526.4	20.49	1.761	0.970	0.966	0.609	0.540	0.413	0.453	0.317	0.299	0.278	0.252	0.206	0.183	0.196	0.202	0.174	0.179	0.156	0.105	0.148	0.107	0.128	0.066	0.094	0.078	0.087	0.105	0.075	0.124	0.171	0.193	0.212	0.193	0.151	0.134	0.146	0.132	0.123	0.176	0.303	0.505	0.764	0.969	0.821	0.515	0.343	0.601	1.335	2.833	5.009	7.524	8.232	7.049	3.813	0.935	0.080	0.024	0.022	0.015	0.010	0.008	0.027	0.004	0.008
275.0	13.48	11.50	12.78	12.69	31.60	100.7	212.2	146.6	149.9	379.9	 1121	 1897	207.4	15.31	1.443	1.174	0.810	0.630	0.602	0.378	0.394	0.284	0.296	0.269	0.200	0.217	0.256	0.207	0.230	0.144	0.193	0.107	0.124	0.099	0.123	0.108	0.090	0.114	0.128	0.093	0.112	0.114	0.099	0.153	0.234	0.254	0.146	0.205	0.176	0.137	0.135	0.129	0.129	0.162	0.273	0.463	0.904	1.203	1.035	0.563	0.395	0.744	1.193	1.879	2.930	5.908	9.793	10.24	4.931	0.723	0.053	0.027	0.028	0.029	0.018	0.045	0.017
280.0	21.74	22.36	17.08	10.86	15.11	38.74	151.9	236.9	108.4	111.4	369.1	 1385	 1618	159.0	5.588	1.766	0.914	0.768	0.606	0.461	0.575	0.355	0.303	0.245	0.286	0.242	0.167	0.238	0.170	0.192	0.198	0.135	0.148	0.148	0.108	0.170	0.158	0.140	0.149	0.092	0.150	0.103	0.105	0.124	0.181	0.246	0.225	0.227	0.226	0.176	0.166	0.174	0.112	0.159	0.178	0.207	0.399	0.723	1.443	1.380	0.726	0.384	0.402	0.582	0.850	1.718	3.996	9.097	12.12	8.733	2.482	0.151	0.043	0.034	0.017	0.015	0.011
285.0	38.36	31.93	26.76	17.01	12.48	20.11	71.37	212.2	221.9	80.57	124.9	493.4	 1526	 1344	113.8	2.812	1.375	0.932	0.711	0.727	0.479	0.422	0.350	0.264	0.304	0.311	0.235	0.210	0.254	0.149	0.134	0.233	0.158	0.131	0.135	0.178	0.213	0.142	0.152	0.151	0.142	0.124	0.136	0.112	0.155	0.195	0.308	0.270	0.293	0.220	0.216	0.219	0.160	0.191	0.116	0.193	0.235	0.302	0.695	1.082	1.454	1.021	0.405	0.350	0.361	0.649	1.145	2.892	6.202	10.60	11.51	6.209	0.971	0.067	0.017	0.027	0.006
290.0	44.51	47.85	37.81	26.23	19.45	21.85	37.57	100.2	232.4	245.1	129.8	175.5	507.4	 1153	 1302	477.5	19.86	1.471	0.993	0.930	0.584	0.489	0.347	0.395	0.357	0.319	0.263	0.227	0.296	0.217	0.180	0.221	0.167	0.142	0.149	0.176	0.204	0.179	0.127	0.158	0.144	0.146	0.154	0.178	0.184	0.231	0.273	0.325	0.312	0.273	0.229	0.234	0.136	0.202	0.138	0.168	0.206	0.189	0.324	0.517	0.800	1.277	1.466	1.172	0.676	0.530	0.513	0.919	1.750	3.211	5.653	7.970	9.378	7.362	3.853	0.701	0.041
295.0	54.52	58.32	54.95	36.93	29.69	26.55	35.88	58.66	120.8	279.3	299.2	152.2	176.8	322.8	796.5	 1855	647.1	13.52	1.357	1.113	0.866	0.647	0.535	0.415	0.389	0.289	0.334	0.329	0.270	0.223	0.233	0.227	0.184	0.175	0.204	0.265	0.194	0.229	0.194	0.196	0.181	0.139	0.150	0.219	0.195	0.208	0.228	0.289	0.345	0.294	0.238	0.247	0.163	0.279	0.199	0.204	0.235	0.204	0.218	0.319	0.433	0.640	0.923	1.487	1.955	1.408	0.589	0.589	0.706	0.984	1.529	2.057	3.296	6.393	11.67	11.07	4.595
300.0	60.10	66.49	59.48	42.70	32.42	32.70	41.39	51.41	85.98	188.1	374.4	251.0	127.2	124.8	254.6	 1159	 1887	100.2	4.951	1.368	1.145	0.908	0.610	0.512	0.449	0.388	0.343	0.325	0.310	0.241	0.234	0.268	0.173	0.184	0.223	0.267	0.239	0.258	0.229	0.246	0.155	0.141	0.182	0.200	0.245	0.251	0.258	0.272	0.296	0.341	0.264	0.289	0.230	0.263	0.254	0.183	0.271	0.239	0.264	0.406	0.364	0.444	0.571	0.897	1.623	2.020	1.663	0.881	0.591	0.686	0.623	0.716	0.944	1.853	4.935	10.06	13.62
305.0	67.04	75.01	70.03	44.28	41.51	38.45	46.72	57.37	83.62	133.8	277.4	397.9	191.5	92.91	97.19	377.8	 1426	 1634	77.81	2.544	1.420	0.968	0.762	0.595	0.524	0.446	0.432	0.286	0.280	0.211	0.243	0.222	0.135	0.204	0.271	0.273	0.282	0.272	0.176	0.210	0.179	0.189	0.176	0.201	0.243	0.296	0.257	0.272	0.324	0.327	0.263	0.294	0.280	0.268	0.248	0.263	0.345	0.226	0.314	0.400	0.369	0.417	0.550	0.645	0.911	1.460	1.973	1.932	1.080	0.604	0.464	0.416	0.435	0.647	1.275	3.123	7.482
310.0	69.72	82.61	72.39	51.47	46.00	47.50	53.65	67.88	91.42	124.7	183.3	302.4	339.4	150.9	75.75	118.0	433.3	 1151	 1437	341.8	16.75	1.414	0.977	0.684	0.617	0.465	0.415	0.383	0.370	0.329	0.246	0.260	0.160	0.217	0.254	0.257	0.305	0.218	0.171	0.153	0.169	0.179	0.214	0.209	0.243	0.251	0.241	0.293	0.281	0.258	0.314	0.331	0.288	0.296	0.295	0.310	0.343	0.316	0.408	0.439	0.423	0.464	0.522	0.666	0.780	0.936	1.229	1.636	1.820	1.660	0.925	0.545	0.412	0.386	0.481	0.876	1.950
315.0	71.25	83.99	76.02	61.81	53.40	53.83	62.27	74.53	98.62	127.6	160.5	201.3	272.3	319.9	131.5	69.67	129.7	297.3	740.6	 1711	499.6	11.21	1.594	0.938	0.888	0.576	0.497	0.435	0.398	0.368	0.297	0.309	0.200	0.263	0.204	0.219	0.249	0.196	0.282	0.189	0.150	0.176	0.206	0.185	0.226	0.270	0.307	0.326	0.318	0.261	0.287	0.370	0.378	0.340	0.285	0.321	0.336	0.346	0.442	0.400	0.542	0.479	0.537	0.592	0.719	0.840	0.971	0.952	1.122	1.455	1.852	1.524	0.810	0.383	0.378	0.439	0.648
320.0	90.86	108.5	99.91	68.41	61.13	59.57	73.34	89.23	109.8	134.4	163.9	186.4	208.8	307.3	257.2	86.47	68.71	97.90	216.1	 1036	 1699	75.75	4.565	1.298	0.974	0.717	0.610	0.472	0.429	0.438	0.297	0.259	0.243	0.273	0.230	0.250	0.275	0.243	0.222	0.179	0.153	0.188	0.214	0.241	0.289	0.291	0.331	0.452	0.395	0.402	0.302	0.348	0.351	0.364	0.326	0.349	0.491	0.423	0.477	0.463	0.569	0.567	0.694	0.741	0.848	0.792	0.981	0.926	1.029	1.002	1.566	1.861	1.667	1.000	0.495	0.416	0.430
325.0	108.3	151.0	131.0	85.04	63.36	69.75	81.44	96.72	121.8	151.7	179.6	200.2	192.3	224.7	310.3	140.8	66.51	58.55	72.73	311.1	 1288	 1470	62.99	2.153	1.315	0.969	0.624	0.582	0.384	0.390	0.342	0.369	0.372	0.270	0.260	0.278	0.212	0.325	0.211	0.221	0.231	0.244	0.232	0.231	0.366	0.354	0.488	0.500	0.489	0.514	0.353	0.387	0.299	0.442	0.400	0.395	0.520	0.453	0.532	0.627	0.582	0.587	0.703	0.848	0.787	0.924	0.918	0.959	0.988	0.905	0.987	1.232	1.761	1.833	1.099	0.493	0.393
330.0	131.8	178.6	174.0	114.4	80.27	77.84	92.68	107.5	135.1	167.2	197.5	208.3	205.5	191.7	218.8	246.0	149.1	63.43	48.71	91.77	369.5	 1048	 1302	271.0	14.41	1.248	0.859	0.694	0.497	0.452	0.429	0.363	0.299	0.310	0.251	0.247	0.230	0.300	0.189	0.260	0.252	0.185	0.275	0.288	0.364	0.448	0.546	0.579	0.611	0.628	0.480	0.489	0.347	0.395	0.419	0.468	0.565	0.545	0.518	0.697	0.640	0.614	0.817	0.946	0.964	0.928	0.989	0.997	1.041	1.096	0.944	0.987	1.068	1.287	1.511	1.329	1.115
335.0	142.1	204.0	206.7	141.0	104.8	97.89	108.5	121.3	149.9	183.8	210.2	228.0	225.2	202.7	178.9	184.6	245.4	112.0	54.78	50.27	104.8	260.0	693.2	 1603	400.3	11.42	1.147	0.878	0.711	0.565	0.504	0.391	0.299	0.359	0.299	0.295	0.336	0.310	0.243	0.235	0.251	0.240	0.313	0.301	0.350	0.367	0.527	0.703	0.860	0.777	0.588	0.540	0.447	0.391	0.554	0.559	0.554	0.679	0.673	0.660	0.640	0.782	0.947	1.036	1.011	1.044	1.061	1.160	1.165	1.018	1.100	1.012	0.950	0.887	1.039	1.161	1.477
340.0	156.8	228.7	235.7	166.8	126.8	111.8	129.7	140.8	167.5	190.7	226.8	240.8	244.2	224.3	185.5	154.3	199.2	217.6	85.71	47.93	51.19	78.49	196.2	999.3	 1594	64.03	3.493	1.032	0.812	0.614	0.512	0.432	0.441	0.358	0.249	0.254	0.347	0.274	0.305	0.260	0.236	0.251	0.274	0.292	0.375	0.498	0.522	0.718	0.861	0.783	0.694	0.739	0.538	0.585	0.584	0.512	0.641	0.708	0.738	0.698	0.863	0.844	0.887	0.973	1.088	1.083	1.109	1.243	1.151	1.113	1.156	1.025	0.939	0.936	0.857	0.846	1.061
345.0	160.9	232.4	245.8	190.7	139.9	132.3	141.6	155.5	178.1	202.6	240.7	251.1	249.6	234.9	195.4	149.9	143.4	220.9	163.5	60.68	44.79	43.21	63.62	300.0	 1292	 1304	51.89	1.912	1.109	0.733	0.589	0.528	0.426	0.366	0.253	0.301	0.338	0.281	0.262	0.224	0.245	0.297	0.240	0.379	0.421	0.458	0.591	0.708	0.834	0.879	0.692	0.732	0.635	0.580	0.613	0.564	0.677	0.753	0.802	0.819	0.777	0.949	0.957	1.008	1.128	1.179	1.149	1.232	1.303	1.191	1.272	1.181	1.079	1.051	0.873	0.802	0.881
350.0	163.1	233.9	253.6	198.7	165.3	149.9	159.0	175.2	191.0	216.4	245.5	261.0	258.2	241.5	203.5	154.5	127.3	148.7	189.5	131.0	61.60	43.78	41.32	88.50	371.9	 1004	 1181	238.8	12.00	1.080	0.772	0.666	0.528	0.453	0.356	0.270	0.292	0.291	0.263	0.246	0.283	0.264	0.302	0.386	0.353	0.484	0.574	0.792	0.752	0.828	0.696	0.808	0.738	0.720	0.665	0.607	0.664	0.736	0.869	0.945	0.933	1.007	1.031	1.010	1.230	1.216	1.218	1.291	1.286	1.253	1.229	1.156	1.117	1.047	0.844	0.825	0.801
355.0	163.3	232.6	248.9	214.4	188.2	170.3	179.9	196.0	202.8	220.2	248.0	261.0	263.3	246.1	211.9	162.1	132.5	119.5	131.1	178.5	130.4	58.42	44.80	48.33	102.6	247.4	664.7	 1441	359.9	8.619	1.186	0.832	0.737	0.485	0.349	0.313	0.275	0.317	0.253	0.268	0.272	0.248	0.301	0.331	0.346	0.585	0.555	0.673	0.814	0.864	0.731	0.934	0.845	0.733	0.758	0.748	0.819	0.800	0.873	0.929	1.008	1.114	0.995	1.143	1.203	1.224	1.218	1.258	1.080	1.235	1.279	1.210	1.219	0.959	0.978	0.888	0.748
360.0	153.9	225.9	243.0	215.9	202.4	186.5	192.2	205.4	209.2	224.7	249.2	265.1	265.5	246.5	212.9	165.8	136.2	120.1	113.3	140.4	183.7	82.55	51.10	43.74	47.23	72.13	185.7	963.9	 1432	58.92	3.039	0.943	0.779	0.537	0.440	0.445	0.383	0.334	0.255	0.262	0.258	0.294	0.314	0.328	0.452	0.554	0.565	0.634	0.760	0.800	0.747	0.863	0.885	0.832	0.905	0.895	0.969	0.956	0.970	1.017	1.080	1.131	1.095	1.265	1.220	1.227	1.219	1.275	1.336	1.246	1.161	1.166	1.216	1.059	0.868	0.877	1.013
365.0	158.3	211.0	233.5	212.7	202.1	201.2	200.1	211.3	216.8	227.6	249.2	257.8	252.3	242.5	210.0	170.8	138.1	123.8	113.6	114.4	167.7	151.7	69.16	49.74	40.45	37.63	56.98	290.4	 1243	 1176	47.23	1.623	0.881	0.638	0.449	0.432	0.383	0.365	0.221	0.320	0.267	0.300	0.202	0.354	0.457	0.494	0.579	0.608	0.780	0.790	0.748	0.827	0.872	0.888	0.838	0.906	0.973	0.877	0.933	1.047	1.061	1.140	1.269	1.265	1.251	1.218	1.162	1.360	1.304	1.342	1.225	1.242	1.053	1.080	0.978	0.894	0.940
370.0	140.7	199.7	233.2	226.8	222.2	215.0	210.4	220.0	222.3	240.3	255.2	259.6	250.7	234.4	207.8	173.7	148.8	131.6	123.0	115.2	127.9	164.6	142.8	79.58	53.16	41.56	38.30	82.80	365.5	993.1	884.4	208.6	9.494	0.904	0.562	0.570	0.418	0.342	0.355	0.303	0.318	0.265	0.272	0.343	0.426	0.536	0.559	0.659	0.789	0.703	0.803	0.858	0.841	0.979	0.826	0.913	0.979	0.914	0.961	1.077	1.113	1.179	1.148	1.154	1.277	1.210	1.245	1.307	1.227	1.217	1.204	1.298	1.116	1.129	0.966	1.024	0.852
375.0	132.7	204.5	224.9	236.4	230.2	224.1	209.0	222.2	226.9	240.1	252.1	258.8	248.7	230.7	202.9	171.8	155.8	139.6	132.0	123.8	118.5	128.2	162.8	142.9	74.49	53.22	43.39	44.22	99.89	246.1	639.7	 1323	296.5	6.410	0.922	0.724	0.508	0.407	0.357	0.301	0.303	0.307	0.347	0.318	0.399	0.461	0.529	0.686	0.725	0.725	0.789	0.927	0.915	0.913	0.847	0.946	0.917	1.103	1.003	0.978	1.027	1.152	1.069	1.212	1.232	1.184	1.309	1.389	1.255	1.192	1.172	1.245	1.110	1.157	0.965	0.969	0.851
380.0	134.0	190.5	219.5	239.8	238.6	226.5	212.8	224.8	228.6	238.0	252.4	251.4	243.9	226.2	198.7	173.0	157.0	144.7	138.1	128.9	120.6	117.2	135.1	172.4	109.7	63.32	49.18	41.95	44.75	71.90	185.6	943.2	 1211	48.72	1.992	0.755	0.473	0.499	0.363	0.355	0.289	0.328	0.342	0.389	0.383	0.503	0.537	0.657	0.702	0.759	0.782	0.922	0.903	1.047	0.898	0.943	1.084	1.008	1.008	1.063	0.981	1.012	1.145	1.268	1.185	1.180	1.232	1.279	1.220	1.230	1.180	1.198	1.127	1.070	1.066	0.968	0.970
385.0	123.5	178.7	216.1	231.6	236.4	224.3	215.3	222.0	222.8	232.2	246.2	244.8	238.1	221.3	195.8	173.2	158.5	148.0	140.1	132.1	124.3	116.8	117.3	150.5	149.8	81.21	55.09	45.18	36.56	35.92	60.17	297.7	 1138	906.9	34.70	1.164	0.691	0.616	0.384	0.352	0.334	0.283	0.410	0.315	0.416	0.389	0.534	0.777	0.684	0.711	0.744	0.970	0.965	1.016	0.975	0.881	1.055	1.069	0.947	1.014	1.029	0.994	1.112	1.161	1.145	1.209	1.240	1.186	1.212	1.203	1.114	1.070	1.068	1.097	1.076	0.955	0.900
390.0	124.4	173.0	213.2	223.3	231.4	218.4	213.9	218.6	221.6	228.4	237.3	237.2	226.8	212.3	191.7	169.3	158.6	150.6	142.8	135.4	128.2	121.8	116.1	120.6	143.6	127.5	75.81	51.52	39.11	32.80	34.83	82.82	338.9	818.2	693.3	158.0	7.172	0.848	0.546	0.434	0.322	0.363	0.332	0.353	0.432	0.438	0.473	0.667	0.671	0.666	0.713	0.891	1.009	0.971	0.933	0.965	1.017	1.031	1.006	0.986	0.998	1.038	1.002	1.101	1.108	1.101	1.152	1.084	1.219	1.184	1.117	1.024	1.068	1.122	0.931	1.013	1.040
395.0	124.2	174.8	198.8	213.6	225.1	217.8	218.3	214.4	213.5	221.8	226.1	227.1	216.6	206.2	185.2	166.3	157.2	150.6	141.9	137.8	131.0	125.2	118.6	112.0	111.4	132.2	122.8	66.11	45.42	35.40	32.19	36.57	86.36	199.6	534.0	 1022	230.3	4.271	0.772	0.505	0.523	0.469	0.388	0.351	0.381	0.449	0.491	0.666	0.679	0.679	0.649	0.951	0.961	0.941	0.935	0.924	0.896	1.016	1.055	0.982	1.088	1.005	0.958	1.125	0.999	1.008	1.050	1.002	1.117	1.058	0.991	0.968	1.053	1.034	0.917	1.110	1.030
400.0	126.1	169.7	194.0	213.5	217.0	221.3	220.1	210.6	211.7	210.7	218.4	212.4	208.6	196.0	177.1	162.7	154.3	148.8	142.2	135.2	131.7	125.6	118.5	112.2	101.4	110.0	136.8	95.78	53.06	39.44	33.94	29.68	32.86	53.14	150.4	760.7	937.2	40.26	1.570	0.636	0.622	0.463	0.340	0.363	0.423	0.406	0.582	0.605	0.648	0.542	0.669	0.860	0.933	0.965	0.976	0.888	1.073	0.955	1.093	0.998	0.910	1.030	1.092	1.072	0.879	0.937	0.969	1.113	1.035	1.014	1.109	1.021	1.020	0.965	0.964	1.041	1.080
405.0	121.3	157.6	189.0	211.4	212.6	207.9	218.5	207.3	204.8	206.6	212.4	207.3	203.3	191.8	172.5	159.4	151.4	144.7	140.6	134.5	130.5	122.1	119.0	110.2	100.6	96.92	115.3	124.1	65.70	44.48	38.47	30.50	23.01	21.57	40.86	236.1	866.6	678.8	28.36	1.065	0.584	0.499	0.433	0.341	0.386	0.416	0.525	0.607	0.641	0.599	0.735	0.805	0.928	0.869	0.991	0.955	0.965	0.984	1.148	0.971	0.956	1.055	0.999	0.990	0.882	0.977	1.049	0.920	0.913	1.036	0.964	0.983	0.948	0.792	0.984	0.945	1.025
