Sample:	'1
File name:	Default_20230428_143456.FD3
Run date:	'14:28:35, 04/28/2023
Operator:	user
Comment:	'

Instrument
Model:	F-2700 FL Spectrophotometer
Serial number:	2190-003
ROM Version:	4J14000 07

Instrument parameters
Measurement type:	3-D scan
Data mode:	Fluorescence
EX  Start WL:	220.0 nm
EX  End WL:	600.0 nm
EX Sampling interval:	5.0 nm
EM  Start WL:	230.0 nm
EM  End WL:	650.0 nm
EM Sampling interval:	5.0 nm
Scan speed:	12000 nm/min
EX Slit:	5.0 nm
EM Slit:	5.0 nm
PMT Voltage:	700 V
Response:	Auto 
Corrected spectra:	Off
Contour interval:	50.000

Peak integration
Integration method:	Rectangular
Sensitivity:	1
Threshold:	1.000

Peaks
No.	ApexEX/EM(nm)	Height(Data)
1	225.0/585.0	46.09
2	225.0/605.0	48.76
3	225.0/625.0	48.02
4	230.0/275.0	43.50
5	230.0/340.0	386.3
6	230.0/540.0	60.25
7	230.0/560.0	44.35
8	230.0/610.0	43.55
9	235.0/550.0	53.78
10	235.0/570.0	41.46
11	235.0/600.0	37.37
12	240.0/520.0	135.9
13	245.0/265.0	202.8
14	245.0/530.0	121.2
15	245.0/575.0	35.78
16	245.0/605.0	27.55
17	245.0/625.0	27.29
18	250.0/540.0	115.9
19	250.0/615.0	25.56
20	250.0/640.0	25.29
21	255.0/555.0	101.5
22	255.0/625.0	23.39
23	260.0/285.0	454.9
24	260.0/565.0	97.62
25	260.0/635.0	24.11
26	265.0/290.0	472.7
27	265.0/425.0	344.5
28	265.0/435.0	340.5
29	265.0/580.0	96.47
30	270.0/240.0	14.47
31	270.0/295.0	668.4
32	270.0/420.0	345.8
33	270.0/440.0	347.7
34	270.0/590.0	90.96
35	275.0/305.0	770.1
36	275.0/425.0	347.3
37	275.0/605.0	81.87
38	275.0/640.0	32.88
39	280.0/310.0	777.9
40	280.0/340.0	550.8
41	280.0/390.0	369.7
42	280.0/410.0	349.0
43	280.0/615.0	77.43
44	285.0/315.0	789.9
45	285.0/405.0	353.3
46	285.0/625.0	59.01
47	290.0/320.0	785.4
48	290.0/400.0	360.9
49	290.0/640.0	47.78
50	300.0/335.0	453.9
51	305.0/340.0	471.0
52	310.0/345.0	421.8
53	315.0/255.0	4.936
54	315.0/350.0	342.5
55	320.0/360.0	356.2
56	325.0/365.0	362.1
57	330.0/370.0	310.5
58	335.0/375.0	317.9
59	340.0/385.0	315.7
60	345.0/390.0	284.5
61	350.0/395.0	274.7
62	355.0/405.0	274.0
63	360.0/410.0	240.0
64	365.0/415.0	231.0
65	370.0/425.0	220.0
66	375.0/430.0	188.5
67	380.0/435.0	170.7
68	385.0/445.0	154.8
69	400.0/465.0	102.1
70	410.0/475.0	71.51
71	415.0/485.0	63.76
72	420.0/490.0	53.31
73	425.0/495.0	46.08
74	430.0/505.0	39.54
75	440.0/515.0	28.38
76	445.0/525.0	23.89
77	450.0/530.0	20.63
78	455.0/535.0	18.30
79	460.0/545.0	13.79
80	470.0/560.0	8.458
81	515.0/285.0	3.163
82	530.0/290.0	3.081
83	540.0/295.0	3.830
84	545.0/300.0	3.979
85	550.0/305.0	4.094
86	555.0/310.0	3.510
87	575.0/320.0	3.890
88	580.0/325.0	3.858
89	590.0/330.0	3.408

Data points
	220.0	225.0	230.0	235.0	240.0	245.0	250.0	255.0	260.0	265.0	270.0	275.0	280.0	285.0	290.0	295.0	300.0	305.0	310.0	315.0	320.0	325.0	330.0	335.0	340.0	345.0	350.0	355.0	360.0	365.0	370.0	375.0	380.0	385.0	390.0	395.0	400.0	405.0	410.0	415.0	420.0	425.0	430.0	435.0	440.0	445.0	450.0	455.0	460.0	465.0	470.0	475.0	480.0	485.0	490.0	495.0	500.0	505.0	510.0	515.0	520.0	525.0	530.0	535.0	540.0	545.0	550.0	555.0	560.0	565.0	570.0	575.0	580.0	585.0	590.0	595.0	600.0
230.0	40.69	166.1	 1428	 1180	100.6	18.32	16.47	13.70	11.29	12.12	11.55	9.181	8.724	7.913	6.544	4.752	5.340	3.836	4.284	3.841	3.298	3.475	3.129	2.625	2.818	2.507	2.482	2.092	2.365	2.238	2.259	2.098	2.126	1.738	1.888	1.872	1.777	1.757	1.543	1.519	1.564	1.533	1.588	1.326	1.550	1.198	1.269	2.999	5.733	5.277	2.597	1.314	0.927	1.094	0.973	1.034	0.977	1.074	0.917	0.851	0.934	1.132	0.876	0.799	0.895	0.855	0.991	0.949	0.825	0.921	0.864	0.926	0.875	0.890	1.046	0.955	0.888
235.0	52.82	71.84	524.4	 1719	 1354	143.3	17.72	11.73	10.71	11.19	12.17	8.598	10.11	7.589	7.138	5.247	5.416	3.234	3.796	4.285	2.821	3.502	3.186	2.879	2.307	2.992	2.217	2.343	2.284	2.007	1.997	1.969	1.707	1.750	1.559	1.944	1.743	1.816	1.537	1.230	1.562	1.521	1.342	1.341	1.302	1.174	1.340	1.568	2.641	4.177	6.507	7.618	4.325	1.528	1.145	0.916	1.006	0.927	1.019	1.241	0.781	0.930	0.937	1.041	1.134	0.800	1.213	0.802	0.839	0.787	0.736	0.812	0.863	0.907	0.835	0.854	1.116
240.0	60.97	61.12	149.9	829.2	 2540	 1253	84.26	14.32	13.71	10.34	14.47	8.654	8.656	8.059	7.687	5.379	6.178	3.798	3.864	4.069	3.291	3.676	3.366	2.407	2.116	2.655	2.147	1.946	2.379	2.026	2.380	2.143	1.944	1.457	2.020	1.790	1.758	2.004	1.467	1.244	1.575	1.451	1.346	1.454	1.442	1.288	1.487	0.977	1.429	1.744	3.862	8.736	10.76	7.853	3.285	1.284	1.283	0.997	0.948	1.272	0.799	1.039	0.781	1.047	0.839	1.028	0.975	0.927	1.022	0.834	0.817	0.952	0.995	0.870	0.842	1.075	0.755
245.0	49.33	67.78	84.66	222.7	 1532	 3111	 1084	45.84	14.99	11.56	8.394	10.75	9.438	10.17	6.213	6.570	4.744	4.993	4.782	3.787	3.378	3.467	3.168	3.220	3.002	2.161	2.332	2.173	2.039	1.594	2.450	2.087	2.141	1.382	1.690	1.681	1.432	1.606	1.565	1.824	1.184	1.527	1.388	1.349	1.334	1.248	1.432	1.227	1.124	1.162	1.584	3.442	6.813	13.24	12.46	6.887	1.965	0.954	0.988	1.118	0.847	0.923	0.830	0.885	0.846	0.744	1.135	1.127	1.067	0.813	0.887	0.850	1.002	0.805	0.876	0.843	1.062
250.0	40.20	53.36	78.86	117.2	401.1	 1634	 3378	 2539	355.4	18.55	10.50	12.75	10.85	9.984	6.827	7.156	5.012	4.919	4.664	4.086	3.379	4.262	3.184	3.119	2.668	2.413	2.174	1.920	2.368	2.448	1.938	1.908	2.065	1.690	1.692	1.637	1.638	1.586	1.656	1.576	1.578	1.447	1.718	1.364	1.242	1.361	1.251	1.206	1.395	1.232	1.295	1.568	2.346	4.709	7.859	12.34	14.52	13.55	7.642	1.988	1.050	1.062	0.830	0.964	1.020	0.837	1.057	1.003	0.860	0.865	0.759	0.798	0.896	0.926	0.995	0.955	1.069
255.0	31.75	49.65	50.74	140.9	183.7	386.5	 1260	 4967	 4722	452.5	17.74	13.41	13.12	9.639	7.898	6.594	6.414	3.877	4.570	4.936	3.989	3.225	4.051	3.196	3.075	2.302	2.147	2.306	1.957	2.294	2.382	1.726	1.819	1.564	2.063	2.079	1.960	1.327	1.500	1.461	1.515	1.635	2.178	1.098	1.410	1.315	1.533	1.334	1.360	1.064	1.227	1.737	1.275	1.953	2.556	3.522	6.369	14.52	24.49	24.89	10.50	1.939	0.895	1.090	0.971	0.897	1.163	1.183	0.941	1.061	1.287	0.738	0.643	0.884	1.283	0.853	0.970
260.0	36.61	41.50	38.55	91.56	203.2	149.8	317.1	 2247	 7394	 4345	242.2	16.81	13.20	10.53	7.746	7.061	6.835	5.110	5.098	4.554	4.390	3.832	3.039	2.855	2.826	2.527	2.343	2.723	2.283	2.738	1.810	1.803	1.556	1.672	1.703	1.803	1.295	1.717	1.595	1.512	1.622	1.721	1.584	1.345	1.541	1.367	1.464	1.399	1.044	1.223	1.133	1.743	1.477	1.396	1.346	1.437	2.384	4.385	11.49	25.32	33.18	22.17	6.259	1.190	0.842	0.946	0.831	0.978	0.821	1.014	1.056	0.760	0.687	0.857	0.901	0.738	0.952
265.0	43.78	39.08	34.77	50.48	142.5	202.8	130.8	571.8	 3734	 8954	 1115	108.2	14.49	13.64	9.831	8.276	7.139	5.734	5.232	3.926	3.666	3.880	2.817	2.797	2.219	2.257	2.457	2.524	2.563	1.698	2.440	2.378	1.629	1.905	1.622	1.557	1.694	1.422	1.322	1.432	1.426	1.533	1.742	1.358	1.598	1.495	1.515	1.355	1.139	1.138	0.822	1.244	1.340	1.905	1.759	1.292	1.539	1.984	3.493	8.552	19.82	36.18	34.46	16.00	2.942	0.932	1.016	0.984	0.983	0.730	1.139	0.829	0.605	0.890	0.776	0.934	0.956
270.0	50.41	41.03	43.14	32.22	58.83	164.1	236.2	203.3	919.3	 3964	 7230	 4162	364.5	17.93	13.07	9.575	8.806	6.620	5.736	4.279	4.084	4.198	2.664	3.314	2.662	2.577	2.887	2.904	2.462	2.256	2.415	2.678	1.926	2.267	1.854	1.609	1.785	1.567	1.405	1.346	1.526	1.559	1.434	1.638	1.597	1.533	1.377	1.424	1.287	1.152	0.877	1.123	1.301	1.427	1.752	1.998	2.240	1.712	1.585	2.751	5.307	11.61	20.04	29.49	36.13	26.48	10.95	2.110	0.909	0.818	1.070	0.927	0.736	0.756	0.871	0.875	0.975
275.0	60.48	36.15	43.50	35.29	40.49	63.76	193.0	334.5	275.3	914.6	 2392	 9465	 6407	459.1	17.88	12.58	9.400	7.940	6.762	4.572	5.379	4.161	3.248	3.260	2.701	2.969	3.069	2.922	2.263	2.329	2.947	2.084	1.955	1.983	2.149	1.837	1.712	1.328	1.358	1.356	1.491	1.258	1.007	1.544	1.425	1.527	1.171	1.417	1.206	1.060	1.038	1.112	1.151	1.209	1.322	1.566	2.197	2.511	2.332	1.668	1.814	3.381	5.367	7.940	13.86	30.31	49.87	37.94	12.44	1.208	0.878	0.921	0.795	1.036	0.746	1.133	1.084
280.0	53.87	43.02	37.16	39.53	38.21	34.81	80.19	325.3	327.2	259.9	587.8	 3628	9999.9	 5295	280.0	13.08	10.50	8.428	7.016	4.829	4.837	4.243	4.050	3.611	2.951	3.231	2.933	2.426	2.857	2.674	2.514	1.859	1.897	2.175	1.517	1.893	1.482	1.497	1.435	1.417	1.244	1.552	1.184	1.407	1.513	1.892	1.235	1.473	1.193	1.246	1.020	0.770	0.978	1.017	1.093	1.177	1.262	1.872	2.591	2.689	1.948	1.588	2.369	2.711	4.223	8.906	23.98	47.80	55.44	30.44	5.964	0.861	0.835	1.339	1.171	0.969	0.919
285.0	69.20	52.23	47.70	46.53	35.23	32.09	46.55	176.4	454.9	246.3	190.6	918.6	 5001	9999.9	 3940	119.4	12.57	10.65	8.630	5.843	4.648	4.584	4.259	3.970	3.247	3.022	2.251	2.797	3.228	2.404	2.276	1.997	1.815	2.036	1.658	1.823	1.528	1.428	1.669	1.898	1.572	1.468	1.102	1.279	1.393	1.724	1.321	1.690	1.092	1.136	1.000	1.155	1.261	1.210	0.998	1.451	1.163	1.390	1.974	3.163	3.013	1.949	1.697	1.703	2.137	2.826	6.486	15.23	36.87	58.32	46.71	16.97	2.430	1.029	0.897	0.999	0.815
290.0	62.29	67.96	69.54	66.05	44.76	37.29	43.09	86.27	250.1	472.7	319.3	321.1	 1284	 4872	9999.9	 7534	237.6	15.94	10.78	8.361	5.647	5.119	3.915	4.156	3.640	3.300	3.120	2.715	2.972	2.835	2.152	2.020	1.787	2.055	1.873	1.827	1.851	1.501	1.753	1.330	1.493	1.479	1.383	1.541	1.564	1.462	1.413	1.662	1.238	1.202	1.260	1.156	1.364	1.200	1.299	1.212	1.221	1.346	1.416	1.863	1.952	2.899	3.081	2.112	1.667	1.619	2.518	4.597	9.553	19.21	31.51	42.75	43.60	29.05	12.68	2.418	1.195
295.0	70.49	85.67	102.7	95.44	70.11	49.08	50.09	75.71	119.8	283.7	668.4	395.8	465.0	 1234	 2982	9999.9	9999.9	308.0	14.49	10.86	7.941	6.726	4.453	4.554	3.791	3.846	3.765	3.092	3.104	2.129	2.352	2.321	2.181	2.068	2.090	1.882	1.921	2.257	1.718	1.447	1.649	1.595	1.241	1.610	1.446	1.056	1.363	1.702	1.289	1.543	1.222	1.211	1.496	1.337	1.207	1.244	1.086	1.458	1.429	1.419	1.715	1.835	2.352	3.498	3.830	2.502	2.115	2.089	3.383	5.365	8.088	11.00	19.02	39.05	60.86	43.36	10.74
300.0	93.55	100.8	111.9	94.61	80.07	58.12	61.06	86.07	112.1	189.0	506.5	746.8	384.5	457.5	786.4	 3865	9999.9	 3272	203.4	13.46	8.810	6.926	5.957	5.719	4.226	3.391	4.780	3.611	3.160	3.022	2.628	3.044	2.194	2.206	2.283	2.009	1.965	1.665	1.818	1.747	1.597	1.689	1.593	1.370	1.713	1.106	1.544	1.592	1.298	1.605	1.103	1.191	1.227	1.722	1.391	1.399	1.301	1.393	1.484	1.300	1.286	1.679	1.825	2.283	3.688	3.979	3.081	1.903	2.259	2.646	2.818	3.408	5.242	11.27	30.25	57.57	58.92
305.0	82.02	109.8	130.2	109.5	78.23	62.66	73.27	92.13	123.7	178.4	328.1	770.1	665.1	331.2	321.9	976.3	 5165	9999.9	 2683	103.9	12.10	7.462	6.878	5.386	5.049	3.554	4.405	3.007	3.399	3.172	3.060	2.993	2.497	2.356	2.136	2.070	2.145	1.959	1.772	1.403	1.418	1.553	1.555	1.280	1.295	1.111	1.863	1.568	1.228	1.270	1.479	1.370	1.407	1.451	1.337	1.405	1.465	1.423	1.439	1.797	1.345	1.631	1.646	2.004	2.677	3.516	4.094	3.480	2.312	1.817	2.199	2.014	2.388	3.410	7.859	19.22	43.04
310.0	92.73	113.1	140.7	129.4	95.78	77.16	83.97	99.03	139.0	194.4	280.7	489.2	777.9	619.9	290.7	338.1	 1266	 5004	9999.9	 6673	172.4	14.44	8.670	5.941	5.213	4.207	4.507	3.610	3.558	3.504	2.863	2.995	2.625	2.202	2.081	1.940	2.371	2.244	1.906	1.644	1.407	1.496	1.117	1.438	1.566	1.544	1.425	1.579	1.461	1.235	1.318	1.521	1.552	1.384	1.265	1.407	1.567	1.313	1.531	1.731	1.433	1.875	1.821	2.226	2.161	2.322	2.985	3.510	3.379	3.077	2.425	1.653	1.847	2.054	2.708	5.180	10.86
315.0	92.79	145.2	185.6	151.1	97.31	86.62	99.71	119.3	159.0	226.0	299.6	417.4	518.3	789.9	556.2	232.7	360.3	 1167	 2995	9999.9	 9239	229.2	12.70	9.457	6.945	4.416	4.538	4.361	2.696	3.993	2.545	2.773	3.142	2.558	2.544	2.259	2.157	1.814	1.677	1.885	1.522	1.445	1.801	1.238	2.152	1.278	1.396	1.622	1.288	1.539	1.203	1.408	1.475	1.226	1.420	1.668	1.667	1.263	1.697	1.936	1.719	1.677	2.056	2.053	1.724	2.184	2.480	2.483	2.991	3.210	3.455	2.474	1.702	1.348	1.609	2.003	3.359
320.0	112.7	187.3	211.3	192.9	119.1	99.11	116.6	134.5	193.0	265.5	337.2	422.2	485.7	613.2	785.4	358.3	178.6	323.7	719.1	 3884	9999.9	 6841	157.1	10.63	7.815	6.590	5.074	4.426	4.158	3.699	3.286	2.955	2.601	2.676	2.245	2.495	2.087	2.335	1.962	1.721	1.441	1.610	1.860	1.301	1.906	1.790	1.602	1.733	1.850	1.500	1.398	1.382	1.430	1.493	1.354	1.517	1.820	1.484	1.644	1.817	1.897	1.861	2.204	2.284	1.930	2.428	2.470	2.658	2.500	2.731	3.523	3.890	3.022	2.146	1.736	1.366	1.646
325.0	129.2	226.8	287.3	256.5	133.8	115.5	132.1	153.8	206.1	296.0	380.3	459.7	523.5	538.9	688.1	594.6	220.1	149.7	213.3	937.7	 5211	9999.9	 2029	90.19	9.661	7.286	5.599	5.458	4.551	3.751	3.770	2.777	3.315	2.714	3.062	2.226	2.104	2.258	1.569	2.013	1.671	1.393	1.796	1.417	1.727	2.124	1.689	2.149	1.909	1.611	1.361	1.515	1.403	1.775	1.396	1.383	1.725	1.832	2.038	1.864	1.927	1.870	2.474	2.250	2.748	2.315	3.138	2.937	2.892	2.720	2.803	2.958	3.858	2.847	2.131	1.366	1.749
330.0	141.3	236.9	335.4	276.6	150.5	135.1	138.3	175.7	226.7	311.7	407.9	483.5	530.8	523.2	511.1	561.8	449.6	179.3	114.4	257.5	 1258	 4983	 9549	 5787	135.1	12.35	7.933	6.538	4.950	4.715	3.715	3.246	3.612	2.829	2.509	2.283	2.195	2.349	1.909	1.857	1.891	1.980	1.739	1.648	1.594	1.844	2.063	2.357	2.176	1.718	1.580	1.635	1.482	1.502	1.620	1.498	1.634	1.947	1.883	1.749	1.812	2.106	2.242	2.318	2.667	2.231	2.678	2.588	2.574	2.770	2.246	2.462	2.866	2.863	3.408	2.629	2.376
335.0	137.5	292.7	375.5	305.3	181.4	148.7	152.2	178.3	244.3	331.7	424.5	492.5	545.9	531.1	469.9	396.0	453.9	399.7	144.2	119.8	329.6	 1152	 2946	9999.9	 8245	186.7	11.14	7.388	6.111	5.019	3.758	3.470	3.184	2.526	2.690	2.657	2.612	2.282	1.830	2.659	1.833	1.937	2.190	1.559	1.816	1.762	2.099	2.298	2.403	1.835	1.783	1.658	1.521	1.692	1.616	1.580	1.660	1.922	1.941	1.696	1.980	2.196	1.942	2.501	2.519	2.453	2.813	2.738	2.624	2.408	2.148	2.071	2.681	2.572	2.329	2.676	3.018
340.0	156.4	292.5	386.3	300.1	213.8	163.9	166.6	185.8	257.4	328.0	424.6	502.3	550.8	520.7	465.7	353.6	324.0	471.0	283.6	109.1	130.6	303.1	699.7	 3990	9999.9	 6041	134.4	9.321	6.982	5.103	4.275	3.803	3.740	3.088	2.842	2.967	2.178	2.182	1.808	2.485	1.628	1.885	1.639	1.738	1.665	1.752	2.166	2.318	2.525	1.863	2.093	1.957	1.766	1.508	1.589	1.591	2.022	1.726	2.251	2.033	1.936	2.626	2.287	2.830	2.362	2.684	2.818	2.480	2.685	2.875	1.758	2.385	2.331	1.914	1.941	1.940	2.709
345.0	152.8	259.7	377.6	283.9	195.3	164.8	180.1	193.8	242.4	319.2	417.5	486.0	531.7	508.2	448.7	342.5	272.2	356.7	421.8	177.7	98.31	124.8	199.5	956.1	 5421	9999.9	 1667	74.50	8.468	6.505	5.645	3.932	3.531	3.664	3.179	3.186	2.273	1.983	2.353	1.688	1.505	1.713	1.684	1.952	2.166	2.218	1.934	2.091	2.489	1.976	1.682	1.784	1.748	1.686	1.810	1.671	1.972	1.876	2.105	1.988	1.970	2.229	2.229	2.487	2.395	2.769	2.452	2.596	2.733	2.714	2.227	2.468	2.488	1.898	1.801	2.174	1.888
350.0	129.2	215.1	328.9	288.1	221.5	179.9	182.2	208.5	254.3	323.9	388.2	452.0	487.2	481.0	420.4	340.3	262.1	242.4	333.6	342.5	173.3	103.6	97.42	255.1	 1319	 5069	 9113	 5206	116.8	11.18	7.162	4.844	4.954	4.023	3.171	3.201	2.266	2.127	1.989	1.885	1.799	1.746	1.619	1.746	1.986	1.837	1.972	1.919	2.052	1.776	1.702	1.700	1.544	1.823	1.902	1.640	1.796	2.018	2.208	1.980	2.072	2.261	2.441	2.267	2.266	2.642	2.250	2.572	2.620	2.447	2.572	2.286	2.412	1.879	1.968	2.042	1.530
355.0	147.8	202.5	287.5	258.5	224.4	196.8	190.2	220.0	265.2	309.8	367.7	425.4	445.2	443.7	407.8	335.4	261.4	222.1	229.9	308.1	333.8	156.4	93.51	115.1	336.5	 1166	 3051	9999.9	 7333	160.1	10.11	7.180	5.377	4.290	3.259	3.553	2.588	2.087	2.182	1.932	2.401	1.708	1.365	1.724	2.046	2.009	1.903	1.947	1.921	1.928	1.813	2.087	1.746	1.916	1.718	2.064	1.919	1.859	2.035	2.039	2.309	2.116	2.308	2.540	2.263	2.654	2.527	2.287	2.382	2.478	1.990	2.408	2.202	1.580	2.025	1.965	1.777
360.0	138.1	201.3	266.2	252.0	219.3	203.0	209.9	231.2	264.2	303.0	356.0	404.1	432.9	421.5	401.4	333.9	272.6	234.2	215.0	236.8	356.2	270.9	120.5	97.04	129.6	304.2	724.9	 4265	9999.9	 5459	110.3	8.558	6.729	4.492	3.439	3.338	2.427	2.442	2.268	1.929	1.831	1.928	1.609	1.524	1.757	1.920	1.816	1.854	1.785	1.720	1.839	1.732	1.703	1.763	1.812	2.038	2.168	1.886	1.933	2.409	2.457	1.920	2.209	2.135	2.550	2.305	2.182	2.403	2.594	2.432	1.689	1.862	2.349	1.820	1.998	1.950	1.642
365.0	110.0	179.4	247.8	240.8	227.5	202.4	225.7	243.5	253.4	301.7	358.7	385.8	417.4	400.8	388.8	343.1	282.1	245.8	224.4	211.5	268.5	362.1	201.2	108.7	96.19	123.1	200.5	 1034	 5662	9999.9	 1477	56.68	7.316	5.243	4.140	3.248	3.160	2.410	2.283	2.184	1.498	2.114	1.569	1.743	1.836	2.034	2.023	2.062	1.970	1.545	1.621	1.719	1.543	2.039	1.847	1.831	2.197	1.929	1.956	2.285	2.384	2.177	2.238	2.245	2.463	2.560	2.202	2.074	2.291	2.256	2.067	2.178	2.300	2.353	1.874	1.955	2.179
370.0	110.1	166.5	227.8	241.0	242.1	222.3	233.3	247.6	269.6	306.0	349.5	379.1	397.1	389.8	375.1	336.8	301.9	264.7	244.3	226.6	227.3	288.4	310.5	191.7	112.9	99.55	96.71	270.3	 1386	 5482	 9277	 4764	92.82	8.200	5.716	3.967	3.316	3.104	2.587	2.456	1.749	2.075	2.046	1.940	1.991	1.770	1.922	1.954	1.860	1.432	1.768	1.821	1.808	1.900	1.744	1.793	2.070	1.836	2.077	2.036	2.233	2.362	2.250	2.430	2.475	2.431	2.277	2.115	2.238	2.207	2.026	2.432	2.562	2.303	2.001	2.222	2.132
375.0	104.4	153.3	204.2	230.4	246.1	241.4	254.0	251.7	267.8	313.3	346.0	356.9	375.2	378.0	362.2	335.1	310.4	284.4	267.9	259.9	241.9	234.1	278.7	317.9	178.2	111.8	89.17	114.7	347.8	 1255	 3350	9999.9	 6387	122.8	7.972	4.846	4.348	3.760	2.721	3.024	2.445	2.108	2.046	1.887	1.847	1.935	2.073	2.174	1.824	1.782	1.756	2.164	1.833	1.841	1.745	1.733	1.930	1.986	1.719	2.268	2.055	2.191	2.130	2.517	2.139	2.157	2.318	2.282	2.073	2.476	2.020	2.316	2.587	2.104	2.374	2.313	1.751
380.0	105.6	129.8	194.5	210.0	244.0	240.8	272.9	257.7	286.7	314.7	348.6	357.6	360.4	377.9	367.9	343.1	316.0	293.0	281.9	266.9	251.3	230.2	234.9	313.4	259.3	141.3	101.5	89.92	129.3	317.3	793.6	 4709	9999.9	 4216	72.74	5.941	5.350	4.076	2.876	2.930	2.591	2.369	1.934	1.504	2.119	2.073	2.025	2.081	1.773	1.678	1.911	2.122	1.824	2.066	1.958	1.963	1.963	2.002	1.913	2.290	2.084	2.067	2.178	2.138	2.348	2.102	2.207	2.369	1.830	2.269	2.149	2.241	2.081	2.133	2.105	2.004	1.944
385.0	93.26	147.5	180.8	208.7	235.5	252.3	277.4	271.2	285.8	307.3	339.7	357.8	362.1	372.0	368.5	340.5	315.8	303.9	293.7	275.4	266.1	240.9	227.6	258.3	315.7	207.0	118.7	93.86	86.56	115.3	211.5	 1157	 6309	9999.9	 1108	25.89	6.002	4.380	3.594	3.049	2.912	2.730	2.053	1.919	2.076	2.237	1.867	1.945	1.618	1.561	1.631	1.830	1.940	2.103	2.085	2.208	2.059	2.339	2.187	2.167	2.340	1.614	2.213	2.310	2.057	2.078	2.179	2.244	2.034	2.067	2.309	2.011	1.677	1.988	2.045	2.235	2.153
390.0	97.95	150.2	183.6	212.7	239.9	261.2	284.6	289.6	299.3	315.9	336.1	347.6	369.7	369.5	359.3	339.2	312.7	305.8	300.0	293.5	273.3	261.5	240.1	230.2	258.4	284.5	187.8	116.4	91.54	85.21	89.88	289.6	 1579	 5508	 8034	 3140	66.33	6.201	4.660	3.583	3.053	2.538	2.364	2.365	1.871	2.009	1.785	2.089	1.673	1.659	1.570	1.988	1.725	1.978	1.859	2.110	2.035	2.414	2.192	2.069	2.323	2.114	2.137	2.268	1.874	2.475	1.984	2.206	2.057	2.216	2.484	2.312	2.045	2.055	2.052	2.047	2.042
395.0	95.35	127.7	175.4	231.8	257.1	265.4	285.8	289.8	313.0	330.8	334.0	345.1	364.6	350.7	352.6	340.5	315.0	313.1	302.7	296.1	284.8	267.2	248.8	231.3	224.9	250.9	274.7	176.6	113.2	91.49	76.25	106.1	379.4	 1257	 3425	 8836	 4368	85.79	6.580	4.517	3.533	3.120	2.708	2.173	2.073	2.165	2.019	2.228	1.885	1.879	1.689	2.034	1.881	1.986	1.869	2.252	2.165	1.979	2.669	1.831	2.299	2.453	2.023	2.226	1.713	2.338	2.008	1.714	2.411	2.006	2.165	2.092	1.938	2.065	1.787	2.188	2.271
400.0	115.6	142.8	172.8	246.6	264.5	283.0	297.6	302.2	313.3	329.0	330.3	337.2	352.1	340.8	360.9	331.6	331.5	312.9	302.1	304.6	294.7	274.4	254.9	245.0	222.2	221.8	268.4	242.5	142.9	104.4	80.86	71.33	118.7	306.6	820.0	 4602	 9026	 1065	49.41	5.619	4.121	3.670	2.700	2.422	2.507	2.110	1.842	2.069	2.467	1.890	1.890	2.043	1.965	1.921	2.032	2.241	2.236	2.575	2.126	1.901	2.420	2.218	2.019	2.358	2.105	2.053	1.911	2.088	1.935	2.329	2.309	2.102	1.916	2.207	1.991	2.355	2.347
