Sample:	'1
File name:	Default_20230215_172852.FD3
Run date:	'17:22:31, 02/15/2023
Operator:	dsjg
Comment:	'

Instrument
Model:	F-2700 FL Spectrophotometer
Serial number:	2198-001
ROM Version:	4J14000 07

Instrument parameters
Measurement type:	3-D scan
Data mode:	Fluorescence
EX  Start WL:	220.0 nm
EX  End WL:	600.0 nm
EX Sampling interval:	5.0 nm
EM  Start WL:	230.0 nm
EM  End WL:	650.0 nm
EM Sampling interval:	5.0 nm
Scan speed:	12000 nm/min
EX Slit:	5.0 nm
EM Slit:	5.0 nm
PMT Voltage:	700 V
Response:	Auto 
Corrected spectra:	Off
Contour interval:	50.000

Peak integration
Integration method:	Rectangular
Sensitivity:	1
Threshold:	1.000

Peaks
No.	ApexEX/EM(nm)	Height(Data)
1	225.0/325.0	 2326
2	225.0/495.0	76.76
3	225.0/640.0	83.82
4	230.0/505.0	69.19
5	235.0/260.0	155.8
6	235.0/515.0	53.69
7	240.0/265.0	177.5
8	240.0/530.0	46.43
9	245.0/270.0	158.9
10	245.0/540.0	40.01
11	250.0/275.0	183.7
12	250.0/550.0	33.37
13	255.0/280.0	191.8
14	255.0/565.0	30.09
15	260.0/575.0	23.20
16	265.0/585.0	24.29
17	285.0/325.0	 3217
18	285.0/635.0	125.9
19	335.0/380.0	117.5
20	340.0/385.0	88.86
21	350.0/400.0	65.77
22	355.0/405.0	62.13
23	360.0/410.0	47.87
24	365.0/420.0	47.15
25	370.0/425.0	46.80
26	375.0/430.0	35.73
27	380.0/435.0	33.93
28	385.0/445.0	31.69
29	390.0/450.0	24.53
30	395.0/325.0	5.839
31	395.0/455.0	22.35
32	400.0/465.0	20.56
33	405.0/470.0	15.62
34	410.0/475.0	13.81
35	415.0/485.0	12.69
36	420.0/490.0	9.975
37	425.0/495.0	9.063
38	430.0/505.0	8.169
39	435.0/510.0	6.613
40	440.0/515.0	5.808
41	445.0/525.0	5.259
42	450.0/530.0	4.202
43	455.0/325.0	6.878
44	455.0/540.0	3.893
45	460.0/545.0	3.281
46	470.0/560.0	2.309
47	475.0/565.0	1.816
48	580.0/325.0	17.83

Data points
	220.0	225.0	230.0	235.0	240.0	245.0	250.0	255.0	260.0	265.0	270.0	275.0	280.0	285.0	290.0	295.0	300.0	305.0	310.0	315.0	320.0	325.0	330.0	335.0	340.0	345.0	350.0	355.0	360.0	365.0	370.0	375.0	380.0	385.0	390.0	395.0	400.0	405.0	410.0	415.0	420.0	425.0	430.0	435.0	440.0	445.0	450.0	455.0	460.0	465.0	470.0	475.0	480.0	485.0	490.0	495.0	500.0	505.0	510.0	515.0	520.0	525.0	530.0	535.0	540.0	545.0	550.0	555.0	560.0	565.0	570.0	575.0	580.0	585.0	590.0	595.0	600.0
230.0	51.70	716.6	 1026	191.2	4.119	0.806	0.618	0.691	0.245	0.530	0.560	0.669	0.764	0.695	0.815	0.641	0.419	0.220	0.181	0.155	0.114	0.087	0.068	0.070	0.096	0.052	0.037	0.038	0.046	0.038	0.058	0.033	0.040	0.038	0.042	0.146	0.175	0.173	0.154	0.132	0.237	0.478	0.521	0.262	0.129	0.105	0.477	2.190	4.273	3.331	1.247	0.198	0.051	0.032	0.033	0.010	0.039	0.013	0.004	0.010	0.007	-0.015	-0.022	-0.003	-0.015	-0.009	-0.008	-0.004	-0.033	-0.009	-0.017	-0.015	-0.016	-0.028	-0.025	-0.029	-0.020
235.0	56.20	213.4	771.6	910.9	214.2	4.507	1.006	0.716	0.590	0.593	0.599	0.775	0.737	0.688	0.861	0.642	0.416	0.253	0.111	0.220	0.171	0.150	0.050	0.108	0.097	0.042	0.070	0.040	0.079	0.052	0.032	0.024	0.008	0.038	0.022	0.062	0.162	0.170	0.179	0.141	0.126	0.203	0.397	0.454	0.470	0.213	0.225	0.588	1.434	2.332	3.330	3.666	1.725	0.350	0.037	0.035	0.046	0.036	-0.005	-0.004	0.015	-0.015	0.004	-0.014	-0.005	0.021	0.005	-0.013	-0.045	-0.020	-0.036	-0.028	0.009	-0.010	-0.023	-0.032	-0.020
240.0	116.9	79.49	269.9	894.6	822.1	126.7	2.163	0.856	0.715	0.948	0.656	0.604	1.001	1.129	0.885	0.602	0.480	0.383	0.212	0.216	0.226	0.179	0.054	0.079	0.080	0.046	0.072	0.059	0.041	0.075	0.071	0.010	0.050	0.010	0.036	0.022	0.101	0.132	0.145	0.133	0.097	0.152	0.174	0.242	0.536	0.595	0.372	0.252	0.392	0.694	1.506	3.735	4.634	3.259	1.174	0.164	0.027	0.050	-0.004	0.008	0.013	-0.012	0.014	-0.006	0.003	0.033	-0.022	-0.018	-0.024	0.002	-0.044	-0.010	-0.011	0.012	-0.034	-0.025	0.031
245.0	109.8	117.1	81.84	364.3	 1017	412.3	72.94	1.344	0.770	0.757	0.626	0.701	0.908	0.888	0.830	0.724	0.572	0.330	0.231	0.183	0.161	0.092	0.083	0.041	0.105	0.087	0.070	0.051	0.028	0.037	0.075	0.006	0.045	0.026	0.016	0.060	0.068	0.119	0.150	0.111	0.182	0.118	0.159	0.133	0.276	0.494	0.647	0.530	0.284	0.242	0.414	1.159	2.812	4.764	4.715	2.531	0.527	0.064	0.022	-0.004	-0.005	-0.005	-0.003	-0.008	0.024	-0.018	-0.030	-0.003	-0.007	0.010	-0.018	-0.007	-0.032	-0.001	-0.003	-0.008	0.011
250.0	37.68	116.0	123.2	115.5	383.7	762.0	643.5	142.3	8.479	1.176	1.196	1.067	1.147	0.959	0.928	0.751	0.534	0.341	0.239	0.176	0.148	0.114	0.110	0.055	0.081	0.069	0.048	0.010	0.095	0.096	0.031	0.024	0.056	0.029	0.023	0.017	0.031	0.045	0.059	0.116	0.168	0.120	0.146	0.091	0.132	0.198	0.314	0.468	0.562	0.521	0.356	0.372	0.723	1.510	2.516	3.563	4.105	3.443	1.945	0.575	0.042	0.022	0.027	0.001	0.036	-0.023	-0.009	0.010	-0.021	-0.012	-0.001	-0.016	-0.020	-0.020	-0.032	-0.019	-0.016
255.0	8.787	38.23	123.5	147.7	117.2	223.0	666.8	976.1	192.4	7.821	1.662	2.049	1.221	1.234	1.084	0.873	0.609	0.468	0.327	0.188	0.124	0.165	0.138	0.123	0.098	0.073	0.077	0.076	0.068	0.081	0.050	0.015	0.043	0.039	0.026	0.006	0.023	0.013	0.047	0.077	0.144	0.154	0.124	0.118	0.102	0.104	0.133	0.156	0.253	0.408	0.689	0.717	0.410	0.383	0.628	0.878	1.581	3.241	5.318	5.445	2.697	0.542	0.029	0.030	-0.003	-0.015	0.009	0.025	0.013	-0.022	0.000	-0.015	-0.014	-0.003	0.001	0.008	-0.016
260.0	3.974	11.02	57.37	155.8	127.2	65.66	236.2	891.9	941.9	147.9	3.600	1.774	1.411	1.098	1.437	0.779	0.778	0.529	0.309	0.189	0.131	0.155	0.144	0.079	0.082	0.072	0.080	0.045	0.050	0.060	0.035	0.045	0.037	0.042	0.056	0.069	0.045	0.045	0.038	0.020	0.106	0.159	0.226	0.106	0.141	0.090	0.070	0.115	0.117	0.215	0.366	0.833	0.801	0.523	0.326	0.274	0.444	0.981	2.325	4.917	6.281	4.884	1.663	0.270	0.033	-0.001	0.023	-0.004	-0.006	0.009	-0.009	0.003	-0.007	0.041	-0.009	0.015	-0.014
265.0	3.382	4.865	17.10	88.82	177.5	83.12	65.67	346.3	 1049	863.1	105.9	2.656	1.843	1.873	1.481	1.049	0.753	0.496	0.276	0.253	0.183	0.203	0.126	0.061	0.113	0.055	0.094	0.047	0.064	-0.005	0.069	0.072	0.045	0.060	0.020	0.054	0.041	0.054	0.025	0.024	0.044	0.118	0.198	0.131	0.135	0.092	0.143	0.102	0.095	0.144	0.143	0.378	0.734	0.980	0.792	0.343	0.209	0.269	0.594	1.594	3.471	6.191	6.868	3.831	0.912	0.073	0.000	0.033	0.025	0.005	0.009	-0.020	0.046	0.023	-0.016	0.000	-0.022
270.0	4.926	4.491	5.997	26.61	97.42	158.9	98.05	94.17	363.0	843.8	927.7	349.9	21.49	2.202	1.666	1.237	0.863	0.461	0.367	0.299	0.217	0.201	0.140	0.134	0.141	0.085	0.086	0.047	0.099	0.039	0.081	0.118	0.057	0.111	0.069	0.062	0.057	0.048	0.038	0.029	0.055	0.052	0.091	0.145	0.157	0.127	0.152	0.116	0.080	0.103	0.092	0.143	0.235	0.494	0.731	0.888	0.806	0.441	0.251	0.441	0.859	1.904	3.373	4.949	5.540	4.801	2.587	0.763	0.056	-0.002	0.022	-0.012	0.000	0.011	-0.018	-0.014	-0.002
275.0	7.622	7.013	6.055	7.757	25.39	84.56	183.7	114.8	94.37	229.4	666.1	 1143	466.9	16.06	2.317	1.620	1.198	0.585	0.465	0.277	0.293	0.176	0.146	0.196	0.149	0.099	0.048	0.127	0.107	0.065	0.108	0.048	0.055	0.066	0.094	0.146	0.081	0.079	0.054	0.055	0.064	0.062	0.081	0.143	0.127	0.153	0.160	0.103	0.105	0.109	0.119	0.107	0.101	0.162	0.217	0.345	0.730	1.172	0.983	0.429	0.327	0.467	0.852	1.206	1.850	3.997	6.372	6.684	3.333	0.624	-0.004	0.012	-0.005	0.011	0.006	0.007	-0.026
280.0	17.62	13.74	7.104	4.535	8.327	29.58	131.6	191.8	84.66	70.32	218.4	826.9	 1111	115.8	6.898	1.944	1.185	0.796	0.557	0.284	0.253	0.210	0.204	0.180	0.190	0.106	0.091	0.115	0.099	0.112	0.120	0.106	0.086	0.107	0.199	0.179	0.152	0.154	0.107	0.088	0.087	0.097	0.099	0.125	0.088	0.227	0.165	0.118	0.150	0.100	0.104	0.078	0.100	0.056	0.129	0.127	0.279	0.669	1.098	1.184	0.653	0.225	0.305	0.408	0.525	1.081	2.584	5.406	7.440	5.878	1.872	0.169	0.046	0.048	0.036	0.013	-0.024
285.0	30.20	22.91	12.81	6.263	7.591	12.94	56.25	178.1	182.4	64.90	80.45	299.4	908.9	891.9	85.86	3.481	1.464	1.017	0.568	0.428	0.392	0.163	0.185	0.212	0.155	0.114	0.106	0.113	0.111	0.053	0.128	0.079	0.135	0.150	0.218	0.213	0.177	0.201	0.129	0.142	0.167	0.098	0.150	0.182	0.136	0.181	0.179	0.165	0.179	0.147	0.084	0.101	0.097	0.105	0.084	0.102	0.116	0.232	0.574	0.983	1.222	1.069	0.348	0.228	0.254	0.392	0.735	1.664	3.669	6.483	6.886	4.068	0.936	0.026	0.033	0.003	-0.027
290.0	51.78	44.53	25.07	12.02	9.706	12.38	27.80	82.23	182.9	194.9	107.3	121.1	315.8	684.9	784.4	321.3	20.58	2.269	0.890	0.620	0.402	0.234	0.321	0.164	0.141	0.177	0.117	0.091	0.107	0.105	0.137	0.093	0.151	0.200	0.289	0.313	0.334	0.292	0.246	0.204	0.212	0.202	0.168	0.211	0.164	0.206	0.250	0.281	0.231	0.197	0.128	0.127	0.101	0.124	0.116	0.099	0.124	0.147	0.261	0.409	0.705	1.139	1.228	0.993	0.603	0.367	0.418	0.667	1.080	1.990	3.281	4.722	5.496	4.575	2.624	0.618	0.045
295.0	125.8	122.5	76.09	35.83	21.82	20.60	27.37	48.88	107.8	236.7	296.3	164.6	185.7	285.3	549.3	 1045	470.0	27.11	3.254	1.067	0.528	0.427	0.428	0.254	0.278	0.297	0.156	0.109	0.128	0.107	0.039	0.088	0.179	0.341	0.568	0.503	0.494	0.406	0.315	0.331	0.262	0.309	0.297	0.314	0.341	0.419	0.450	0.463	0.408	0.398	0.251	0.230	0.152	0.132	0.162	0.146	0.200	0.206	0.258	0.296	0.384	0.525	0.868	1.377	1.657	1.433	0.904	0.879	0.910	1.142	1.412	1.742	2.450	3.971	7.033	7.145	3.439
300.0	335.9	329.4	207.8	96.77	46.08	40.05	39.96	67.14	112.1	240.8	462.2	476.4	409.0	431.8	478.9	875.4	 1211	353.6	13.93	2.206	0.939	0.610	0.451	0.395	0.326	0.319	0.138	0.231	0.192	0.141	0.104	0.180	0.354	0.666	0.966	1.122	0.953	0.735	0.528	0.574	0.515	0.593	0.580	0.617	0.791	0.855	0.959	1.121	0.978	0.751	0.547	0.516	0.355	0.282	0.237	0.209	0.205	0.258	0.310	0.375	0.451	0.632	0.920	1.245	1.962	2.650	2.582	2.094	2.004	2.270	2.191	2.290	2.396	2.794	4.323	6.981	8.889
305.0	674.0	703.0	445.2	206.9	95.16	69.32	73.21	107.2	180.2	334.4	641.0	927.5	922.4	891.9	803.6	799.3	 1116	 1139	63.20	5.550	1.479	0.837	0.679	0.655	0.458	0.445	0.295	0.257	0.277	0.219	0.145	0.280	0.529	1.098	1.783	1.935	1.708	1.331	0.987	0.963	0.889	1.028	1.181	1.320	1.524	1.915	2.006	2.197	2.070	1.544	1.116	0.907	0.576	0.405	0.433	0.354	0.335	0.348	0.520	0.576	0.720	1.012	1.335	1.677	2.296	3.343	4.438	4.655	4.477	4.814	4.785	4.856	4.677	4.550	4.226	4.466	6.428
310.0	 1263	 1330	850.3	388.6	175.8	122.0	128.9	185.0	307.9	555.9	 1009	 1476	 1820	 1847	 1631	 1290	928.8	883.0	894.3	244.3	15.90	1.562	1.040	0.824	0.552	0.463	0.392	0.330	0.339	0.313	0.193	0.319	0.898	1.951	3.207	3.680	3.227	2.437	1.719	1.595	1.635	1.770	2.204	2.284	2.861	3.385	3.764	4.187	3.710	2.782	1.839	1.568	1.027	0.732	0.636	0.565	0.551	0.656	0.753	0.982	1.380	1.812	2.310	2.947	3.979	5.043	6.238	7.667	8.777	9.768	9.654	9.512	9.194	8.530	7.652	6.338	5.589
315.0	 1820	 1955	 1220	547.1	246.1	177.3	172.0	259.9	438.1	787.3	 1398	 1987	 2490	 2778	 2436	 1836	 1088	513.3	505.4	986.6	368.6	15.00	1.630	1.087	0.866	0.678	0.586	0.448	0.435	0.366	0.288	0.459	1.233	2.694	4.615	5.019	4.351	3.501	2.363	2.380	2.345	2.419	2.876	3.361	4.253	5.078	5.186	5.817	5.496	3.878	2.509	2.069	1.391	1.046	0.834	0.721	0.872	0.872	1.146	1.383	1.784	2.457	3.341	4.237	5.667	7.053	8.399	10.14	11.14	13.31	14.15	14.52	13.68	12.51	11.50	9.087	6.769
320.0	 2091	 2220	 1383	629.4	280.8	200.3	200.7	295.5	499.7	893.4	 1595	 2237	 2795	 3148	 2896	 2160	 1238	481.6	244.1	590.7	 1044	269.9	6.578	1.401	1.077	0.831	0.576	0.476	0.472	0.435	0.362	0.481	1.302	3.138	5.038	5.771	5.106	3.770	2.697	2.633	2.622	2.943	3.055	3.769	4.603	5.840	5.979	6.549	5.955	4.441	2.950	2.276	1.619	1.263	1.008	0.798	0.970	0.991	1.243	1.559	2.006	2.753	3.680	4.919	6.440	7.792	9.343	11.37	12.51	14.55	15.74	16.64	16.84	15.15	13.03	10.42	7.897
325.0	 2178	 2326	 1442	673.7	296.5	209.6	208.2	311.0	522.1	937.1	 1666	 2342	 2898	 3217	 3062	 2365	 1342	531.5	211.2	235.2	730.8	976.2	47.74	2.813	1.373	0.922	0.580	0.639	0.501	0.392	0.427	0.546	1.420	3.382	5.390	5.839	5.172	4.042	3.074	2.672	2.582	2.931	3.275	3.886	4.716	5.845	6.372	6.878	6.029	4.564	3.090	2.320	1.773	1.208	1.133	0.803	0.935	1.077	1.282	1.626	2.148	2.881	3.958	5.190	6.523	8.122	9.848	11.89	13.53	15.36	16.14	16.79	17.83	16.36	14.05	11.43	8.543
330.0	 2103	 2275	 1401	649.6	296.0	219.2	221.2	304.6	511.5	901.1	 1606	 2268	 2807	 3101	 2926	 2395	 1456	619.2	277.1	174.0	256.5	621.6	801.4	197.4	13.17	1.330	0.801	0.719	0.569	0.485	0.466	0.584	1.450	3.284	5.173	5.576	5.083	3.978	3.195	2.678	2.501	2.856	3.267	3.808	4.691	5.699	6.066	6.473	6.140	4.412	3.041	2.388	1.726	1.158	1.024	0.955	1.031	1.042	1.333	1.609	2.155	2.840	3.899	4.810	6.319	7.980	9.674	11.53	13.24	14.71	15.85	16.50	16.72	15.64	14.28	12.12	9.306
335.0	 1924	 2084	 1309	628.4	306.4	229.7	232.1	307.6	478.7	823.0	 1446	 2058	 2557	 2837	 2673	 2190	 1495	752.6	369.2	217.7	152.5	191.2	400.7	948.8	309.1	14.10	1.106	0.933	0.648	0.465	0.473	0.491	1.419	2.941	4.475	5.042	4.706	3.953	3.035	2.828	2.432	2.658	2.971	3.649	4.299	5.395	5.478	6.043	5.691	4.104	2.973	2.195	1.627	1.202	1.008	0.983	1.044	1.162	1.457	1.588	2.015	2.618	3.631	4.266	5.674	6.982	8.838	10.39	11.80	13.38	14.36	15.14	15.13	14.09	12.85	11.35	10.05
340.0	 1759	 1898	 1238	626.5	338.9	253.0	245.4	322.3	452.6	745.0	 1303	 1856	 2312	 2585	 2439	 2005	 1392	846.1	459.6	266.6	158.4	111.6	140.8	556.0	 1012	234.6	4.513	1.062	0.750	0.559	0.492	0.577	1.193	2.697	3.796	4.586	4.453	3.722	2.852	2.581	2.454	2.543	2.869	3.393	4.053	4.896	5.027	5.636	5.150	3.884	2.837	2.334	1.702	1.333	1.163	1.057	1.174	1.276	1.486	1.755	1.987	2.523	3.188	4.002	5.285	6.551	7.929	9.324	10.75	12.50	13.10	13.98	13.62	12.89	11.92	10.61	9.091
345.0	 1576	 1718	 1128	606.5	345.0	269.8	256.4	321.8	418.5	676.5	 1162	 1625	 2047	 2295	 2194	 1805	 1261	831.5	559.1	314.4	179.7	109.5	81.51	185.2	739.4	907.8	40.09	1.897	1.024	0.670	0.596	0.607	1.020	2.445	3.779	4.231	3.893	3.432	2.799	2.467	2.379	2.368	2.727	3.094	3.538	4.275	4.439	5.029	4.566	3.546	2.591	2.281	1.649	1.341	1.167	1.118	1.142	1.200	1.524	1.856	1.929	2.214	2.710	3.584	4.544	5.787	6.969	8.164	9.595	10.91	11.64	12.55	12.13	11.71	10.79	9.813	8.338
350.0	 1311	 1432	970.6	540.3	322.3	252.8	242.5	288.9	353.7	543.8	938.6	 1312	 1660	 1876	 1809	 1520	 1085	732.5	568.2	396.8	212.6	121.7	76.04	76.80	216.5	595.5	735.3	173.6	10.51	0.929	0.663	0.685	1.048	2.041	2.986	3.459	3.409	2.960	2.566	2.284	2.153	2.089	2.290	2.486	2.974	3.564	3.727	4.180	3.968	3.118	2.263	2.067	1.578	1.313	1.216	0.995	1.060	1.176	1.309	1.525	1.691	1.841	2.293	2.944	3.778	4.657	5.635	6.474	7.776	8.755	9.433	10.39	10.37	9.770	9.315	8.447	6.982
355.0	 1047	 1151	808.0	470.7	293.2	243.3	229.0	261.5	297.1	428.5	723.8	 1019	 1292	 1472	 1435	 1227	913.2	641.1	492.0	416.2	277.7	137.5	81.38	56.95	68.13	145.3	367.2	861.3	269.2	10.20	0.814	0.752	0.915	1.635	2.344	2.827	2.742	2.628	2.223	2.037	1.844	1.857	1.851	2.067	2.396	2.850	2.997	3.386	3.157	2.630	1.895	1.817	1.485	1.246	1.068	1.075	0.907	1.113	1.246	1.346	1.348	1.595	1.835	2.300	2.994	3.597	4.262	5.158	5.999	6.827	7.404	8.064	8.376	8.111	7.528	6.801	5.989
360.0	887.0	986.9	693.6	422.9	277.5	231.3	217.9	242.7	261.7	363.6	596.8	839.0	 1064	 1223	 1206	 1028	790.4	579.5	447.8	365.1	312.8	169.2	85.73	53.03	36.54	41.65	98.46	512.5	902.6	197.7	3.138	0.789	0.947	1.428	1.942	2.244	2.354	2.209	1.996	1.880	1.596	1.664	1.526	1.781	1.980	2.526	2.487	2.811	2.745	2.368	1.769	1.735	1.267	1.144	0.975	1.004	0.868	0.912	1.177	1.273	1.211	1.293	1.497	2.086	2.497	3.024	3.472	4.303	4.877	5.497	6.268	6.689	6.999	6.614	6.407	5.945	5.076
365.0	760.0	824.2	624.7	377.5	252.6	208.2	200.6	217.6	226.7	308.5	498.1	700.2	882.7	 1011	 1016	871.7	684.2	520.0	406.9	316.9	274.9	211.2	97.64	52.05	28.33	18.43	27.69	147.4	701.9	807.3	36.01	1.367	0.912	1.326	1.830	1.841	1.996	1.987	1.744	1.615	1.500	1.502	1.392	1.609	1.835	2.145	2.181	2.395	2.303	1.978	1.645	1.450	1.174	0.974	0.932	0.840	0.779	0.897	1.013	1.116	1.119	1.155	1.388	1.651	2.076	2.619	3.065	3.568	4.209	4.701	5.160	5.621	5.808	5.790	5.325	4.784	4.554
370.0	606.0	667.0	503.4	316.4	212.4	178.6	167.4	181.8	186.4	245.9	389.3	540.5	686.9	784.7	793.4	689.5	558.9	440.5	353.2	271.1	209.1	188.1	140.1	61.91	26.91	14.19	12.54	37.93	196.4	579.2	699.7	153.3	8.146	1.307	1.532	1.581	1.689	1.678	1.500	1.358	1.299	1.212	1.149	1.297	1.430	1.705	1.793	1.971	1.945	1.617	1.295	1.252	0.990	0.838	0.768	0.746	0.725	0.769	0.880	0.895	0.880	0.935	1.094	1.395	1.681	1.925	2.279	2.821	3.119	3.716	4.014	4.400	4.709	4.504	4.168	3.942	3.593
375.0	459.5	520.6	397.2	261.7	178.2	150.8	141.8	150.5	153.5	193.8	301.2	411.6	516.0	597.4	599.6	531.4	445.0	361.5	298.1	233.2	168.9	130.4	134.0	106.6	33.46	14.02	10.03	13.95	47.90	137.1	380.1	810.6	223.3	7.563	1.441	1.365	1.289	1.391	1.244	1.133	1.094	0.987	0.955	1.073	1.129	1.358	1.459	1.539	1.493	1.233	1.025	1.049	0.888	0.776	0.696	0.645	0.624	0.614	0.749	0.744	0.728	0.803	0.893	1.026	1.177	1.461	1.747	1.963	2.400	2.729	3.110	3.279	3.759	3.462	3.297	3.260	2.890
380.0	393.2	443.9	340.4	226.0	155.8	141.9	128.5	133.9	132.2	164.8	249.2	336.7	420.7	476.0	490.1	436.5	372.9	313.7	261.6	205.7	150.9	110.0	96.86	117.5	50.65	16.26	9.668	8.793	15.17	34.30	100.8	512.7	781.0	35.89	2.757	1.417	1.132	1.357	1.095	1.030	0.977	0.981	0.821	0.877	1.008	1.138	1.228	1.362	1.241	0.958	0.938	0.913	0.754	0.597	0.620	0.651	0.482	0.578	0.610	0.708	0.686	0.638	0.769	0.825	1.030	1.303	1.552	1.623	1.925	2.214	2.483	2.695	2.833	2.867	2.550	2.599	2.460
385.0	341.0	384.8	289.1	198.4	139.7	127.7	114.4	121.0	117.1	143.2	210.8	282.3	349.1	395.9	407.7	367.3	317.8	275.6	234.8	186.2	139.9	97.00	74.05	88.70	88.86	28.92	10.52	8.184	7.932	11.66	26.05	149.8	643.3	611.0	28.82	1.443	1.086	1.146	0.949	0.965	0.901	0.798	0.776	0.737	0.888	0.970	1.065	1.165	1.107	0.934	0.849	0.804	0.697	0.638	0.539	0.504	0.526	0.501	0.594	0.637	0.605	0.535	0.709	0.790	0.854	1.053	1.301	1.433	1.564	1.888	1.891	2.218	2.306	2.339	2.315	2.138	2.078
390.0	281.2	307.1	251.4	167.7	121.2	108.4	98.41	101.2	98.99	121.2	175.6	226.7	275.0	315.7	320.5	297.0	265.2	233.0	203.2	163.8	123.9	88.93	63.49	54.07	70.46	60.42	24.38	8.981	6.998	6.910	9.324	36.78	182.8	478.3	437.7	119.2	6.797	1.130	0.972	0.896	0.814	0.767	0.763	0.649	0.798	0.824	0.834	0.974	0.875	0.818	0.705	0.655	0.592	0.496	0.508	0.414	0.444	0.492	0.507	0.504	0.500	0.485	0.560	0.634	0.662	0.878	0.982	1.172	1.303	1.460	1.520	1.744	1.917	1.806	1.799	1.806	1.759
395.0	235.7	252.5	209.5	146.9	106.8	94.42	88.12	84.67	85.25	100.7	142.3	185.1	216.8	247.7	252.5	240.1	220.8	198.8	178.0	146.2	113.5	81.14	58.94	42.46	37.61	57.32	60.58	19.02	7.543	6.194	5.935	11.40	43.22	113.5	292.6	635.7	176.0	5.112	0.967	0.898	0.741	0.745	0.629	0.627	0.646	0.684	0.759	0.857	0.827	0.687	0.561	0.561	0.546	0.435	0.412	0.344	0.397	0.495	0.449	0.386	0.443	0.426	0.435	0.532	0.539	0.618	0.811	0.902	1.091	1.134	1.379	1.375	1.407	1.463	1.484	1.448	1.493
400.0	215.7	230.2	187.4	129.6	99.25	88.01	81.03	76.77	75.08	87.68	123.0	157.2	187.0	209.4	217.0	207.3	196.7	182.7	163.9	137.9	107.7	79.82	55.59	38.58	28.41	34.39	65.77	40.99	10.42	5.989	5.211	6.176	12.25	27.72	78.87	420.4	605.9	30.79	1.990	0.977	0.774	0.780	0.601	0.569	0.687	0.681	0.675	0.813	0.775	0.526	0.597	0.511	0.465	0.404	0.335	0.311	0.392	0.379	0.386	0.408	0.368	0.406	0.415	0.467	0.492	0.527	0.612	0.748	0.928	0.958	1.147	1.116	1.217	1.219	1.149	1.297	1.224
405.0	195.6	208.1	164.7	119.4	92.11	84.21	75.81	72.21	67.01	83.23	112.0	136.6	162.6	181.4	189.6	186.3	177.7	170.0	154.5	129.9	102.7	77.46	54.36	37.15	25.03	22.80	43.38	62.13	24.05	7.515	5.371	4.919	5.731	8.500	19.97	122.0	496.9	474.1	24.52	1.245	0.769	0.770	0.586	0.599	0.608	0.642	0.651	0.627	0.664	0.545	0.445	0.503	0.441	0.388	0.373	0.364	0.410	0.384	0.334	0.334	0.355	0.345	0.303	0.364	0.455	0.520	0.636	0.654	0.882	0.898	1.076	1.022	1.092	1.072	1.132	1.163	1.271
410.0	176.3	182.3	149.2	111.8	84.92	76.96	70.82	66.91	61.43	72.97	97.09	119.2	138.1	155.9	163.4	164.2	160.7	154.8	141.8	121.5	97.23	73.54	52.17	36.00	23.67	18.33	22.66	43.53	47.87	20.70	6.859	5.136	4.473	4.477	6.668	29.46	139.8	375.8	357.9	106.5	5.586	0.808	0.584	0.574	0.525	0.585	0.569	0.591	0.563	0.492	0.409	0.484	0.411	0.367	0.354	0.352	0.355	0.345	0.313	0.329	0.312	0.286	0.315	0.350	0.346	0.396	0.539	0.622	0.716	0.720	0.775	0.832	0.956	1.022	0.967	0.990	1.103
