Sample:	'1
File name:	T2025021212Œ‘¿«πµ50m¥Ûπµ 20±∂.FD3
Run date:	'11:05:49, 02/13/2025
Operator:	Administrator
Comment:	'

Instrument
Model:	F-2700 FL Spectrophotometer
Serial number:	23B8-004
ROM Version:	4J14000 07

Instrument parameters
Measurement type:	3-D scan
Data mode:	Fluorescence
EX  Start WL:	220.0 nm
EX  End WL:	600.0 nm
EX Sampling interval:	5.0 nm
EM  Start WL:	230.0 nm
EM  End WL:	650.0 nm
EM Sampling interval:	5.0 nm
Scan speed:	12000 nm/min
EX Slit:	5.0 nm
EM Slit:	5.0 nm
PMT Voltage:	700 V
Response:	Auto 
Corrected spectra:	Off
Contour interval:	50.000

Peak integration
Integration method:	Rectangular
Sensitivity:	1
Threshold:	1.000

Peaks
No.	ApexEX/EM(nm)	Height(Data)
1	225.0/335.0	5642
2	225.0/580.0	44.59
3	230.0/500.0	225.8
4	235.0/510.0	174.1
5	240.0/265.0	416.8
6	240.0/525.0	155.9
7	245.0/270.0	420.4
8	245.0/535.0	126.6
9	245.0/600.0	38.41
10	250.0/275.0	542.3
11	250.0/550.0	116.5
12	250.0/605.0	36.62
13	255.0/285.0	654.8
14	255.0/565.0	114.7
15	260.0/290.0	737.7
16	260.0/575.0	108.9
17	265.0/295.0	958.9
18	265.0/585.0	110.5
19	270.0/300.0	1292
20	270.0/600.0	107.3
21	275.0/305.0	1278
22	275.0/335.0	1823
23	275.0/610.0	88.36
24	280.0/625.0	68.71
25	285.0/320.0	1437
26	285.0/640.0	68.98
27	310.0/350.0	571.2
28	315.0/355.0	561.8
29	320.0/360.0	527.5
30	350.0/400.0	136.8
31	355.0/405.0	121.5
32	365.0/420.0	95.35
33	370.0/425.0	86.71
34	375.0/430.0	68.85
35	380.0/435.0	71.77
36	385.0/445.0	58.22
37	395.0/455.0	40.39
38	400.0/465.0	37.88
39	405.0/470.0	28.00
40	410.0/475.0	24.22
41	415.0/485.0	21.72
42	420.0/490.0	18.18
43	425.0/500.0	16.08
44	430.0/505.0	13.90
45	435.0/510.0	11.04
46	440.0/520.0	10.43
47	445.0/525.0	9.042
48	450.0/335.0	14.95
49	455.0/540.0	6.446
50	470.0/560.0	3.413
51	485.0/265.0	2.523
52	505.0/275.0	3.391
53	510.0/280.0	4.160
54	515.0/285.0	4.355
55	530.0/290.0	4.930
56	540.0/295.0	6.664
57	545.0/300.0	7.590
58	550.0/305.0	7.895
59	560.0/335.0	9.747
60	585.0/325.0	9.738

Data points
	220.0	225.0	230.0	235.0	240.0	245.0	250.0	255.0	260.0	265.0	270.0	275.0	280.0	285.0	290.0	295.0	300.0	305.0	310.0	315.0	320.0	325.0	330.0	335.0	340.0	345.0	350.0	355.0	360.0	365.0	370.0	375.0	380.0	385.0	390.0	395.0	400.0	405.0	410.0	415.0	420.0	425.0	430.0	435.0	440.0	445.0	450.0	455.0	460.0	465.0	470.0	475.0	480.0	485.0	490.0	495.0	500.0	505.0	510.0	515.0	520.0	525.0	530.0	535.0	540.0	545.0	550.0	555.0	560.0	565.0	570.0	575.0	580.0	585.0	590.0	595.0	600.0
230.0	93.19	2119	5204	1396	41.96	8.054	5.628	4.860	4.356	3.953	3.878	3.581	3.363	3.090	2.582	2.158	1.829	1.874	1.793	1.549	1.473	1.348	1.193	1.192	1.044	0.953	0.884	0.860	0.759	0.735	0.692	0.638	1.075	0.704	0.532	0.545	0.490	0.418	0.409	0.405	0.449	0.653	0.667	0.491	0.340	0.372	2.055	10.41	18.09	12.69	3.994	0.751	0.292	0.260	0.241	0.252	0.246	0.227	0.248	0.236	0.238	0.203	0.220	0.245	0.203	0.197	0.238	0.229	0.204	0.226	0.199	0.206	0.223	0.218	0.234	0.213	0.228
235.0	163.2	588.7	3081	4938	519.9	78.89	7.252	6.755	4.148	4.576	4.496	4.081	3.438	3.047	2.837	2.427	2.019	1.681	1.660	1.651	1.531	1.308	1.195	1.283	1.009	1.040	0.798	0.834	0.825	0.783	0.667	0.605	1.147	0.778	0.550	0.590	0.504	0.461	0.405	0.410	0.332	0.513	0.568	0.664	0.677	0.531	0.737	2.861	6.775	11.62	15.71	15.16	7.174	1.790	0.309	0.251	0.271	0.307	0.238	0.251	0.240	0.247	0.232	0.303	0.243	0.224	0.286	0.199	0.233	0.212	0.202	0.261	0.258	0.224	0.219	0.206	0.251
240.0	233.4	253.7	923.4	4292	3949	434.2	43.75	8.179	5.820	5.284	4.581	4.070	3.696	3.392	3.085	2.840	2.020	2.027	1.680	1.771	1.464	1.349	1.153	1.266	0.973	0.956	0.971	0.860	0.816	0.627	0.655	0.736	1.053	0.939	0.492	0.565	0.538	0.460	0.390	0.409	0.366	0.401	0.393	0.532	0.905	0.890	0.740	0.949	1.810	3.561	8.658	20.58	23.85	16.62	7.030	1.101	0.341	0.263	0.265	0.235	0.248	0.246	0.237	0.275	0.245	0.250	0.225	0.168	0.232	0.245	0.246	0.244	0.250	0.250	0.191	0.221	0.244
245.0	167.1	285.8	282.0	1481	4855	3412	338.8	17.42	7.985	6.428	4.362	5.225	4.394	3.950	3.327	2.603	2.464	1.912	1.909	1.816	1.446	1.328	1.293	1.229	1.139	0.867	0.957	0.941	0.889	0.676	0.694	0.662	1.174	0.844	0.519	0.527	0.612	0.383	0.422	0.412	0.366	0.423	0.358	0.374	0.528	1.025	1.153	0.947	0.786	1.042	2.267	7.037	17.45	28.54	26.29	16.49	5.085	0.502	0.286	0.277	0.262	0.272	0.299	0.252	0.248	0.272	0.228	0.165	0.227	0.250	0.242	0.248	0.201	0.261	0.221	0.218	0.287
250.0	72.92	198.4	312.1	434.8	1605	4812	4562	1239	77.89	9.851	7.176	6.296	5.501	4.231	3.696	2.985	2.490	2.274	2.059	2.026	1.469	1.534	1.365	1.370	1.325	1.083	0.993	0.878	0.922	0.730	0.738	0.649	1.158	0.782	0.548	0.522	0.477	0.454	0.424	0.463	0.428	0.470	0.362	0.374	0.423	0.564	0.756	1.096	1.201	1.036	0.996	1.941	4.499	9.727	18.37	28.25	32.19	32.29	13.90	5.835	0.665	0.296	0.322	0.291	0.285	0.273	0.279	0.276	0.255	0.276	0.283	0.255	0.238	0.320	0.251	0.246	0.274
255.0	39.85	69.09	221.3	397.7	449.8	1254	4259	8435	1759	79.69	12.22	8.443	6.953	5.233	4.391	3.201	2.845	2.445	2.371	2.121	1.830	1.737	1.638	1.326	1.311	1.254	1.067	1.024	0.978	0.840	0.831	0.799	1.289	0.952	0.574	0.526	0.477	0.533	0.402	0.446	0.498	0.453	0.404	0.406	0.351	0.480	0.468	0.486	0.731	1.206	1.604	1.698	1.438	2.500	4.406	7.049	13.49	32.97	57.74	59.99	21.70	6.289	0.479	0.387	0.310	0.319	0.317	0.322	0.342	0.308	0.284	0.289	0.297	0.299	0.255	0.235	0.239
260.0	38.06	40.44	92.15	342.7	358.0	339.8	1366	7464	8740	1366	42.37	12.36	8.301	6.367	5.194	3.767	3.327	2.919	2.370	2.276	1.971	1.593	1.675	1.403	1.338	1.371	1.056	1.059	1.034	0.855	0.835	0.798	1.294	0.937	0.573	0.564	0.549	0.507	0.391	0.457	0.427	0.531	0.517	0.430	0.434	0.449	0.396	0.354	0.462	0.652	1.140	2.100	1.850	1.434	1.368	1.977	3.466	9.297	26.53	58.09	77.67	29.81	17.42	3.083	0.441	0.368	0.350	0.365	0.327	0.309	0.310	0.339	0.277	0.275	0.260	0.318	0.310
265.0	42.29	32.50	40.25	164.4	416.8	264.5	354.2	2646	9340	9281	205.9	20.77	11.22	8.171	6.004	4.888	3.578	3.097	2.579	2.327	2.020	1.865	1.782	1.592	1.441	1.366	1.177	1.154	1.100	0.963	0.966	0.910	1.465	0.897	0.585	0.628	0.577	0.525	0.482	0.493	0.453	0.472	0.479	0.386	0.438	0.452	0.394	0.447	0.461	0.367	0.558	1.164	2.045	2.523	1.506	0.918	1.182	2.499	6.554	17.40	44.60	77.71	93.30	28.15	12.54	1.125	0.470	0.377	0.399	0.337	0.344	0.345	0.314	0.414	0.322	0.311	0.324
270.0	51.91	36.90	30.81	59.88	222.1	420.4	288.4	655.8	3058	9076	9999.9	3683	58.53	12.73	8.717	6.390	4.773	3.901	3.368	2.783	2.445	2.090	1.922	1.585	1.441	1.490	1.278	1.254	1.197	1.012	1.021	1.023	1.622	1.142	0.770	0.699	0.668	0.591	0.534	0.567	0.537	0.482	0.519	0.463	0.447	0.513	0.417	0.407	0.377	0.340	0.375	0.540	0.929	1.615	2.154	2.328	1.925	1.410	1.975	4.356	10.80	23.28	47.17	70.64	94.11	76.11	50.94	9.217	1.398	0.426	0.397	0.395	0.368	0.374	0.393	0.367	0.382
275.0	97.45	58.63	44.22	46.41	90.73	232.0	542.3	373.0	758.7	2335	7743	9999.9	1187	60.92	13.49	9.504	5.962	4.682	3.869	3.351	2.810	2.285	2.211	1.935	1.699	1.432	1.464	1.377	1.294	1.260	1.057	1.104	1.828	1.400	1.098	0.938	0.898	0.759	0.677	0.657	0.649	0.707	0.673	0.540	0.664	0.580	0.541	0.434	0.383	0.406	0.348	0.483	0.584	0.724	0.970	1.551	2.946	3.391	2.349	1.771	2.943	5.770	11.28	16.83	28.82	63.39	139.2	135.0	28.43	12.15	1.016	0.495	0.492	0.497	0.409	0.393	0.413
280.0	157.3	111.4	78.93	84.35	95.56	148.7	427.9	626.2	354.6	675.6	2384	9999.9	9999.9	909.0	29.57	12.26	7.947	6.026	4.652	3.877	3.145	2.786	2.393	2.122	1.903	1.702	1.543	1.402	1.453	1.296	1.146	1.054	1.923	1.582	1.402	1.188	1.174	0.907	0.836	0.963	0.766	0.780	0.782	0.657	0.814	0.745	0.645	0.607	0.539	0.556	0.476	0.551	0.678	0.731	0.773	1.024	1.666	3.083	4.160	3.456	1.981	2.221	3.464	4.795	7.456	16.57	50.58	107.7	147.2	122.5	23.86	5.786	0.664	0.600	0.497	0.478	0.442
285.0	233.4	172.6	146.9	131.1	145.3	170.5	265.9	654.8	578.3	362.7	785.5	3652	9999.9	8200	115.6	18.19	10.78	7.755	5.506	4.364	3.482	2.992	2.981	2.309	2.314	1.998	1.651	1.723	1.470	1.318	1.183	1.296	2.151	1.700	1.682	1.482	1.302	1.254	1.101	1.047	0.923	0.896	0.887	0.865	0.902	0.864	0.735	0.786	0.739	0.712	0.681	0.774	0.858	0.900	0.971	1.063	1.346	1.611	2.839	4.355	4.252	2.689	2.217	2.367	3.079	5.338	12.90	28.82	69.56	138.3	154.9	32.36	17.30	2.306	0.717	0.526	0.586
290.0	326.0	277.7	244.5	213.0	225.7	238.3	268.6	400.1	737.7	724.4	576.1	1172	3728	9999.9	9999.9	2220	32.67	10.84	7.847	5.838	4.417	3.546	3.053	2.643	2.278	2.195	1.847	1.691	1.598	1.443	1.306	1.392	2.318	1.859	1.812	1.842	1.626	1.455	1.380	1.331	1.246	1.125	1.132	1.100	1.024	1.040	1.045	1.047	1.049	1.061	0.930	1.173	1.159	1.230	1.348	1.292	1.496	1.530	1.920	2.511	3.464	4.522	4.930	3.970	3.168	3.355	4.856	8.423	17.80	37.08	67.06	90.05	123.6	109.2	70.59	11.58	2.252
295.0	423.5	391.8	350.3	305.3	316.3	337.4	342.8	363.4	512.5	958.9	951.3	736.2	1157	2633	9999.9	9999.9	656.9	29.76	10.34	7.727	5.509	4.273	3.658	3.067	2.772	2.488	2.211	1.750	1.660	1.462	1.369	1.468	2.653	2.014	2.171	1.880	1.886	1.688	1.721	1.399	1.377	1.279	1.274	1.231	1.238	1.180	1.242	1.447	1.251	1.239	1.229	1.397	1.580	1.658	1.703	1.823	1.935	1.869	1.992	2.029	2.398	3.069	4.194	6.249	6.664	4.996	3.687	4.199	6.262	10.22	16.60	21.47	33.13	73.14	149.6	160.7	32.88
300.0	486.3	467.7	434.1	384.5	395.8	431.5	424.6	414.2	504.6	784.6	1292	882.1	666.5	822.7	2976	9999.9	9999.9	495.5	18.10	10.10	7.056	5.428	4.185	3.481	3.033	2.672	2.245	1.998	1.780	1.761	1.600	1.576	2.557	2.188	2.138	2.175	2.038	1.826	1.835	1.537	1.500	1.580	1.475	1.400	1.397	1.544	1.527	1.700	1.639	1.530	1.534	1.745	1.906	1.961	2.188	2.186	2.585	2.371	2.470	2.307	2.491	2.771	3.528	4.372	6.292	7.590	6.086	4.584	4.430	4.801	5.565	6.406	8.676	18.28	46.76	106.0	157.3
305.0	540.9	526.5	493.2	448.0	448.7	485.3	500.5	484.3	550.0	696.2	1136	1278	674.4	472.3	836.1	3897	9999.9	4928	70.51	13.95	9.031	6.729	5.238	4.200	3.170	3.204	2.281	2.210	2.036	1.759	1.563	1.566	2.585	2.200	2.058	2.169	2.206	1.955	1.882	1.674	1.641	1.567	1.651	1.420	1.500	1.650	1.803	1.702	1.793	1.616	1.575	2.106	2.110	2.289	2.328	2.609	2.802	2.687	2.861	2.591	2.817	2.931	3.450	3.732	4.452	6.570	7.895	6.812	5.223	4.070	3.556	3.241	3.499	5.549	11.59	26.67	62.67
310.0	685.8	660.2	535.9	450.2	455.7	505.5	522.1	507.3	566.6	681.2	864.2	1151	1028	517.9	394.2	1015	3830	9999.9	9864	1481	25.31	9.356	6.714	5.091	3.911	3.550	2.817	2.569	2.202	1.943	1.705	1.795	2.792	2.330	2.051	2.185	2.095	2.193	1.847	1.812	1.835	1.635	1.634	1.740	1.873	2.162	2.107	2.023	1.789	1.765	1.684	1.960	2.142	2.246	2.372	2.644	2.844	2.665	2.723	2.704	2.877	3.210	3.452	3.683	4.022	4.800	5.529	6.268	6.715	6.237	4.624	3.167	2.611	3.080	4.027	7.182	15.14
315.0	1623	1428	870.5	520.9	474.4	527.4	566.8	581.7	678.4	829.6	988.4	1106	1206	1021	523.9	471.0	995.9	2517	9735	9999.9	470.0	25.60	9.281	6.841	5.112	4.223	3.285	2.905	2.523	2.286	2.085	1.940	3.188	2.709	2.131	2.089	2.147	2.183	2.063	2.043	2.036	2.210	2.497	3.197	3.758	4.407	4.317	3.762	2.692	2.129	1.863	2.167	2.311	2.357	2.327	2.799	3.217	2.876	3.187	3.171	3.431	3.855	4.027	4.382	4.999	5.024	5.505	5.737	5.897	6.646	7.381	6.703	4.628	3.841	3.196	3.620	4.971
320.0	3259	3293	1595	679.3	530.3	559.2	623.3	705.8	869.7	1095	1299	1433	1397	1437	945.9	549.9	491.9	745.2	2818	9999.9	9999.9	377.1	17.42	8.881	6.718	4.538	3.810	3.043	2.945	2.671	2.268	1.930	3.970	2.560	2.076	2.197	2.247	2.253	2.329	2.456	3.020	3.134	4.212	5.721	7.435	9.209	8.801	7.728	4.808	3.110	2.260	2.615	2.470	2.528	2.540	2.805	3.297	3.325	3.526	4.076	4.173	4.608	5.211	5.689	6.248	6.741	7.039	7.394	7.419	7.444	7.820	8.546	8.519	7.729	5.182	4.419	3.649
325.0	4320	4416	2123	831.8	574.1	572.5	650.5	786.5	974.4	1244	1481	1632	1570	1429	1322	725.9	424.4	391.7	790.8	3565	9999.9	3694	57.36	12.87	8.458	5.610	4.561	3.657	3.010	2.602	2.444	2.156	4.208	3.144	2.368	2.285	2.499	2.427	2.666	3.017	3.470	3.893	5.266	7.014	9.539	12.11	11.53	10.31	6.218	3.799	2.734	2.817	2.691	2.575	2.634	2.892	3.326	3.416	3.801	4.517	4.844	5.098	6.008	6.528	7.253	7.533	7.699	8.408	8.422	8.380	7.923	8.285	8.564	9.738	7.628	5.513	3.614
330.0	4871	4932	2437	1023	641.5	576.0	659.1	807.6	1030	1302	1549	1685	1614	1373	1208	917.1	518.3	347.1	379.5	982.0	3572	9007	7898	1253	22.39	8.129	5.641	4.415	3.547	3.039	2.781	2.574	4.785	3.111	2.308	2.421	2.433	2.665	2.683	3.116	3.569	4.520	5.961	8.142	10.58	13.24	12.93	11.23	7.007	4.533	3.251	3.167	3.015	2.861	2.652	2.838	3.357	3.406	3.900	4.421	5.017	5.524	6.272	6.952	7.655	7.793	8.180	8.813	8.774	8.771	7.841	8.002	7.616	8.218	7.601	6.732	5.545
335.0	5520	5642	2969	1368	817.6	628.6	683.1	841.9	1102	1390	1670	1823	1749	1485	1210	895.4	761.3	472.0	354.2	464.1	1007	2315	7975	9999.9	394.1	23.57	8.048	6.026	4.095	3.751	3.315	2.813	5.403	3.398	2.498	2.492	2.566	2.730	2.834	3.429	4.063	4.891	6.674	8.920	12.08	14.83	14.95	13.25	8.674	5.581	4.213	4.261	3.646	2.995	2.943	2.857	3.572	3.527	4.174	4.353	5.044	5.710	6.458	7.300	8.047	8.514	8.986	9.299	9.747	9.456	8.488	8.720	7.996	8.547	7.026	6.074	5.676
340.0	5391	5546	3157	1537	925.4	645.8	672.6	826.4	1071	1358	1623	1752	1689	1432	1161	799.2	712.2	617.3	392.2	368.6	462.4	699.9	2324	9999.9	9072	339.7	15.08	7.145	5.479	4.440	3.454	3.142	6.011	3.906	2.470	2.587	2.513	2.496	2.799	3.332	4.143	4.722	6.798	8.835	11.72	14.41	14.17	13.03	9.246	6.049	4.560	4.930	4.180	3.319	2.860	2.854	3.424	3.538	3.976	4.451	4.758	5.772	6.378	6.772	7.395	8.551	8.715	8.673	9.393	9.297	8.520	8.342	7.729	8.062	6.985	5.174	4.827
345.0	4786	5034	3068	1638	963.1	659.5	645.1	763.7	993.9	1252	1478	1600	1545	1313	1060	729.4	574.1	651.3	494.5	374.7	364.4	371.3	669.7	3288	9999.9	3148	50.84	9.466	6.182	4.719	3.507	3.239	6.636	3.635	2.498	2.323	2.494	2.557	2.653	3.129	3.584	4.321	6.130	7.929	10.57	12.83	12.58	12.41	8.915	5.846	5.253	5.045	4.189	3.428	3.014	2.861	3.125	3.299	3.709	3.810	4.461	5.390	5.950	6.248	7.185	7.810	8.249	7.828	8.491	8.453	8.092	7.440	6.988	7.556	6.384	4.871	4.144
350.0	4148	4383	2843	1649	991.2	654.9	609.9	708.7	889.2	1119	1316	1417	1371	1175	957.2	669.9	508.1	521.2	571.2	480.4	374.8	325.5	324.3	839.7	3249	7132	6095	1110	19.63	6.233	4.479	3.614	7.817	4.043	2.394	2.413	2.483	2.449	2.407	2.815	3.328	4.078	5.412	7.035	9.154	11.31	11.01	10.93	8.354	6.037	5.269	5.097	4.310	3.356	2.871	2.840	2.898	3.186	3.495	3.629	4.259	4.893	5.297	5.738	6.389	6.851	7.060	7.138	7.655	7.575	7.083	6.633	6.372	6.826	5.765	4.600	4.018
355.0	3379	3697	2549	1583	965.5	635.1	565.1	625.4	774.9	981.3	1136	1222	1189	1032	843.7	616.6	479.9	455.7	477.5	561.8	450.1	331.2	261.0	304.6	788.1	1726	5533	8477	371.4	23.17	5.798	4.204	9.590	4.366	2.462	2.224	2.195	2.321	2.508	2.693	2.808	3.498	4.320	5.507	7.793	9.187	9.066	9.774	7.807	5.984	4.972	5.074	4.209	3.307	3.006	2.800	2.531	2.816	3.036	3.329	3.540	4.295	4.648	5.200	5.374	5.875	6.153	6.490	6.494	6.479	5.869	6.063	5.627	6.482	5.049	4.397	4.088
360.0	2774	3149	2325	1498	949.8	617.3	536.9	578.5	705.5	871.7	996.1	1072	1047	908.4	765.0	574.3	465.3	433.9	429.2	499.9	527.5	363.9	253.8	195.6	249.9	426.1	1502	7149	7014	336.3	13.92	5.262	12.27	5.587	2.790	2.411	2.186	2.264	2.261	2.488	2.795	3.094	3.831	4.967	6.762	7.995	7.781	8.255	6.783	5.481	4.768	5.033	3.929	3.424	2.883	2.583	2.555	2.590	2.769	2.997	3.306	3.828	4.077	4.605	5.067	5.169	5.362	5.377	5.730	5.731	5.022	5.547	5.218	5.556	4.682	4.238	3.733
365.0	2420	2699	2073	1403	922.1	617.0	510.6	533.4	641.5	782.1	893.1	954.9	936.0	826.1	703.1	545.4	457.2	425.0	418.5	433.1	502.7	443.2	266.4	178.8	136.9	138.2	363.1	2141	7771	6018	269.7	8.071	15.00	6.061	2.987	2.644	2.327	2.258	2.233	2.411	2.544	2.833	3.408	4.068	5.252	6.698	6.604	7.312	6.232	4.976	4.505	4.788	3.843	3.182	2.738	2.562	2.569	2.470	2.782	2.899	3.159	3.748	3.907	4.096	4.488	4.532	4.845	5.202	5.152	5.177	4.772	4.748	4.756	5.223	4.501	3.822	3.734
370.0	1981	2247	1827	1295	892.6	608.3	474.5	480.0	560.6	678.0	773.1	831.8	819.1	742.4	655.0	536.1	460.6	429.3	410.4	399.7	410.3	434.2	337.8	190.5	117.1	79.05	109.8	499.6	2291	5924	5047	1119	31.20	7.792	3.635	3.063	2.565	2.342	2.173	2.124	2.400	2.636	3.048	3.555	4.383	5.592	5.707	6.146	5.436	4.622	4.124	4.361	3.816	3.230	2.699	2.472	2.274	2.309	2.504	2.533	2.740	3.128	3.405	3.606	3.942	3.967	4.166	4.481	4.436	4.613	4.379	4.288	4.234	5.028	3.995	3.622	3.562
375.0	1598	1824	1595	1193	853.4	598.9	456.4	431.0	490.8	585.6	679.5	723.2	728.5	679.5	624.6	533.4	471.2	435.5	407.3	377.0	359.8	342.8	347.5	256.9	122.9	70.53	57.68	133.2	526.2	1391	3958	7146	2522	26.19	4.520	3.705	3.003	2.634	2.373	2.208	2.370	2.373	2.663	3.040	3.535	4.647	4.944	5.170	5.094	4.140	3.788	4.014	3.565	3.202	2.608	2.481	2.278	2.211	2.247	2.263	2.622	2.749	3.006	3.238	3.275	3.491	3.581	3.776	4.134	3.996	3.905	4.085	3.949	4.848	4.180	3.735	3.529
380.0	1409	1600	1402	1115	833.5	600.3	435.6	401.3	449.2	527.8	601.5	657.3	675.3	649.9	612.9	541.2	488.9	445.5	408.1	367.4	336.5	299.4	287.8	288.1	155.5	73.27	48.10	54.79	136.0	326.2	1044	5313	9999.9	1706	13.63	4.227	3.500	3.029	2.547	2.166	2.422	2.287	2.590	2.907	3.297	3.997	4.278	4.458	4.432	3.838	3.671	3.827	3.652	3.066	2.701	2.490	2.147	2.072	2.100	2.209	2.271	2.673	2.841	2.927	2.935	3.175	3.390	3.601	3.814	3.890	3.934	3.809	3.812	4.527	4.076	3.709	3.899
385.0	1180	1438	1263	1052	823.1	602.4	441.3	372.4	408.7	483.0	550.9	620.7	639.7	629.9	610.4	557.7	507.5	455.3	406.2	355.6	318.1	277.0	242.5	245.4	208.0	91.06	48.56	39.64	51.10	89.90	248.4	1507	9999.9	9999.9	241.4	7.686	4.111	3.415	2.783	2.579	2.343	2.263	2.436	2.699	3.068	3.503	3.770	3.933	4.043	3.333	3.373	3.831	3.332	3.182	2.921	2.559	2.190	1.896	2.060	2.068	2.089	2.391	2.472	2.525	2.772	2.920	3.105	3.081	3.545	3.491	3.576	3.685	3.877	4.528	3.929	3.944	3.793
390.0	1005	1232	1164	1002	804.8	593.5	424.1	349.3	371.1	434.0	496.8	564.7	609.4	617.5	610.0	572.8	523.7	462.1	398.2	341.5	297.1	254.6	213.0	185.2	186.1	147.5	69.71	40.48	36.42	39.89	71.30	350.1	3260	8443	3658	951.1	16.47	4.088	3.194	2.858	2.497	2.375	2.506	2.440	2.795	3.239	3.303	3.728	3.629	3.140	3.174	3.483	3.242	3.087	2.916	2.499	2.199	1.946	2.020	1.946	1.957	2.042	2.296	2.479	2.489	2.651	2.825	3.027	3.264	3.400	3.394	3.554	3.832	4.462	4.000	4.109	3.898
395.0	905.7	1046	1063	941.4	784.0	587.5	414.5	321.7	340.4	392.3	451.8	515.8	569.9	602.3	606.6	580.6	530.3	461.6	390.5	323.1	271.3	234.2	193.7	156.1	132.7	143.7	122.8	52.61	36.29	31.44	34.19	92.02	750.4	1940	2476	5271	1417	19.64	3.793	3.310	2.979	2.539	2.468	2.350	2.480	2.816	2.864	3.227	3.265	3.079	2.959	3.400	3.312	3.033	2.884	2.378	2.133	1.949	1.786	1.849	1.882	1.925	1.896	2.250	2.411	2.370	2.506	2.851	2.914	3.232	3.324	3.543	3.671	4.257	4.266	4.217	4.241
400.0	827.9	946.7	1006	896.6	759.2	573.6	397.5	310.4	310.6	359.5	418.0	485.0	547.4	583.2	596.4	577.6	526.0	457.9	380.2	309.6	259.9	219.2	179.7	140.9	115.7	106.1	136.8	88.55	41.17	31.20	27.13	36.30	190.8	446.7	636.4	3520	4543	256.3	12.09	3.531	3.085	2.645	2.243	2.314	2.313	2.564	2.844	3.165	3.078	3.114	2.923	3.363	3.223	2.945	2.702	2.288	2.151	1.970	1.750	1.763	1.652	1.801	1.883	2.068	2.115	2.404	2.407	2.611	2.972	3.119	3.072	3.379	3.534	3.890	4.086	4.131	4.400
405.0	769.3	873.2	935.6	866.8	734.4	564.3	394.7	303.5	296.1	334.2	388.6	456.1	520.2	564.1	582.9	566.9	517.2	448.0	368.8	299.1	243.4	206.7	166.6	134.4	107.9	87.01	106.3	121.5	54.83	34.63	27.48	25.13	67.26	114.2	152.1	967.7	3718	3334	207.5	5.918	3.315	2.727	2.393	2.204	2.050	2.522	2.646	2.837	2.754	2.824	2.654	3.192	3.058	2.835	2.614	2.317	2.109	1.933	1.681	1.769	1.652	1.517	1.905	1.982	2.168	2.295	2.428	2.352	2.819	2.931	2.971	3.432	3.382	4.062	3.805	3.834	4.143
410.0	670.2	787.5	849.8	796.8	698.4	540.5	381.5	293.2	271.1	307.6	355.7	419.0	482.8	527.2	551.0	536.2	492.9	428.5	343.8	277.4	221.9	185.1	152.6	124.2	101.3	79.21	75.77	99.40	98.12	54.78	31.15	24.88	42.23	40.94	43.66	224.3	1001	2571	2490	790.0	14.54	3.228	2.780	2.232	2.158	2.371	2.439	2.744	2.800	2.570	2.496	2.948	2.989	2.906	2.704	2.249	2.130	1.800	1.678	1.769	1.583	1.692	1.664	1.787	1.915	1.960	2.089	2.196	2.564	2.720	2.895	3.151	3.128	3.933	3.516	3.668	3.856
