Sample:	'1
File name:	G2025051324明泉新材料循环水.FD3
Run date:	'16:38:15, 05/20/2025
Operator:	Administrator
Comment:	'

Instrument
Model:	F-2700 FL Spectrophotometer
Serial number:	23B8-004
ROM Version:	4J14000 07

Instrument parameters
Measurement type:	3-D scan
Data mode:	Fluorescence
EX  Start WL:	220.0 nm
EX  End WL:	600.0 nm
EX Sampling interval:	5.0 nm
EM  Start WL:	230.0 nm
EM  End WL:	650.0 nm
EM Sampling interval:	5.0 nm
Scan speed:	12000 nm/min
EX Slit:	5.0 nm
EM Slit:	5.0 nm
PMT Voltage:	700 V
Response:	Auto 
Corrected spectra:	Off
Contour interval:	50.000

Peak integration
Integration method:	Rectangular
Sensitivity:	1
Threshold:	1.000

Peaks
No.	ApexEX/EM(nm)	Height(Data)
1	235.0/640.0	11.97
2	240.0/265.0	307.9
3	240.0/525.0	123.2
4	245.0/385.0	2638
5	245.0/400.0	2060
6	245.0/540.0	141.9
7	250.0/275.0	574.0
8	250.0/550.0	130.4
9	255.0/280.0	604.9
10	255.0/565.0	111.5
11	260.0/290.0	482.1
12	260.0/575.0	91.85
13	265.0/295.0	570.7
14	265.0/585.0	76.35
15	270.0/300.0	761.1
16	270.0/600.0	71.50
17	275.0/305.0	744.9
18	275.0/345.0	386.5
19	275.0/610.0	57.90
20	280.0/385.0	5251
21	280.0/400.0	4007
22	280.0/625.0	46.88
23	285.0/320.0	637.0
24	285.0/640.0	35.83
25	290.0/325.0	557.8
26	295.0/330.0	420.2
27	300.0/335.0	393.2
28	305.0/345.0	373.2
29	310.0/350.0	317.0
30	315.0/355.0	323.1
31	355.0/385.0	2880
32	355.0/405.0	2348
33	370.0/400.0	2667
34	415.0/485.0	33.70
35	425.0/500.0	22.29
36	430.0/505.0	18.85
37	440.0/520.0	13.29
38	445.0/525.0	11.40
39	450.0/535.0	8.513
40	455.0/540.0	7.169
41	470.0/560.0	3.469
42	490.0/385.0	11.39
43	505.0/275.0	3.435
44	510.0/280.0	3.508
45	520.0/285.0	3.399
46	530.0/290.0	3.043
47	540.0/295.0	3.882
48	545.0/300.0	4.486
49	545.0/385.0	15.54
50	550.0/305.0	4.286
51	560.0/310.0	3.641
52	570.0/315.0	3.901
53	570.0/385.0	26.82
54	570.0/400.0	21.06
55	580.0/320.0	3.770
56	585.0/325.0	3.618

Data points
	220.0	225.0	230.0	235.0	240.0	245.0	250.0	255.0	260.0	265.0	270.0	275.0	280.0	285.0	290.0	295.0	300.0	305.0	310.0	315.0	320.0	325.0	330.0	335.0	340.0	345.0	350.0	355.0	360.0	365.0	370.0	375.0	380.0	385.0	390.0	395.0	400.0	405.0	410.0	415.0	420.0	425.0	430.0	435.0	440.0	445.0	450.0	455.0	460.0	465.0	470.0	475.0	480.0	485.0	490.0	495.0	500.0	505.0	510.0	515.0	520.0	525.0	530.0	535.0	540.0	545.0	550.0	555.0	560.0	565.0	570.0	575.0	580.0	585.0	590.0	595.0	600.0
230.0	18.67	61.97	156.0	70.18	9.643	5.405	4.668	4.334	3.749	3.587	3.423	2.948	2.998	2.334	1.666	1.382	1.216	1.078	0.892	0.852	0.832	0.736	0.782	0.777	0.674	0.711	0.844	0.826	0.610	0.738	0.802	0.771	0.529	0.433	0.371	0.355	0.351	0.401	0.373	0.308	0.313	0.321	0.308	0.274	0.280	0.274	0.276	0.449	0.670	0.533	0.355	0.274	0.212	0.266	0.235	0.244	0.240	0.233	0.224	0.215	0.234	0.252	0.252	0.207	0.227	0.237	0.248	0.225	0.240	0.255	0.252	0.239	0.233	0.296	0.277	0.241	0.249
235.0	17.14	28.48	117.8	368.3	231.4	23.06	5.842	4.590	3.711	3.576	3.436	3.298	3.287	2.404	1.780	1.203	1.359	1.246	0.950	0.710	0.764	0.669	0.779	0.801	0.757	0.784	0.853	0.915	0.686	0.665	0.790	0.753	0.608	0.468	0.352	0.302	0.383	0.397	0.329	0.347	0.300	0.328	0.324	0.288	0.249	0.270	0.297	0.300	0.407	0.565	1.244	1.772	1.167	0.533	0.238	0.232	0.284	0.297	0.261	0.236	0.273	0.243	0.235	0.276	0.246	0.254	0.254	0.234	0.221	0.256	0.221	0.262	0.219	0.232	0.252	0.258	0.242
240.0	22.61	21.10	42.37	461.4	678.3	307.6	16.45	5.789	4.201	4.412	3.863	3.377	3.584	2.151	2.041	1.219	1.378	1.123	0.968	0.935	0.808	0.752	0.851	0.713	0.800	0.719	0.880	0.829	0.701	0.807	0.761	0.763	0.578	0.493	0.310	0.397	0.364	0.341	0.355	0.350	0.354	0.356	0.306	0.259	0.278	0.248	0.313	0.246	0.264	0.316	0.795	2.428	4.337	4.603	1.971	0.407	0.303	0.384	0.243	0.251	0.253	0.256	0.232	0.270	0.263	0.282	0.257	0.182	0.260	0.268	0.234	0.259	0.220	0.230	0.312	0.276	0.230
245.0	24.67	22.94	24.92	202.4	1569	1715	255.9	10.29	5.126	5.250	4.442	3.794	3.566	2.219	1.871	1.616	1.492	1.444	1.116	0.935	0.872	0.754	0.844	0.764	0.802	0.668	0.802	0.960	0.734	0.770	0.870	0.781	0.628	0.433	0.385	0.390	0.305	0.346	0.354	0.347	0.298	0.403	0.313	0.294	0.293	0.302	0.285	0.272	0.282	0.255	0.369	1.059	3.294	8.779	11.85	6.500	1.769	0.327	0.238	0.274	0.234	0.259	0.294	0.256	0.305	0.255	0.313	0.226	0.274	0.329	0.267	0.260	0.238	0.193	0.296	0.271	0.283
250.0	23.75	26.64	46.95	80.94	612.9	2456	3043	878.5	50.84	6.633	5.602	4.537	3.944	2.933	2.021	1.808	1.472	1.287	1.156	0.948	1.011	0.750	0.850	0.900	0.769	0.706	0.924	0.931	0.743	0.867	0.870	0.862	0.601	0.474	0.347	0.372	0.379	0.320	0.342	0.383	0.393	0.400	0.381	0.286	0.329	0.292	0.333	0.317	0.312	0.326	0.360	0.492	1.008	3.204	8.200	15.07	21.82	17.61	9.669	2.236	0.409	0.294	0.284	0.294	0.273	0.261	0.305	0.263	0.252	0.280	0.259	0.246	0.237	0.237	0.322	0.269	0.298
255.0	28.97	24.19	48.56	130.5	198.5	704.9	3376	5048	1184	41.26	7.121	5.755	4.605	3.525	2.555	1.957	1.494	1.274	1.339	1.033	1.051	0.813	0.900	1.002	0.810	0.793	0.844	0.806	0.791	0.756	0.883	0.907	0.621	0.594	0.388	0.374	0.430	0.396	0.340	0.418	0.398	0.392	0.404	0.255	0.284	0.308	0.316	0.307	0.327	0.380	0.577	0.804	0.687	1.007	2.109	4.048	9.776	25.02	43.16	28.51	15.29	2.201	0.430	0.313	0.345	0.286	0.262	0.316	0.292	0.287	0.237	0.281	0.249	0.275	0.285	0.296	0.353
260.0	30.01	23.60	30.67	144.1	240.8	228.7	1221	5508	5335	257.8	21.12	6.893	5.333	4.710	3.079	2.182	1.748	1.470	1.556	1.100	1.049	0.901	1.036	1.025	0.921	0.902	0.916	0.907	0.813	0.803	1.082	1.032	0.626	0.604	0.390	0.421	0.374	0.399	0.348	0.380	0.366	0.348	0.347	0.238	0.288	0.313	0.331	0.300	0.302	0.260	0.481	0.996	1.131	0.937	0.900	1.279	2.647	7.944	23.28	45.59	60.67	26.09	11.36	1.229	0.397	0.317	0.353	0.415	0.299	0.321	0.279	0.254	0.320	0.275	0.309	0.252	0.325
265.0	30.38	21.04	21.97	87.16	307.9	262.4	346.7	2288	7576	4739	190.2	10.89	6.337	5.165	3.032	2.311	2.177	1.478	1.439	1.194	1.064	1.046	0.913	1.015	0.779	0.930	1.026	0.981	0.951	0.730	1.084	0.889	0.661	0.614	0.393	0.380	0.388	0.421	0.326	0.372	0.347	0.407	0.334	0.332	0.400	0.313	0.313	0.271	0.276	0.258	0.338	0.656	1.214	1.825	1.371	0.957	1.091	2.249	5.940	17.02	42.09	68.46	71.64	23.21	6.014	0.568	0.429	0.444	0.341	0.323	0.289	0.296	0.329	0.301	0.333	0.257	0.321
270.0	34.35	20.97	21.95	50.42	194.1	418.3	348.7	609.1	2921	7022	5571	736.3	35.02	7.278	4.035	2.911	2.593	1.908	1.657	1.445	1.301	0.995	1.080	1.065	0.965	0.927	1.106	1.118	0.889	0.832	0.977	0.965	0.720	0.621	0.527	0.443	0.441	0.451	0.421	0.383	0.407	0.390	0.351	0.365	0.391	0.367	0.322	0.327	0.320	0.278	0.361	0.500	0.687	1.232	1.825	2.176	1.912	1.487	1.958	4.310	10.78	23.69	45.23	62.39	54.77	54.61	15.70	6.253	0.715	0.401	0.376	0.335	0.353	0.310	0.309	0.310	0.373
275.0	35.68	22.49	26.01	44.94	115.4	270.9	574.0	417.1	709.9	1958	6792	9189	933.6	24.41	6.172	4.257	3.157	2.398	2.013	1.763	1.343	1.168	1.017	1.093	1.084	0.927	1.128	1.229	1.032	0.916	0.993	1.060	0.698	0.606	0.575	0.484	0.454	0.467	0.428	0.383	0.450	0.368	0.378	0.423	0.364	0.428	0.344	0.337	0.384	0.285	0.358	0.472	0.631	0.798	1.037	1.483	2.517	3.435	2.526	1.837	2.962	5.732	10.57	15.44	24.97	59.33	94.98	91.41	25.27	6.038	0.525	0.486	0.387	0.335	0.361	0.408	0.359
280.0	40.99	24.94	27.58	50.32	95.69	181.8	412.4	604.9	303.4	487.8	2295	9208	7650	140.4	12.39	5.679	3.922	3.058	2.184	1.785	1.550	1.327	1.233	1.224	1.091	0.938	1.243	1.291	0.987	0.922	1.060	1.216	0.745	0.613	0.702	0.544	0.487	0.464	0.425	0.460	0.405	0.394	0.442	0.388	0.326	0.459	0.352	0.326	0.297	0.305	0.354	0.518	0.542	0.699	0.822	0.972	1.440	2.621	3.508	2.997	1.804	1.850	2.889	3.898	6.143	16.73	42.92	87.14	106.5	33.98	19.73	2.858	0.516	0.429	0.486	0.425	0.352
285.0	49.63	27.92	32.31	52.57	91.39	141.9	227.3	538.9	364.9	191.4	581.2	3331	9818	5692	97.85	8.619	5.138	3.664	2.609	2.310	1.687	1.501	1.343	1.264	1.242	1.148	1.264	1.263	0.948	0.930	1.130	1.184	0.855	0.648	0.654	0.512	0.553	0.475	0.441	0.427	0.456	0.431	0.428	0.349	0.329	0.385	0.374	0.365	0.341	0.324	0.330	0.495	0.547	0.627	0.705	0.728	1.014	1.404	2.023	3.293	3.399	2.170	1.318	1.398	1.841	4.266	10.45	25.84	55.81	88.59	105.8	31.48	14.09	1.098	0.546	0.419	0.457
290.0	47.13	29.20	38.87	53.64	81.76	118.5	142.5	244.9	482.1	440.1	255.6	841.9	3228	6822	5642	420.6	17.87	4.916	3.609	2.954	2.126	1.722	1.652	1.346	1.383	1.274	1.297	1.254	1.093	1.116	1.285	1.205	0.871	0.653	0.673	0.591	0.569	0.455	0.456	0.403	0.465	0.445	0.369	0.354	0.330	0.357	0.366	0.415	0.386	0.336	0.358	0.491	0.539	0.604	0.703	0.707	0.823	0.965	1.090	1.480	2.235	3.017	3.043	2.406	1.450	1.595	3.049	6.388	13.50	25.58	48.59	62.88	82.31	64.07	20.76	10.66	1.625
295.0	45.58	28.24	41.17	56.04	84.97	111.0	118.8	136.8	227.5	570.7	534.2	322.7	816.3	1753	4730	6456	572.9	12.37	4.870	3.371	2.642	2.047	1.978	1.584	1.412	1.295	1.455	1.323	1.175	1.110	1.250	1.216	0.839	0.654	0.628	0.599	0.492	0.520	0.518	0.514	0.457	0.431	0.358	0.358	0.435	0.386	0.333	0.416	0.379	0.379	0.384	0.571	0.525	0.647	0.620	0.707	0.713	0.751	0.816	0.940	1.180	1.366	1.888	3.567	3.882	2.794	1.724	2.149	3.727	6.538	11.50	14.81	23.20	42.77	80.99	105.5	33.68
300.0	48.92	32.27	42.10	59.73	85.00	103.7	121.8	130.2	167.2	352.0	761.1	409.9	315.7	484.3	1425	5792	5278	80.13	7.218	4.587	3.292	2.678	1.951	1.644	1.513	1.409	1.378	1.417	1.234	1.151	1.413	1.286	0.848	0.670	0.630	0.566	0.524	0.525	0.504	0.441	0.519	0.388	0.380	0.451	0.440	0.348	0.324	0.437	0.402	0.394	0.396	0.581	0.552	0.652	0.690	0.651	0.808	0.814	0.898	0.798	0.899	0.952	1.106	2.013	3.431	4.486	3.208	1.665	1.762	2.515	3.345	3.942	5.870	10.71	26.78	65.20	98.17
305.0	48.74	33.60	41.84	61.99	92.31	113.5	141.1	148.4	180.0	256.6	582.7	744.9	298.1	232.9	404.8	1938	6251	3814	57.47	6.004	4.015	2.966	2.170	2.142	1.712	1.560	1.545	1.547	1.274	1.273	1.374	1.335	0.887	0.703	0.634	0.630	0.561	0.483	0.562	0.487	0.458	0.494	0.404	0.427	0.438	0.331	0.315	0.442	0.410	0.361	0.419	0.502	0.554	0.613	0.672	0.750	0.832	0.894	0.952	0.956	1.005	1.035	1.086	1.468	1.952	3.220	4.286	3.567	2.376	1.634	1.721	1.742	2.044	3.104	6.679	16.65	38.06
310.0	46.65	33.22	47.30	68.70	94.59	128.1	150.4	172.6	199.1	247.1	369.1	632.8	626.7	279.2	198.2	508.3	1974	4246	3743	282.8	12.08	3.899	2.968	2.471	1.950	1.720	1.678	1.563	1.321	1.275	1.448	1.341	1.039	0.739	0.776	0.640	0.546	0.560	0.494	0.530	0.465	0.484	0.500	0.420	0.422	0.386	0.320	0.406	0.358	0.367	0.449	0.624	0.636	0.668	0.710	0.742	0.899	0.948	0.970	1.039	1.099	1.134	1.293	1.337	1.501	1.919	2.422	3.102	3.641	3.434	2.416	1.673	1.377	1.468	2.171	4.507	9.194
315.0	45.87	34.11	46.78	77.64	104.6	140.9	158.0	184.8	215.1	258.7	316.2	403.7	583.1	585.1	216.3	197.1	500.9	1067	3093	4289	397.4	8.901	4.380	3.004	2.068	1.924	1.827	1.673	1.497	1.332	1.502	1.441	1.062	0.838	0.735	0.560	0.508	0.614	0.501	0.577	0.470	0.556	0.476	0.399	0.411	0.394	0.388	0.406	0.349	0.405	0.519	0.655	0.610	0.701	0.776	0.801	0.960	0.961	0.933	1.157	1.132	1.266	1.289	1.362	1.496	1.608	1.888	2.161	2.087	2.777	3.901	3.446	2.270	1.378	1.340	1.710	2.757
320.0	46.83	37.51	46.21	85.88	113.4	141.6	162.5	193.7	222.7	273.3	314.7	355.3	413.4	637.0	403.0	146.3	181.3	282.1	902.4	3860	3548	60.28	6.264	3.584	2.664	2.294	2.147	1.932	1.611	1.501	1.577	1.572	1.189	0.848	0.782	0.583	0.646	0.610	0.522	0.528	0.567	0.467	0.437	0.384	0.438	0.378	0.381	0.407	0.337	0.369	0.462	0.601	0.673	0.667	0.745	0.784	1.064	1.010	1.116	1.138	1.284	1.287	1.407	1.539	1.393	1.500	1.673	1.991	1.884	1.904	2.697	3.482	3.770	2.554	1.510	1.171	1.495
325.0	55.38	40.75	60.39	93.98	126.2	146.4	180.0	207.1	239.0	283.1	321.2	360.3	361.6	459.4	557.8	234.8	120.5	115.0	237.6	1278	4199	2615	46.31	4.755	3.382	2.651	2.152	2.170	1.759	1.685	1.779	1.640	1.053	0.926	0.758	0.607	0.621	0.632	0.480	0.580	0.577	0.398	0.393	0.400	0.429	0.418	0.297	0.404	0.443	0.427	0.458	0.593	0.636	0.748	0.800	0.849	1.053	1.049	1.136	1.051	1.196	1.380	1.523	1.603	1.542	1.699	1.679	1.915	1.759	1.883	2.017	2.344	3.191	3.618	2.801	1.571	1.295
330.0	52.49	41.98	69.38	107.2	146.2	163.9	190.5	216.1	248.1	298.1	332.8	364.1	355.8	347.7	415.9	420.2	206.9	95.19	98.60	322.3	1331	3060	2732	226.7	10.65	3.362	2.711	2.417	1.825	1.622	1.879	1.683	1.054	0.945	0.822	0.659	0.633	0.636	0.517	0.528	0.497	0.461	0.417	0.418	0.381	0.407	0.293	0.395	0.431	0.404	0.522	0.696	0.745	0.861	0.912	0.910	1.052	1.081	1.087	1.096	1.278	1.375	1.432	1.616	1.520	1.740	1.733	1.740	1.816	1.920	1.921	1.860	2.085	2.377	2.657	2.903	2.439
335.0	56.79	44.53	77.65	133.4	176.3	198.6	210.3	232.1	262.4	307.8	348.9	374.8	366.9	331.3	304.0	337.5	393.2	168.1	84.51	119.7	332.0	767.1	2387	3399	330.6	7.935	3.825	2.961	2.230	1.896	1.995	1.808	1.352	0.969	0.868	0.787	0.622	0.623	0.545	0.481	0.519	0.392	0.408	0.415	0.383	0.408	0.349	0.387	0.451	0.439	0.559	0.766	0.795	0.948	0.921	1.018	1.115	1.078	1.160	1.201	1.376	1.428	1.586	1.577	1.544	1.850	1.635	1.803	1.805	1.823	1.898	1.859	1.817	1.884	1.932	2.010	2.405
340.0	56.21	41.58	86.21	140.1	195.6	213.9	226.6	249.3	281.7	314.5	359.0	382.7	374.5	334.0	285.9	261.1	365.7	314.1	117.0	85.89	119.5	204.5	694.5	3068	2890	52.31	5.699	3.458	2.651	2.360	2.064	2.031	1.254	0.977	0.860	0.675	0.776	0.669	0.622	0.504	0.443	0.482	0.423	0.429	0.403	0.437	0.326	0.370	0.435	0.488	0.571	0.822	0.875	0.953	0.957	1.067	1.224	1.213	1.305	1.358	1.475	1.394	1.585	1.779	1.937	1.857	1.854	1.729	2.013	1.797	1.907	1.919	1.872	1.623	1.819	1.648	1.734
345.0	57.86	49.14	86.39	152.7	212.1	234.0	249.5	276.2	295.0	321.1	360.2	386.5	374.6	341.3	295.7	244.9	266.2	373.2	217.4	99.29	84.92	88.71	187.5	993.2	3374	2177	41.57	4.409	2.905	2.479	2.376	2.044	1.340	1.077	0.877	0.723	0.708	0.620	0.611	0.521	0.531	0.476	0.480	0.416	0.362	0.400	0.369	0.420	0.416	0.486	0.621	0.742	0.937	1.014	1.081	1.115	1.161	1.260	1.364	1.501	1.536	1.599	1.508	1.776	1.840	1.733	1.842	1.877	1.993	1.724	1.910	2.127	1.851	1.781	1.858	1.618	1.583
350.0	49.28	52.61	84.03	162.2	244.3	273.5	276.4	296.7	310.5	337.1	367.7	385.1	378.2	354.2	305.4	261.7	235.7	274.7	317.0	204.3	108.0	83.21	87.94	256.7	1050	2340	2181	206.8	11.07	3.179	2.991	2.527	1.625	1.180	0.902	0.749	0.704	0.675	0.594	0.530	0.497	0.486	0.487	0.489	0.409	0.401	0.381	0.415	0.387	0.479	0.589	0.821	0.952	1.140	1.186	1.243	1.438	1.363	1.459	1.523	1.585	1.536	1.650	1.748	1.857	1.781	1.686	1.897	1.926	1.757	1.976	2.001	1.928	1.834	1.831	1.700	1.724
355.0	48.59	42.19	86.84	168.0	264.0	314.0	313.3	322.6	336.7	351.3	373.5	383.2	384.7	361.6	313.7	280.3	249.9	237.1	262.3	323.1	200.2	110.2	88.28	107.2	269.9	580.6	1693	2693	321.2	10.65	4.838	4.106	2.300	1.451	0.971	0.827	0.798	0.731	0.558	0.544	0.535	0.524	0.404	0.407	0.382	0.391	0.418	0.435	0.446	0.456	0.626	0.888	1.101	1.283	1.374	1.302	1.533	1.546	1.674	1.634	1.590	1.727	1.795	1.965	1.756	1.945	1.865	1.876	2.014	1.841	1.909	2.134	2.022	1.875	2.023	1.796	1.740
360.0	50.33	47.37	87.03	173.7	281.0	337.6	345.4	342.6	357.7	369.8	393.1	391.9	395.6	372.9	333.0	294.1	268.5	245.9	238.1	296.1	306.2	165.9	107.2	92.25	108.8	166.1	482.4	2186	2426	52.30	10.93	8.265	3.848	1.698	0.943	0.814	0.800	0.620	0.745	0.564	0.577	0.498	0.411	0.417	0.427	0.416	0.368	0.459	0.427	0.500	0.620	0.880	1.140	1.357	1.531	1.488	1.622	1.577	1.730	1.698	1.803	1.904	1.914	1.952	1.790	1.866	1.968	1.891	2.066	2.009	1.963	2.042	1.868	1.893	1.983	1.906	1.741
365.0	48.80	40.61	93.90	194.0	310.5	380.8	376.1	370.1	379.7	399.1	419.7	422.1	431.7	391.5	344.1	314.2	287.9	268.6	249.7	257.6	327.9	266.7	148.1	111.9	98.88	88.62	154.9	693.6	2533	1960	46.82	25.17	10.22	3.073	1.204	0.948	0.870	0.655	0.694	0.577	0.532	0.527	0.423	0.525	0.400	0.456	0.401	0.461	0.445	0.463	0.620	0.921	1.178	1.335	1.584	1.605	1.684	1.937	1.924	1.782	1.908	1.954	1.899	1.994	2.023	2.065	1.962	2.040	2.125	2.043	2.076	2.064	1.936	2.053	2.019	2.082	2.024
370.0	51.77	51.29	114.8	289.8	516.8	537.0	468.5	460.7	500.2	562.6	703.6	698.4	900.0	653.3	395.5	342.9	321.4	308.3	293.0	292.4	320.3	366.4	333.1	274.6	242.5	239.1	288.6	409.8	942.6	2076	2247	855.9	130.7	24.31	5.416	2.034	1.143	0.923	0.836	0.636	0.613	0.545	0.522	0.539	0.480	0.450	0.448	0.450	0.494	0.541	0.878	1.284	1.980	2.394	2.650	2.116	2.119	2.290	2.170	2.063	2.296	2.526	2.313	2.697	3.148	3.533	3.292	3.080	3.382	4.780	4.685	3.381	2.491	2.357	2.270	2.215	2.117
375.0	73.28	77.86	209.8	651.0	1385	1493	857.2	728.7	882.2	1138	1729	1606	2844	1644	556.6	417.9	394.1	393.1	388.2	428.8	486.8	521.1	714.7	857.6	762.2	839.7	1317	1485	1178	1502	2987	3965	1159	143.3	20.89	6.016	2.968	1.624	1.189	0.947	0.910	0.800	0.777	0.652	0.660	0.539	0.536	0.641	0.738	1.044	1.698	2.856	4.442	5.977	6.367	4.871	3.738	3.384	3.227	3.084	3.774	4.338	3.990	4.710	7.141	8.829	7.704	6.395	8.640	14.17	15.25	7.717	4.016	3.196	2.763	2.763	2.550
380.0	78.14	95.95	310.2	930.0	2111	2251	1176	940.2	1218	1678	2654	2578	4487	2477	686.7	479.8	449.4	461.1	472.5	543.0	643.5	701.0	977.2	1347	1252	1388	2185	2423	1758	1919	3170	4425	2869	340.5	36.49	9.003	3.993	2.126	1.485	1.220	1.155	1.042	1.036	0.855	0.823	0.664	0.616	0.732	0.969	1.386	2.196	4.391	6.405	9.124	9.881	7.180	5.188	4.285	3.843	4.312	4.957	5.724	5.928	7.121	10.33	13.06	11.12	9.596	12.95	21.86	23.64	11.48	5.170	3.648	3.268	3.172	3.041
385.0	85.58	96.89	352.3	1090	2446	2638	1318	1064	1376	1909	3097	3040	5251	2869	756.0	508.2	480.4	493.0	512.5	599.6	721.3	787.8	1084	1533	1525	1670	2598	2880	2070	2210	3450	3797	2917	1771	177.4	11.22	4.704	2.415	1.775	1.369	1.175	1.087	1.006	0.945	0.774	0.871	0.726	0.726	1.062	1.487	2.622	4.872	7.059	10.73	11.39	8.070	5.816	4.853	4.550	4.487	5.525	6.358	6.787	8.425	11.66	15.54	12.95	11.49	15.40	25.91	26.82	13.05	5.935	4.078	3.279	3.085	3.225
390.0	77.32	86.00	286.0	903.4	1970	2132	1148	912.3	1163	1560	2492	2434	4148	2334	661.8	464.5	438.7	452.1	467.2	535.7	627.2	677.6	894.0	1211	1245	1397	2090	2293	1642	1737	2695	2762	1427	1429	1371	161.1	12.93	2.467	1.936	1.355	1.087	1.054	0.915	0.849	0.744	0.769	0.657	0.709	0.945	1.284	2.237	3.951	5.792	8.797	9.236	6.632	5.070	4.142	3.911	3.857	4.742	5.562	5.693	6.749	9.694	12.46	10.27	9.270	11.98	20.72	21.52	10.80	5.238	3.519	3.013	2.882	2.865
395.0	77.77	80.99	258.8	822.2	1789	1963	1078	862.4	1086	1439	2288	2215	3746	2119	617.3	442.1	418.8	428.4	442.6	512.9	594.5	639.4	829.7	1110	1110	1301	1972	2112	1505	1587	2448	2458	974.6	485.5	797.4	1523	264.5	11.81	2.202	1.405	1.210	0.873	0.919	0.772	0.731	0.733	0.669	0.763	0.907	1.188	2.034	3.590	5.444	8.274	8.407	6.271	4.685	3.877	3.686	3.939	4.455	5.013	5.204	6.382	8.974	11.44	9.257	8.511	11.06	18.72	19.69	9.713	4.725	3.329	2.746	2.791	2.633
400.0	68.91	89.09	274.4	858.7	1925	2060	1128	904.7	1148	1530	2444	2383	4007	2230	630.6	442.5	413.2	429.8	448.8	527.6	623.1	672.4	888.5	1195	1185	1373	2161	2313	1651	1729	2667	2642	968.1	291.1	232.8	984.4	1395	210.7	5.552	1.716	1.310	1.067	1.027	0.845	0.839	0.739	0.635	0.718	0.912	1.279	2.186	3.873	6.036	8.462	8.932	6.375	4.919	4.006	3.545	3.900	4.720	5.066	5.697	6.520	9.498	11.67	9.892	8.808	11.98	20.30	21.06	10.19	4.902	3.317	2.843	2.949	2.588
405.0	69.08	82.65	280.4	864.5	1913	2039	1120	916.9	1131	1516	2424	2350	3990	2226	621.7	424.1	405.3	420.9	438.1	516.8	610.0	665.8	883.9	1186	1175	1346	2130	2348	1672	1729	2663	2644	959.7	246.2	89.03	273.4	1086	1208	35.44	2.997	1.343	1.396	1.006	0.919	0.819	0.776	0.719	0.757	0.847	1.147	2.157	3.746	5.565	8.079	8.910	6.407	4.796	4.191	3.675	3.663	4.424	5.446	5.706	6.492	9.459	11.89	9.582	8.565	11.57	19.55	20.80	10.00	5.092	3.242	2.692	2.884	2.529
410.0	56.45	69.14	206.6	655.0	1422	1563	917.9	774.0	924.0	1189	1809	1764	2903	1668	521.8	375.1	355.6	366.6	382.7	433.3	502.3	539.2	694.8	903.9	894.4	1006	1543	1725	1272	1282	1925	1911	701.4	183.9	52.02	76.93	292.0	830.0	1004	347.6	10.85	1.488	1.082	0.976	0.746	0.702	0.612	0.625	0.750	0.994	1.757	2.928	4.288	6.170	6.745	5.145	3.806	3.428	3.145	3.404	3.694	4.482	4.588	5.347	6.948	8.948	7.444	6.819	8.667	14.70	15.39	7.712	3.926	2.829	2.500	2.501	2.407
