Sample:	'1
File name:	大洋泊车股份有限公司.FD3
Run date:	'10:34:08, 04/01/2025
Operator:	Administrator
Comment:	'

Instrument
Model:	F-2700 FL Spectrophotometer
Serial number:	23B8-004
ROM Version:	4J14000 07

Instrument parameters
Measurement type:	3-D scan
Data mode:	Fluorescence
EX  Start WL:	220.0 nm
EX  End WL:	600.0 nm
EX Sampling interval:	5.0 nm
EM  Start WL:	230.0 nm
EM  End WL:	650.0 nm
EM Sampling interval:	5.0 nm
Scan speed:	12000 nm/min
EX Slit:	5.0 nm
EM Slit:	5.0 nm
PMT Voltage:	700 V
Response:	Auto 
Corrected spectra:	Off
Contour interval:	50.000

Peak integration
Integration method:	Rectangular
Sensitivity:	1
Threshold:	1.000

Peaks
No.	ApexEX/EM(nm)	Height(Data)
1	225.0/580.0	62.44
2	225.0/610.0	57.57
3	230.0/305.0	961.7
4	230.0/325.0	816.1
5	230.0/335.0	814.8
6	230.0/585.0	68.33
7	230.0/595.0	68.43
8	235.0/255.0	369.2
9	240.0/265.0	445.6
10	240.0/525.0	294.5
11	245.0/270.0	456.1
12	245.0/535.0	245.2
13	250.0/275.0	583.3
14	250.0/455.0	1196
15	250.0/550.0	191.4
16	255.0/280.0	679.1
17	255.0/560.0	153.0
18	260.0/575.0	131.9
19	265.0/585.0	122.4
20	270.0/300.0	1486
21	270.0/600.0	128.6
22	275.0/305.0	1500
23	275.0/610.0	100.9
24	280.0/625.0	76.82
25	285.0/635.0	47.18
26	290.0/325.0	683.5
27	295.0/330.0	512.7
28	300.0/335.0	485.8
29	305.0/345.0	428.7
30	310.0/350.0	361.9
31	315.0/355.0	354.8
32	320.0/360.0	350.6
33	320.0/405.0	281.9
34	325.0/370.0	311.6
35	330.0/375.0	307.9
36	330.0/410.0	282.5
37	335.0/380.0	314.0
38	335.0/415.0	281.0
39	340.0/390.0	281.9
40	345.0/395.0	281.3
41	350.0/400.0	291.0
42	360.0/415.0	253.4
43	365.0/420.0	241.8
44	430.0/505.0	23.66
45	445.0/525.0	13.63
46	455.0/540.0	8.243
47	460.0/305.0	2.535
48	470.0/560.0	4.249
49	485.0/265.0	2.214
50	495.0/270.0	2.014
51	505.0/275.0	3.086
52	505.0/455.0	4.830
53	510.0/280.0	3.806
54	520.0/285.0	4.157
55	530.0/290.0	4.187
56	540.0/295.0	6.078
57	545.0/300.0	7.273
58	550.0/305.0	7.163
59	560.0/310.0	6.077
60	570.0/315.0	5.432
61	580.0/320.0	4.384
62	585.0/325.0	4.118

Data points
	220.0	225.0	230.0	235.0	240.0	245.0	250.0	255.0	260.0	265.0	270.0	275.0	280.0	285.0	290.0	295.0	300.0	305.0	310.0	315.0	320.0	325.0	330.0	335.0	340.0	345.0	350.0	355.0	360.0	365.0	370.0	375.0	380.0	385.0	390.0	395.0	400.0	405.0	410.0	415.0	420.0	425.0	430.0	435.0	440.0	445.0	450.0	455.0	460.0	465.0	470.0	475.0	480.0	485.0	490.0	495.0	500.0	505.0	510.0	515.0	520.0	525.0	530.0	535.0	540.0	545.0	550.0	555.0	560.0	565.0	570.0	575.0	580.0	585.0	590.0	595.0	600.0
230.0	17.79	387.2	1009	331.5	10.75	2.215	1.409	1.473	1.220	1.211	1.148	1.109	0.922	0.983	0.635	0.457	0.471	0.352	0.378	0.371	0.377	0.265	0.250	0.264	0.221	0.186	0.203	0.172	0.141	0.107	0.143	0.108	0.140	0.119	0.154	0.135	0.121	0.069	0.094	0.102	0.097	0.142	0.113	0.083	0.069	0.048	0.368	1.734	3.178	2.273	0.830	0.136	0.032	0.027	0.032	0.031	0.042	0.029	0.025	0.030	0.039	0.042	0.031	0.022	0.000	0.023	0.010	0.009	0.010	0.013	0.009	0.008	0.028	-0.001	0.009	0.014	0.015
235.0	62.97	110.2	730.0	1343	450.9	17.77	2.031	1.686	1.631	1.163	1.081	0.942	1.059	0.906	0.537	0.350	0.457	0.433	0.408	0.518	0.312	0.315	0.260	0.290	0.306	0.197	0.232	0.160	0.134	0.128	0.111	0.121	0.090	0.127	0.204	0.114	0.107	0.078	0.105	0.091	0.112	0.137	0.113	0.142	0.159	0.097	0.123	0.472	1.299	2.563	3.871	4.175	1.842	0.343	0.054	0.038	0.060	0.062	0.017	0.010	0.023	0.033	0.012	0.027	0.036	0.007	0.047	0.062	0.012	0.009	0.007	-0.002	0.035	0.014	0.025	-0.006	0.018
240.0	99.16	83.84	231.7	1246	1602	364.2	9.579	2.415	1.596	1.694	1.146	0.912	0.852	0.963	0.536	0.560	0.445	0.393	0.405	0.410	0.332	0.369	0.251	0.260	0.239	0.240	0.214	0.147	0.145	0.187	0.188	0.127	0.154	0.167	0.127	0.053	0.070	0.067	0.083	0.084	0.133	0.076	0.055	0.132	0.255	0.362	0.214	0.177	0.380	0.781	2.369	5.606	7.137	4.530	1.374	0.188	0.042	0.053	0.031	0.028	0.034	0.035	0.024	0.020	0.021	0.003	0.012	0.030	0.034	0.011	-0.005	-0.003	0.030	0.011	0.021	0.001	0.005
245.0	82.64	170.3	108.9	446.5	1829	1684	241.8	5.059	2.705	1.975	1.782	1.085	1.375	0.957	0.670	0.636	0.548	0.449	0.391	0.364	0.436	0.306	0.261	0.263	0.235	0.298	0.183	0.153	0.182	0.184	0.191	0.153	0.093	0.132	0.122	0.060	0.051	0.121	0.103	0.098	0.107	0.063	0.099	0.111	0.200	0.439	0.492	0.361	0.248	0.210	0.608	2.038	5.069	8.506	7.853	3.880	0.858	0.080	0.045	0.026	0.032	0.040	0.056	0.030	0.004	0.015	-0.009	0.032	0.017	0.001	0.013	-0.007	0.026	0.023	0.011	0.007	-0.005
250.0	30.02	141.4	246.9	198.7	602.6	1708	2062	674.5	30.58	3.293	2.720	1.878	1.717	1.290	0.818	0.812	0.725	0.438	0.509	0.427	0.450	0.396	0.346	0.242	0.312	0.285	0.305	0.231	0.169	0.194	0.132	0.178	0.128	0.141	0.147	0.105	0.066	0.073	0.102	0.105	0.079	0.063	0.078	0.100	0.108	0.183	0.304	0.511	0.736	0.612	0.426	0.576	1.274	2.827	5.118	7.702	9.577	7.981	4.048	0.966	0.092	0.070	0.042	0.038	0.042	0.043	0.015	0.052	0.023	0.011	0.021	0.006	0.023	0.014	0.022	0.019	0.014
255.0	20.68	41.31	187.3	369.2	229.5	441.5	1630	3117	340.3	27.24	2.766	2.956	1.844	1.534	1.141	0.857	0.822	0.553	0.621	0.669	0.644	0.406	0.394	0.290	0.295	0.277	0.288	0.293	0.267	0.230	0.187	0.128	0.180	0.124	0.109	0.112	0.084	0.160	0.081	0.106	0.087	0.118	0.104	0.092	0.108	0.081	0.112	0.203	0.343	0.742	1.152	1.100	0.610	0.779	1.265	1.920	3.679	8.542	15.26	14.07	6.180	3.055	0.098	0.050	0.023	0.060	0.073	0.042	0.020	0.032	0.013	0.052	0.026	0.050	0.039	0.032	0.051
260.0	12.75	17.58	68.71	343.7	349.9	153.3	488.4	2611	2685	270.5	13.72	4.775	3.014	1.756	1.435	1.208	0.951	0.643	0.576	0.682	0.668	0.375	0.498	0.272	0.353	0.327	0.337	0.275	0.331	0.260	0.170	0.214	0.216	0.093	0.127	0.135	0.128	0.118	0.064	0.170	0.101	0.143	0.109	0.090	0.121	0.086	0.099	0.140	0.137	0.293	0.736	1.642	1.757	0.908	0.450	0.550	0.971	2.346	6.623	14.07	20.52	28.66	4.047	0.430	0.021	0.150	0.011	0.044	0.019	0.029	0.034	0.030	0.031	0.042	0.032	0.028	0.036
265.0	12.73	13.90	23.26	153.9	445.6	252.2	142.9	869.2	3366	2292	197.8	7.332	3.474	2.304	1.400	1.734	1.100	0.667	0.568	0.782	0.567	0.433	0.416	0.350	0.338	0.319	0.339	0.208	0.257	0.195	0.198	0.131	0.215	0.178	0.205	0.180	0.164	0.162	0.066	0.191	0.166	0.123	0.122	0.104	0.146	0.130	0.135	0.130	0.079	0.114	0.261	0.835	1.794	2.214	1.143	0.485	0.331	0.604	1.654	4.122	11.85	61.12	20.69	10.76	1.901	0.230	0.064	0.074	0.068	0.024	0.054	0.065	0.037	0.025	0.025	0.019	0.047
270.0	18.66	16.47	15.88	45.03	209.0	456.1	291.3	242.5	1082	2945	3347	798.2	30.47	3.502	2.056	1.863	1.257	1.013	0.695	0.784	0.721	0.625	0.539	0.439	0.429	0.315	0.390	0.276	0.227	0.263	0.229	0.175	0.258	0.180	0.262	0.197	0.174	0.187	0.113	0.135	0.117	0.163	0.134	0.109	0.156	0.091	0.135	0.122	0.082	0.095	0.118	0.262	0.603	1.129	1.686	2.014	1.743	0.741	0.625	1.104	2.895	17.38	10.86	16.05	18.22	16.40	8.483	1.879	0.195	0.059	0.061	0.033	0.050	0.028	0.023	0.047	0.055
275.0	35.14	41.57	27.91	27.08	61.66	200.7	583.3	335.3	289.6	757.0	2658	5598	968.3	21.90	3.620	2.142	1.408	1.035	0.799	0.900	0.852	0.740	0.678	0.612	0.623	0.445	0.511	0.460	0.366	0.297	0.276	0.228	0.204	0.285	0.203	0.239	0.213	0.200	0.230	0.148	0.153	0.168	0.178	0.132	0.172	0.107	0.148	0.136	0.102	0.119	0.119	0.148	0.221	0.364	0.502	0.932	2.336	3.086	2.370	0.812	0.877	4.166	2.645	3.903	5.692	12.83	24.06	24.86	11.22	1.920	0.178	0.047	0.087	0.110	0.098	0.069	0.043
280.0	90.78	98.28	91.11	51.85	42.52	75.79	368.8	679.1	239.0	252.4	814.3	4430	4592	162.0	10.96	3.021	2.133	1.186	0.999	1.036	1.123	0.827	0.699	0.678	0.517	0.581	0.494	0.487	0.353	0.292	0.279	0.322	0.319	0.417	0.267	0.244	0.222	0.235	0.194	0.156	0.206	0.193	0.179	0.240	0.261	0.268	0.270	0.338	0.341	0.215	0.214	0.145	0.183	0.235	0.236	0.365	0.863	1.925	3.806	3.018	1.459	1.416	0.993	1.266	1.638	3.471	8.806	19.50	28.07	22.08	7.428	1.044	0.130	0.086	0.054	0.087	0.078
285.0	180.0	253.8	225.4	129.0	70.47	58.57	164.5	619.9	620.7	250.7	362.4	1481	4712	3533	114.8	5.475	2.834	1.674	1.465	1.160	1.174	1.103	0.855	0.652	0.540	0.610	0.467	0.376	0.428	0.346	0.322	0.365	0.292	0.420	0.396	0.299	0.258	0.291	0.230	0.200	0.324	0.210	0.243	0.385	0.396	0.560	0.498	0.629	0.639	0.411	0.430	0.353	0.310	0.334	0.280	0.308	0.425	0.882	2.070	3.548	4.157	2.353	1.163	1.054	1.149	1.598	2.724	5.726	12.65	23.25	28.13	17.68	3.994	0.328	0.096	0.078	0.078
290.0	320.0	527.7	492.8	312.2	158.2	99.83	130.2	317.2	752.1	799.7	526.7	701.8	1608	3365	2652	461.3	20.03	3.055	2.253	1.808	1.569	1.193	0.995	0.900	0.612	0.615	0.549	0.496	0.431	0.390	0.336	0.379	0.440	0.454	0.439	0.350	0.467	0.353	0.333	0.249	0.362	0.371	0.347	0.503	0.624	0.867	1.077	1.407	1.428	1.134	0.910	0.791	0.581	0.479	0.448	0.339	0.474	0.597	0.979	1.674	2.511	4.044	4.187	3.328	2.307	1.980	2.205	2.811	4.379	7.198	12.06	17.66	20.16	18.94	11.25	3.632	0.499
295.0	467.2	742.8	768.6	517.2	266.9	166.0	163.5	252.8	485.7	1039	1156	740.7	782.5	978.3	2074	4161	610.0	14.66	3.445	2.419	1.756	1.270	1.167	1.034	1.016	0.846	0.629	0.484	0.465	0.488	0.421	0.479	0.456	0.636	0.623	0.572	0.443	0.414	0.329	0.329	0.434	0.421	0.531	0.688	0.997	1.117	1.615	2.156	1.985	1.619	1.488	1.388	1.002	0.731	0.648	0.605	0.634	0.778	0.840	1.274	1.687	2.586	3.235	5.351	6.078	4.600	3.218	3.103	3.285	3.504	4.078	4.990	5.644	10.25	20.94	25.80	15.47
300.0	527.4	874.3	925.0	608.0	337.0	211.8	202.4	261.9	426.9	796.6	1486	1077	668.5	452.1	623.4	3029	3513	95.30	6.937	3.250	2.424	1.873	1.185	1.109	1.028	0.946	0.636	0.573	0.455	0.455	0.450	0.410	0.504	0.607	0.668	0.646	0.576	0.454	0.374	0.307	0.521	0.478	0.623	0.793	1.026	1.547	1.854	2.234	2.377	2.241	1.783	1.645	1.364	1.101	0.873	0.772	0.782	0.900	0.995	1.328	1.550	2.155	2.582	3.669	5.573	7.273	6.157	4.197	3.405	2.800	2.718	2.355	1.886	2.806	6.454	14.62	25.85
305.0	545.2	893.4	961.7	665.5	374.7	253.0	233.4	284.4	434.6	682.6	1215	1500	788.6	369.9	239.0	912.7	3381	2623	70.51	4.570	2.952	2.094	1.398	1.497	1.097	0.821	0.690	0.715	0.581	0.468	0.609	0.472	0.485	0.668	0.610	0.680	0.551	0.474	0.488	0.405	0.403	0.597	0.530	0.796	0.988	1.435	1.904	2.415	2.535	2.394	1.761	1.880	1.540	1.127	1.010	0.790	1.023	1.000	1.145	1.306	1.480	2.109	2.387	3.120	3.933	5.651	7.163	6.668	4.590	3.161	2.445	1.759	1.148	1.265	1.919	3.872	9.488
310.0	505.4	847.8	923.3	661.9	396.8	284.5	251.0	298.3	414.6	622.7	893.6	1229	1179	492.5	178.3	270.4	990.9	2400	2738	326.7	15.27	3.083	2.167	1.551	1.326	1.193	0.964	0.762	0.708	0.638	0.561	0.452	0.522	0.597	0.672	0.567	0.653	0.527	0.487	0.400	0.432	0.476	0.532	0.735	0.983	1.261	1.745	2.433	2.521	2.237	1.989	1.866	1.530	1.263	1.167	1.023	1.053	0.995	1.178	1.314	1.569	1.949	2.392	2.806	3.105	3.905	4.652	5.595	6.077	5.517	3.754	1.960	1.195	0.952	0.963	1.225	2.425
315.0	453.4	753.6	815.2	614.2	399.1	289.8	256.8	291.4	387.3	550.6	729.9	857.8	965.4	867.6	267.7	143.6	274.9	594.7	1807	3859	482.5	12.44	2.952	1.997	1.787	1.458	0.997	0.850	0.787	0.676	0.574	0.581	0.521	0.483	0.744	0.618	0.497	0.546	0.442	0.390	0.432	0.393	0.524	0.678	0.862	1.293	1.605	2.076	2.259	2.012	1.711	1.706	1.536	1.262	1.158	0.990	1.097	0.991	1.139	1.207	1.486	1.904	2.030	2.474	2.903	3.424	3.729	3.624	4.076	4.328	5.432	4.509	2.401	1.224	0.807	0.773	0.975
320.0	426.0	693.1	802.8	581.0	382.8	291.4	255.3	284.1	375.8	524.6	668.8	724.3	719.5	833.4	535.4	146.2	130.8	179.4	496.2	2832	3876	73.36	6.283	2.736	2.027	1.549	1.111	0.785	0.648	0.667	0.596	0.621	0.576	0.562	0.669	0.675	0.520	0.543	0.366	0.380	0.343	0.460	0.458	0.704	0.838	1.224	1.520	1.880	2.334	1.882	1.562	1.713	1.404	1.258	1.180	1.035	1.103	1.124	1.159	1.242	1.465	1.666	1.992	2.289	2.668	3.095	3.030	2.969	3.100	3.242	3.419	4.180	4.384	2.798	1.310	0.797	0.686
325.0	406.5	698.6	816.1	582.8	392.1	294.6	265.2	286.2	363.0	491.0	626.4	664.7	617.6	594.3	683.5	308.4	120.5	99.10	150.5	839.8	3941	3164	60.86	4.465	2.654	1.786	1.333	1.064	0.955	0.714	0.642	0.663	0.512	0.680	0.541	0.674	0.487	0.426	0.360	0.352	0.435	0.441	0.398	0.602	0.779	1.084	1.538	1.816	2.198	2.074	1.699	1.705	1.504	1.195	1.121	1.157	0.948	1.143	1.090	1.280	1.524	1.550	1.992	2.180	2.548	2.890	2.928	2.756	3.026	2.774	2.718	2.638	3.303	4.118	2.969	1.675	0.924
330.0	375.0	660.1	781.1	626.4	420.6	310.4	274.3	283.0	345.0	460.1	570.8	612.5	566.5	472.5	479.1	512.7	274.9	103.1	88.15	229.7	1164	2921	3065	274.3	15.33	2.610	1.843	1.406	0.991	0.837	0.683	0.603	0.650	0.707	0.562	0.435	0.437	0.407	0.413	0.330	0.430	0.403	0.404	0.560	0.821	1.085	1.486	1.902	2.225	2.075	1.840	1.793	1.586	1.303	1.170	1.151	1.083	1.219	1.183	1.233	1.503	1.657	1.838	1.991	2.328	2.575	2.582	2.510	2.647	2.553	2.410	2.087	2.167	2.487	2.848	3.118	2.649
335.0	356.4	620.6	814.8	663.5	487.9	361.2	305.6	298.5	348.1	451.5	537.2	583.4	555.9	461.4	378.2	389.7	485.8	237.8	100.8	113.2	308.4	717.7	2023	3633	426.9	12.28	2.724	1.935	1.292	0.981	0.970	0.764	0.724	0.655	0.578	0.439	0.453	0.493	0.482	0.265	0.386	0.540	0.419	0.516	0.776	0.961	1.436	1.992	2.058	2.127	2.059	1.931	1.794	1.625	1.579	1.359	1.237	1.356	1.217	1.364	1.531	1.655	1.690	2.055	2.138	2.497	2.458	2.461	2.587	2.495	2.293	2.076	1.915	2.006	1.991	1.972	2.624
340.0	373.8	621.6	814.5	706.2	534.5	408.1	338.1	331.6	365.7	455.5	536.1	578.2	549.5	462.2	371.4	314.8	416.1	422.3	159.8	102.8	133.7	211.4	563.9	2630	3293	62.34	5.362	2.174	1.555	1.105	1.063	0.825	0.702	0.640	0.585	0.542	0.468	0.422	0.381	0.324	0.315	0.523	0.417	0.563	0.777	0.978	1.314	2.016	2.102	2.087	2.230	2.069	2.074	1.923	1.617	1.523	1.285	1.311	1.267	1.515	1.533	1.691	2.014	1.986	2.220	2.387	2.316	2.440	2.519	2.521	2.231	2.335	1.898	2.114	1.826	1.704	1.778
345.0	326.8	589.2	796.0	732.3	562.2	428.3	349.9	347.3	366.7	450.5	519.0	553.4	530.1	470.1	374.9	307.8	299.8	428.7	295.6	126.8	106.7	108.2	175.4	789.0	3099	2457	52.24	3.668	1.889	1.228	1.116	0.814	0.655	0.663	0.613	0.545	0.421	0.417	0.356	0.338	0.341	0.411	0.493	0.472	0.674	0.946	1.229	1.744	2.046	2.074	1.954	2.243	2.078	1.842	1.718	1.628	1.591	1.454	1.529	1.360	1.694	1.753	1.820	2.005	2.055	2.293	2.250	2.370	2.156	2.513	2.175	2.261	2.231	2.130	1.753	1.526	1.578
350.0	299.8	535.0	714.3	698.1	562.1	450.2	371.5	350.3	368.4	430.3	483.5	512.3	501.7	457.2	374.3	313.5	267.9	290.7	361.9	259.0	132.2	101.1	103.9	226.4	908.2	2176	2247	240.0	12.68	1.889	1.390	0.964	0.750	0.682	0.607	0.526	0.478	0.434	0.366	0.325	0.351	0.373	0.435	0.435	0.679	0.868	1.131	1.560	2.044	1.971	1.924	2.276	1.998	1.943	1.819	1.608	1.674	1.416	1.546	1.573	1.560	1.813	1.881	1.909	1.979	2.277	2.059	2.285	2.273	2.288	2.199	2.168	2.100	2.017	1.904	1.757	1.647
355.0	278.5	471.9	651.9	665.7	570.1	451.6	391.4	358.4	369.9	422.9	471.3	483.4	475.9	440.1	375.2	322.6	274.9	245.7	260.4	354.8	244.8	125.8	106.4	118.1	244.8	532.2	1487	2682	366.7	8.293	1.956	1.165	1.000	0.779	0.729	0.556	0.498	0.488	0.516	0.307	0.393	0.405	0.471	0.397	0.498	0.968	1.120	1.451	1.793	1.767	1.939	2.254	1.981	2.088	1.841	1.659	1.743	1.573	1.623	1.435	1.506	1.762	1.917	2.004	1.870	2.138	1.982	2.042	2.024	2.105	2.250	2.213	1.878	2.077	1.957	1.709	1.644
360.0	255.2	448.9	612.2	633.6	561.6	465.7	393.4	371.7	375.8	424.9	451.1	465.1	460.6	423.2	373.3	327.5	282.0	244.7	226.9	291.5	350.6	183.6	121.7	105.1	107.0	152.8	414.1	2022	2378	56.45	3.673	1.590	1.227	0.910	0.703	0.552	0.536	0.468	0.415	0.360	0.394	0.442	0.435	0.431	0.515	0.809	1.001	1.341	1.537	1.747	1.765	2.018	1.968	2.061	1.885	1.603	1.694	1.546	1.540	1.565	1.679	1.943	1.922	1.797	1.942	1.989	2.004	2.043	2.052	2.121	2.033	2.095	1.777	1.758	1.966	1.676	1.742
365.0	243.7	406.0	577.7	604.8	555.2	467.8	395.3	373.7	375.6	419.7	436.6	445.7	437.5	410.8	364.5	323.9	287.2	252.0	227.6	239.1	331.7	290.0	151.7	115.1	85.46	77.67	124.0	610.2	2368	1835	44.57	2.401	1.478	1.187	0.745	0.545	0.525	0.508	0.320	0.389	0.418	0.365	0.368	0.369	0.484	0.630	0.978	1.245	1.415	1.580	1.649	1.954	1.881	1.961	1.852	1.638	1.661	1.589	1.655	1.564	1.467	1.979	1.668	1.859	1.831	2.044	2.011	1.968	2.054	2.084	1.999	2.020	1.919	1.954	1.687	1.806	1.752
370.0	220.6	371.1	522.7	568.3	538.4	466.9	406.1	370.2	375.2	411.2	424.2	424.0	418.2	394.0	359.9	323.4	292.1	266.0	242.1	232.6	256.1	311.6	261.0	152.7	103.5	78.29	70.46	167.2	707.9	1764	1749	202.7	9.861	1.601	1.049	0.682	0.586	0.484	0.355	0.388	0.370	0.363	0.353	0.398	0.552	0.625	0.885	1.167	1.275	1.422	1.576	1.803	1.934	1.910	1.818	1.692	1.692	1.628	1.656	1.671	1.546	1.774	1.673	1.711	1.849	1.826	1.856	1.781	1.837	2.036	1.984	1.995	1.884	1.822	1.843	1.834	1.700
375.0	192.8	350.8	483.8	540.5	528.3	484.0	427.6	383.0	373.7	395.6	411.6	410.9	403.9	376.4	342.6	321.9	298.9	275.4	256.5	243.5	238.3	248.5	307.9	253.6	135.1	98.40	75.70	80.54	188.7	435.9	1271	2081	298.1	6.513	1.590	0.988	0.608	0.483	0.446	0.325	0.324	0.418	0.380	0.375	0.455	0.679	0.858	1.063	1.223	1.339	1.428	1.704	1.924	1.886	1.791	1.701	1.700	1.751	1.572	1.514	1.580	1.768	1.751	1.586	1.496	1.763	1.668	1.546	1.944	1.970	1.786	1.706	1.841	1.680	1.681	1.618	1.825
380.0	191.0	319.4	470.9	542.4	522.7	495.8	441.1	400.1	384.6	386.2	396.8	406.5	395.2	374.2	341.6	317.5	299.6	282.1	263.9	252.9	242.5	236.8	270.3	314.0	194.2	120.4	92.38	73.31	83.51	126.1	360.9	1643	1885	46.03	3.069	1.310	0.801	0.605	0.506	0.391	0.393	0.390	0.376	0.333	0.551	0.632	0.661	0.970	1.152	1.269	1.471	1.751	1.855	1.909	1.962	1.978	1.697	1.894	1.540	1.743	1.521	1.803	1.672	1.536	1.490	1.932	1.659	1.802	1.915	1.844	1.645	1.869	1.784	1.756	1.858	1.591	1.719
385.0	176.3	328.1	456.7	520.5	559.3	521.5	465.9	417.2	388.3	394.5	399.0	398.4	382.8	366.1	336.4	317.4	298.2	284.2	273.7	263.5	252.2	242.5	241.9	296.5	272.5	157.3	111.2	86.78	70.92	65.80	107.2	509.2	1956	1363	35.31	2.042	0.958	0.735	0.585	0.464	0.478	0.360	0.436	0.365	0.505	0.787	0.736	1.002	1.110	1.307	1.447	1.823	1.731	2.053	1.822	1.932	1.822	2.039	1.740	1.797	1.782	1.893	1.579	1.819	1.642	1.907	1.777	1.584	1.718	1.750	1.657	1.831	1.919	1.928	1.845	1.641	1.642
390.0	175.4	313.1	454.1	539.3	583.1	569.2	526.1	462.2	411.6	408.8	410.0	405.3	389.5	368.5	341.4	318.3	302.0	288.0	279.1	271.9	263.1	252.8	244.9	254.0	281.9	248.7	157.9	114.9	89.77	69.50	62.29	140.0	592.6	1311	904.8	156.0	6.991	1.155	0.746	0.558	0.513	0.415	0.440	0.436	0.554	0.550	0.754	1.070	1.194	1.403	1.465	1.814	1.898	2.195	1.951	2.091	2.061	2.111	2.022	1.958	1.786	1.880	1.646	1.796	1.696	1.744	1.717	1.730	1.804	1.790	1.777	1.860	1.773	1.926	1.736	1.669	1.664
395.0	194.6	319.7	440.6	552.1	630.3	634.6	590.5	517.2	439.3	420.8	429.5	422.3	400.1	370.8	346.8	321.4	302.4	287.9	279.4	279.4	273.5	267.2	259.4	253.9	250.8	281.3	244.9	155.5	117.2	88.93	66.89	67.57	155.3	324.2	791.6	1356	225.2	4.644	1.137	0.681	0.581	0.614	0.528	0.473	0.539	0.580	0.748	1.078	1.179	1.417	1.450	1.883	2.206	2.306	2.431	2.264	2.535	2.243	2.319	2.092	1.862	1.821	1.821	1.906	1.732	1.702	1.884	1.664	1.589	1.681	1.791	1.849	1.728	1.868	1.808	1.799	1.822
400.0	196.2	303.0	464.8	581.8	656.2	686.5	648.3	561.6	461.3	431.7	428.0	417.7	398.8	379.3	348.6	327.5	300.7	285.5	281.4	276.4	278.9	274.3	268.8	265.7	248.6	259.9	291.0	213.2	142.0	109.6	80.41	60.54	64.59	91.80	229.0	1047	1093	38.63	2.323	0.823	0.669	0.626	0.476	0.489	0.543	0.675	0.775	0.995	1.125	1.330	1.496	1.930	2.130	2.514	2.469	2.402	2.803	2.443	2.342	2.227	2.060	1.948	1.949	1.721	1.832	1.780	1.916	1.851	1.885	1.873	1.715	1.679	1.901	1.844	1.730	1.717	1.793
405.0	207.9	330.4	471.3	598.2	673.4	710.4	681.5	584.2	469.8	438.1	434.8	432.0	404.6	391.0	353.7	330.0	302.3	283.0	280.7	280.1	281.9	276.7	280.5	270.5	260.9	251.2	275.5	274.0	177.8	126.5	95.84	68.64	51.41	44.55	67.15	319.3	1072	817.3	30.17	1.402	0.778	0.670	0.489	0.534	0.551	0.746	0.836	0.956	1.113	1.263	1.428	2.008	2.130	2.777	2.729	2.547	2.693	2.575	2.518	2.420	2.109	2.082	1.831	1.789	1.903	1.878	1.965	1.662	1.814	1.810	1.900	1.700	1.981	1.826	1.712	1.860	1.704
410.0	194.5	322.4	468.6	595.6	711.5	733.8	738.2	619.6	494.7	452.6	447.3	430.2	407.9	392.4	355.2	328.4	296.8	280.8	276.1	277.0	277.8	282.3	282.5	279.0	269.9	257.1	252.3	270.4	242.9	163.6	114.9	81.80	57.43	41.71	35.60	86.07	315.1	757.6	629.3	140.5	6.274	0.969	0.687	0.621	0.591	0.778	0.816	1.056	1.118	1.340	1.534	2.077	2.324	2.502	2.871	2.722	2.965	2.743	2.673	2.449	2.155	2.250	1.848	1.976	1.864	1.843	1.934	1.762	1.843	1.838	1.943	1.771	1.835	1.868	1.797	1.787	1.702
