Sample:	'1
File name:	Default_20230428_141030.FD3
Run date:	'14:04:09, 04/28/2023
Operator:	user
Comment:	'

Instrument
Model:	F-2700 FL Spectrophotometer
Serial number:	2190-003
ROM Version:	4J14000 07

Instrument parameters
Measurement type:	3-D scan
Data mode:	Fluorescence
EX  Start WL:	220.0 nm
EX  End WL:	600.0 nm
EX Sampling interval:	5.0 nm
EM  Start WL:	230.0 nm
EM  End WL:	650.0 nm
EM Sampling interval:	5.0 nm
Scan speed:	12000 nm/min
EX Slit:	5.0 nm
EM Slit:	5.0 nm
PMT Voltage:	700 V
Response:	Auto 
Corrected spectra:	Off
Contour interval:	50.000

Peak integration
Integration method:	Rectangular
Sensitivity:	1
Threshold:	1.000

Peaks
No.	ApexEX/EM(nm)	Height(Data)
1	225.0/550.0	51.06
2	225.0/630.0	41.17
3	230.0/335.0	274.1
4	230.0/460.0	940.2
5	230.0/560.0	48.36
6	230.0/590.0	48.52
7	235.0/555.0	50.39
8	240.0/375.0	286.6
9	245.0/265.0	200.0
10	245.0/530.0	124.5
11	250.0/540.0	121.7
12	250.0/630.0	26.47
13	255.0/555.0	113.5
14	255.0/605.0	26.23
15	260.0/285.0	444.8
16	260.0/565.0	95.17
17	260.0/620.0	29.96
18	265.0/290.0	476.5
19	265.0/440.0	400.1
20	265.0/580.0	95.86
21	270.0/245.0	16.11
22	270.0/295.0	663.5
23	270.0/445.0	403.5
24	270.0/590.0	87.60
25	275.0/305.0	849.0
26	275.0/415.0	430.8
27	275.0/435.0	419.7
28	275.0/600.0	91.75
29	280.0/310.0	891.0
30	280.0/330.0	627.7
31	280.0/405.0	440.2
32	280.0/425.0	414.5
33	280.0/615.0	78.89
34	285.0/315.0	881.6
35	285.0/400.0	437.4
36	285.0/625.0	65.91
37	290.0/320.0	877.0
38	290.0/395.0	433.9
39	290.0/640.0	52.48
40	300.0/335.0	478.5
41	305.0/340.0	476.6
42	310.0/345.0	422.7
43	320.0/360.0	382.0
44	325.0/365.0	384.4
45	325.0/415.0	336.3
46	330.0/370.0	335.8
47	335.0/380.0	351.2
48	340.0/385.0	359.8
49	345.0/390.0	321.8
50	350.0/395.0	315.8
51	355.0/405.0	307.3
52	360.0/410.0	282.1
53	365.0/415.0	267.9
54	370.0/425.0	254.5
55	385.0/445.0	182.6
56	400.0/465.0	115.1
57	415.0/485.0	72.28
58	425.0/495.0	53.47
59	430.0/505.0	43.88
60	440.0/515.0	31.06
61	445.0/525.0	26.20
62	450.0/530.0	22.89
63	455.0/535.0	20.11
64	460.0/545.0	16.03
65	495.0/595.0	3.576
66	520.0/285.0	2.859
67	525.0/290.0	3.240
68	545.0/300.0	4.367
69	550.0/305.0	4.130
70	560.0/310.0	4.317
71	570.0/315.0	4.216
72	575.0/320.0	4.036

Data points
	220.0	225.0	230.0	235.0	240.0	245.0	250.0	255.0	260.0	265.0	270.0	275.0	280.0	285.0	290.0	295.0	300.0	305.0	310.0	315.0	320.0	325.0	330.0	335.0	340.0	345.0	350.0	355.0	360.0	365.0	370.0	375.0	380.0	385.0	390.0	395.0	400.0	405.0	410.0	415.0	420.0	425.0	430.0	435.0	440.0	445.0	450.0	455.0	460.0	465.0	470.0	475.0	480.0	485.0	490.0	495.0	500.0	505.0	510.0	515.0	520.0	525.0	530.0	535.0	540.0	545.0	550.0	555.0	560.0	565.0	570.0	575.0	580.0	585.0	590.0	595.0	600.0
230.0	43.51	157.0	 1495	 1205	102.4	19.94	18.17	14.10	13.12	12.23	11.77	10.97	9.475	7.895	6.609	5.774	5.096	4.966	4.449	4.390	4.000	2.956	3.112	3.073	3.369	2.630	2.581	2.388	2.535	2.466	2.196	2.269	1.941	2.031	1.980	1.698	1.666	1.812	1.802	1.799	1.460	1.343	1.502	1.372	1.439	1.369	1.438	3.084	5.920	5.798	2.704	1.351	0.982	0.929	1.005	1.077	1.014	1.070	1.083	1.009	0.894	1.006	0.886	0.911	1.015	0.894	0.973	0.941	0.777	0.833	0.964	0.780	0.988	0.813	0.926	0.845	0.965
235.0	51.52	66.97	558.0	 1966	 1458	154.8	18.17	14.51	15.63	14.23	11.93	10.79	8.651	8.791	6.874	5.950	4.380	4.617	4.594	4.417	3.905	2.926	3.943	2.586	3.093	2.556	1.886	2.454	2.671	2.827	2.109	2.439	1.954	1.979	1.663	1.960	1.729	1.847	1.517	1.739	1.184	1.250	1.280	1.216	1.185	1.301	1.182	1.659	2.618	4.588	6.609	7.975	3.977	1.670	1.026	1.105	1.375	1.053	1.087	0.893	0.969	0.669	0.806	1.119	0.834	1.039	0.834	1.229	0.894	1.015	0.799	0.967	1.055	1.023	1.051	0.916	1.021
240.0	44.14	58.45	159.9	913.8	 2682	 1393	90.37	14.14	14.71	10.54	15.20	12.75	8.692	7.887	7.566	6.597	4.827	5.526	4.561	3.666	3.751	2.752	2.720	2.920	2.585	2.896	2.027	2.264	2.656	2.182	2.177	2.369	1.730	1.946	1.898	1.616	1.937	1.730	1.553	1.399	1.687	1.363	1.558	1.247	1.586	1.432	1.373	1.433	1.605	1.945	3.589	8.477	12.36	8.877	3.970	1.347	1.404	0.973	0.967	0.949	0.812	0.699	1.056	0.817	1.083	0.967	0.914	1.115	0.966	1.050	0.625	0.799	0.971	0.880	0.719	1.183	0.781
245.0	47.68	53.48	87.15	260.7	 1574	 3439	 1169	46.94	16.15	10.95	16.11	12.10	10.89	8.230	7.290	5.813	6.425	4.538	5.350	3.398	3.804	3.054	2.766	2.886	2.071	3.094	2.406	2.755	2.504	2.370	1.991	2.357	1.676	1.796	1.879	2.081	1.745	1.694	1.587	1.599	1.569	1.181	1.741	1.353	1.388	1.673	1.323	1.526	1.054	1.352	1.493	3.187	7.538	13.94	14.14	8.594	2.481	0.879	0.930	0.847	0.764	0.672	0.820	0.887	0.876	1.126	1.231	0.934	0.810	1.131	1.012	0.785	0.982	0.840	1.195	0.765	0.989
250.0	37.04	45.84	93.06	114.8	418.1	 1826	 3862	 2879	375.2	15.58	14.87	13.19	11.55	8.669	7.308	6.807	6.174	5.264	4.786	4.024	3.828	3.542	3.184	3.349	2.817	3.092	2.891	2.725	2.334	2.110	2.154	1.877	1.831	1.842	1.631	1.970	1.432	1.646	1.808	1.593	1.462	1.275	1.759	1.494	1.425	1.556	1.389	1.317	1.345	1.405	1.121	1.456	2.543	5.153	8.880	13.83	17.33	15.02	8.547	2.591	0.979	0.813	0.877	1.104	0.893	0.918	0.937	0.886	0.774	0.867	0.867	0.921	0.935	0.938	0.910	0.783	0.787
255.0	34.43	42.93	52.64	119.1	171.1	439.7	 1405	 5669	 5411	506.6	18.51	17.54	11.93	9.765	9.533	7.523	5.741	5.353	4.269	5.137	3.654	3.913	3.426	3.055	3.024	2.622	2.781	2.888	2.616	2.044	2.046	2.129	2.184	2.291	1.784	2.253	1.939	1.580	1.463	1.567	1.900	1.281	1.739	1.632	1.642	1.472	1.475	1.439	1.181	1.180	1.262	1.411	1.650	1.922	2.733	4.178	6.937	15.45	29.68	27.39	12.14	2.242	0.927	0.941	0.736	0.979	0.782	0.972	0.782	0.858	0.941	0.635	0.996	1.124	0.760	0.689	0.866
260.0	35.60	45.23	33.65	82.04	166.8	167.1	349.9	 2546	 8312	 5364	283.2	20.29	13.56	11.01	10.77	8.528	6.200	5.896	4.820	4.635	4.067	3.333	3.973	3.360	2.811	2.711	3.057	3.116	2.533	2.004	2.309	2.357	2.333	1.770	1.795	2.111	1.328	1.560	1.949	1.440	1.645	1.424	1.630	1.453	1.558	1.700	1.596	1.177	1.321	1.389	1.191	1.641	1.777	1.675	1.699	1.931	2.522	4.851	13.43	29.72	39.57	26.67	7.879	1.344	1.019	0.818	0.637	0.800	0.903	1.184	0.813	0.849	0.866	0.825	0.764	0.917	0.985
265.0	53.93	44.83	30.51	46.11	143.7	200.0	122.1	639.9	 4202	9999.9	 4383	127.9	18.63	12.33	12.06	9.002	7.167	6.157	6.581	4.156	4.060	2.550	3.576	3.738	2.813	2.351	2.389	2.822	2.885	2.491	2.660	2.015	1.912	2.284	1.614	1.835	1.596	1.570	1.434	1.614	1.388	1.671	1.601	1.227	1.527	1.403	1.487	1.618	1.351	1.209	0.862	1.231	1.496	1.983	2.145	1.576	1.550	2.163	3.883	9.996	22.84	43.43	42.86	19.49	3.503	1.041	0.755	1.089	1.336	0.956	0.821	0.891	0.954	0.763	0.896	0.934	0.976
270.0	48.06	41.51	39.64	35.40	63.56	170.3	237.6	218.8	 1035	 4521	9999.9	 6714	388.5	20.64	15.58	10.11	9.279	6.883	6.885	5.435	4.696	4.272	3.125	3.442	2.873	3.006	2.936	2.645	2.549	2.594	2.527	2.228	2.243	1.923	1.579	1.747	1.921	1.704	1.736	1.568	1.428	1.509	1.534	1.769	1.473	1.640	1.336	1.316	1.277	1.200	0.947	1.184	1.169	1.719	1.845	2.023	1.897	1.748	1.617	3.163	6.216	13.59	24.03	36.11	41.14	31.99	14.31	2.647	1.066	0.947	0.865	0.995	0.885	0.937	1.155	0.877	0.854
275.0	44.40	41.45	41.65	38.16	42.13	63.02	191.4	333.2	305.7	 1045	 3071	9999.9	 6593	495.0	21.54	13.55	9.250	7.955	6.236	5.983	4.159	5.153	4.255	3.643	3.490	3.829	2.673	2.666	2.848	3.062	2.657	2.101	2.445	2.040	1.754	2.114	1.905	1.658	1.853	1.386	1.326	1.317	1.444	1.655	1.546	1.462	1.254	1.374	1.131	1.049	1.023	1.261	1.058	1.265	1.278	1.723	2.027	2.494	1.903	1.610	2.278	3.841	6.122	9.578	15.85	36.33	62.46	48.97	15.13	2.067	0.927	0.899	1.049	0.981	0.718	0.999	1.061
280.0	49.78	61.40	48.08	48.29	34.72	34.52	87.60	323.5	317.5	281.1	752.8	 3994	9999.9	 5491	317.5	16.81	12.28	8.961	7.276	7.065	5.033	5.039	3.666	3.349	3.797	3.846	3.440	2.580	3.346	2.238	2.669	2.032	1.871	2.524	2.177	1.768	2.084	1.521	1.531	1.365	1.257	1.465	1.470	1.217	1.403	1.588	1.330	1.408	1.023	1.139	1.354	1.214	1.171	1.057	0.992	1.100	1.522	2.011	2.667	2.314	1.827	1.899	2.100	3.043	4.415	10.33	28.16	59.50	69.61	36.88	6.726	1.033	1.327	0.817	0.804	0.898	1.129
285.0	59.87	58.76	67.23	55.06	37.58	35.05	49.11	156.1	444.8	255.4	223.1	 1007	 5554	9999.9	 4216	145.1	16.18	11.27	8.886	7.984	5.147	4.334	4.416	3.145	3.249	3.414	3.529	3.025	2.840	2.155	2.594	2.267	2.229	2.241	2.343	2.070	2.069	1.652	1.560	1.796	1.509	1.331	1.662	1.170	1.617	1.413	1.363	1.215	1.000	0.964	1.323	1.260	0.993	1.076	1.252	1.026	1.151	1.640	2.175	2.576	2.859	2.087	1.554	1.598	1.846	3.197	7.423	18.70	43.88	71.23	59.33	20.90	2.453	0.854	0.738	1.019	1.188
290.0	65.12	81.63	87.90	76.20	47.90	43.77	49.49	86.35	245.5	476.5	323.8	354.4	 1428	 5378	9999.9	 9157	249.2	18.37	12.57	9.852	6.625	5.447	4.578	4.097	4.407	4.551	3.032	3.444	3.187	2.541	2.656	2.959	2.153	1.940	2.279	2.011	1.713	1.773	1.583	1.606	1.423	1.364	1.418	1.464	1.342	1.329	1.625	1.335	1.241	1.110	1.203	1.308	1.163	1.075	0.999	1.126	1.270	1.393	1.266	1.745	1.921	3.240	2.657	2.394	1.653	1.960	2.962	5.324	11.35	22.89	39.14	52.92	54.59	37.78	14.10	2.347	1.141
295.0	71.44	93.88	120.6	97.59	69.51	59.60	61.04	78.64	132.5	294.7	663.5	448.5	526.0	 1379	 3134	9999.9	9999.9	321.4	17.70	11.24	9.338	7.046	5.414	5.302	4.624	4.333	3.755	3.765	2.979	2.832	3.252	3.081	2.870	2.198	2.112	2.021	1.889	2.330	1.943	1.360	1.399	1.257	1.930	1.585	1.040	1.353	1.525	1.481	1.645	1.388	1.477	1.442	0.891	1.442	1.232	1.324	1.321	1.439	1.260	1.432	1.397	2.004	2.326	3.568	3.747	2.784	1.994	2.131	3.996	6.471	10.12	13.48	22.75	50.22	76.91	52.87	15.61
300.0	89.92	130.0	143.9	133.6	84.43	68.87	81.60	100.0	134.5	211.4	559.2	809.3	444.7	524.3	857.3	 4169	9999.9	 9396	211.9	16.01	11.71	8.277	6.024	5.133	5.147	4.017	4.327	3.105	3.331	2.944	3.613	3.110	2.524	2.276	2.025	2.190	1.966	2.035	2.397	1.531	1.692	1.642	1.906	1.652	1.480	1.600	1.518	1.424	1.705	1.684	1.337	1.688	1.414	1.452	1.412	1.351	1.580	1.894	1.441	1.665	1.684	1.729	1.803	2.725	3.829	4.367	2.902	2.024	2.426	3.091	3.725	4.104	6.373	14.49	38.97	75.12	74.21
305.0	78.10	122.3	153.8	156.5	113.5	85.62	91.68	111.4	144.1	218.7	387.4	849.0	736.9	405.6	380.3	 1067	 5794	9999.9	 2784	113.8	14.09	10.29	6.883	6.373	5.403	4.127	4.030	3.220	3.442	2.787	3.338	2.705	2.559	2.330	2.241	2.206	1.840	1.751	1.838	1.827	1.795	1.657	1.453	1.240	1.347	1.392	1.319	1.513	1.798	1.574	1.351	1.515	1.501	1.529	1.148	1.141	1.509	1.510	1.229	1.769	1.621	2.053	1.706	2.286	2.660	3.260	4.130	3.522	2.264	1.954	2.408	2.314	2.622	4.414	9.843	25.12	55.02
310.0	92.80	121.6	177.5	160.7	113.0	94.44	111.1	134.8	173.3	258.0	358.5	596.3	891.0	688.1	368.5	381.7	 1424	 5655	9999.9	 8112	177.2	16.12	9.683	7.004	6.338	5.356	4.006	3.913	3.417	3.549	3.187	2.976	2.736	2.214	2.306	1.830	2.025	1.899	2.129	1.942	1.779	1.677	1.684	1.633	1.362	1.512	1.455	1.902	1.740	1.311	1.461	1.534	1.518	1.527	1.393	1.630	1.387	1.451	1.547	1.933	1.630	1.983	1.840	2.336	2.211	2.665	3.036	3.710	4.317	3.453	2.696	1.887	1.963	2.123	3.231	6.836	13.87
315.0	95.97	146.8	193.8	165.8	131.2	101.2	128.6	152.9	202.8	294.6	393.9	530.6	659.0	881.6	634.8	279.1	418.1	 1321	 3146	9999.9	9999.9	242.7	14.49	9.416	7.272	5.903	4.839	4.376	4.038	3.954	3.164	3.031	2.401	3.002	2.574	1.920	2.136	1.790	2.039	1.863	1.731	1.853	1.968	2.057	1.364	1.482	1.518	1.832	1.709	1.231	1.750	1.415	1.749	1.528	1.404	1.694	1.766	2.164	1.823	1.679	1.530	1.835	2.049	2.374	2.235	2.716	3.006	3.088	3.275	3.729	4.216	3.057	2.131	1.696	2.438	2.852	4.151
320.0	109.5	154.2	226.5	188.2	133.4	114.9	141.3	167.0	226.5	324.8	425.7	540.0	608.1	708.9	877.0	401.6	212.1	364.5	755.2	 4296	9999.9	 8152	166.9	11.92	9.831	6.658	6.268	5.459	4.353	4.262	3.557	2.914	3.193	2.567	3.014	1.866	2.441	1.944	2.223	1.755	1.732	1.812	2.162	1.688	1.383	2.045	1.733	2.493	1.780	1.423	1.634	1.496	1.663	1.753	1.592	1.555	1.591	1.866	1.845	2.221	2.065	2.064	2.229	2.543	2.323	2.552	2.594	2.720	2.837	2.614	3.580	4.036	3.733	2.151	2.256	1.794	2.080
325.0	118.8	165.4	230.4	225.6	144.0	123.0	151.6	186.1	239.2	344.8	437.7	544.3	605.4	615.5	756.6	609.5	231.1	157.1	220.5	 1041	 5902	9999.9	 2070	98.27	10.81	8.950	6.615	5.127	5.148	4.280	4.299	3.944	3.289	3.375	3.002	2.415	2.259	2.191	2.119	1.990	1.930	1.703	1.773	1.410	1.605	1.994	1.792	2.197	1.699	1.656	1.592	1.593	1.590	2.046	1.887	1.698	1.643	1.487	1.586	2.019	2.056	2.137	2.115	2.880	2.868	2.392	2.804	3.012	2.864	2.688	2.879	3.327	3.714	3.498	2.396	1.614	1.117
330.0	118.2	176.2	250.1	232.1	164.4	137.6	157.2	192.9	254.8	347.7	458.7	571.2	627.7	608.8	575.0	595.5	455.0	183.2	115.2	280.6	 1422	 5380	9999.9	 6996	142.1	14.29	8.786	6.602	6.014	4.810	4.562	4.001	3.321	3.291	2.424	2.352	2.142	2.219	2.138	1.994	1.914	1.692	1.633	1.700	1.537	1.828	1.826	1.916	1.848	1.775	1.428	1.822	1.569	1.826	1.765	1.642	1.774	1.935	1.955	1.993	2.030	2.233	2.385	2.939	2.612	2.726	2.490	2.796	2.850	2.752	2.663	2.563	2.893	2.968	2.612	2.804	1.825
335.0	137.6	170.6	274.1	227.2	196.4	149.9	181.7	202.6	271.0	363.5	466.7	595.6	617.7	610.9	542.0	427.9	478.5	402.9	146.6	123.8	367.2	 1240	 3259	9999.9	9999.9	197.3	12.75	8.720	8.242	5.993	5.422	3.918	3.713	4.538	2.475	2.772	2.099	2.300	2.081	1.960	1.827	2.202	1.829	1.796	1.771	1.944	1.769	2.003	1.541	1.659	1.714	1.958	1.765	1.458	1.778	1.747	1.999	2.134	2.136	1.918	2.416	2.244	2.204	2.583	2.654	3.017	2.669	3.048	2.911	2.560	2.842	2.398	2.363	2.527	2.296	3.109	3.063
340.0	112.9	173.8	269.0	248.4	193.0	167.1	189.3	218.8	272.7	375.3	460.9	574.7	617.7	611.6	535.5	397.7	339.7	476.6	284.3	109.5	141.2	325.7	774.1	 4400	9999.9	 7436	145.4	10.94	8.578	6.426	5.764	4.209	4.375	4.190	2.803	2.903	2.396	2.053	2.083	2.004	1.668	1.960	1.971	1.915	1.775	1.999	2.295	2.151	1.573	1.793	1.716	1.770	1.785	1.608	1.560	1.820	1.853	1.848	1.696	2.420	2.262	2.366	2.287	2.605	2.569	2.986	2.692	2.781	2.793	2.845	3.056	2.636	2.667	2.330	1.858	2.168	2.376
345.0	110.4	178.7	264.9	261.2	215.8	183.9	193.4	214.2	264.2	364.7	469.3	557.8	593.1	600.6	527.4	384.8	287.8	347.7	422.7	173.9	106.3	132.8	221.4	 1061	 6164	9999.9	 1699	88.24	10.91	9.047	6.182	4.777	4.361	4.141	2.839	2.657	2.698	1.958	2.936	2.124	2.086	1.987	2.145	2.017	1.868	2.024	2.105	1.848	2.004	2.021	1.725	1.956	1.720	1.725	1.907	1.619	2.336	1.735	2.035	2.380	2.665	2.360	2.712	2.705	2.960	2.862	3.022	2.796	2.676	2.695	2.789	2.341	2.463	1.914	2.159	2.046	1.901
350.0	112.8	172.0	250.3	255.4	221.1	199.2	218.1	233.4	279.6	353.5	447.2	522.5	572.1	574.9	511.4	390.1	294.3	261.4	349.4	345.8	185.2	111.6	112.0	286.1	 1509	 5732	9999.9	 6252	123.2	12.48	7.529	5.499	4.810	4.279	3.666	2.635	3.037	2.354	2.803	2.110	1.963	1.825	1.817	1.835	1.990	1.931	1.863	1.734	2.028	1.926	1.847	1.930	1.706	1.602	1.895	1.902	1.943	1.845	2.111	2.318	2.259	2.339	2.453	2.639	2.636	2.864	2.698	2.895	2.553	2.481	2.355	2.573	2.489	2.116	2.121	2.082	1.933
355.0	101.2	155.2	233.3	235.2	227.5	207.5	244.1	250.8	282.6	362.8	414.2	472.6	547.9	538.3	470.9	387.8	303.6	247.2	251.4	321.7	360.1	174.5	111.0	133.1	392.2	 1321	 3478	9999.9	 8973	164.3	12.18	7.634	5.683	4.641	3.673	3.421	2.593	2.747	2.454	2.506	1.997	1.855	2.003	1.961	2.127	1.772	1.912	2.008	1.837	1.561	1.906	1.631	2.059	1.884	2.043	2.084	1.857	1.858	2.383	2.010	2.584	2.335	2.647	2.772	2.855	2.595	2.505	2.734	2.301	2.708	2.258	2.158	2.285	2.398	2.193	2.132	2.100
360.0	107.0	169.6	234.4	228.4	232.3	216.8	258.6	265.8	301.4	365.4	413.9	461.9	508.4	504.4	472.9	390.5	325.7	270.8	243.5	257.0	382.0	292.2	139.7	112.3	155.0	344.9	827.5	 4781	9999.9	 6300	115.5	10.15	6.688	5.183	4.126	3.516	2.975	3.120	2.745	2.433	2.090	2.228	2.425	2.137	2.057	2.324	2.132	1.898	1.722	1.495	1.586	1.850	1.998	1.886	1.847	1.920	2.020	2.002	2.174	2.015	2.551	2.557	2.246	2.435	2.618	2.466	2.464	2.804	2.596	2.775	2.548	2.544	2.157	2.260	1.686	2.077	2.207
365.0	102.3	163.3	225.8	235.0	233.1	228.1	263.1	280.4	309.0	371.5	413.5	459.9	496.2	504.1	459.7	404.7	329.1	289.6	264.5	246.2	303.0	384.4	227.9	126.2	118.2	139.7	233.1	 1166	 6371	9999.9	 1501	63.20	9.073	6.206	4.566	4.325	3.187	2.835	3.062	2.755	2.627	2.189	2.191	1.704	2.046	2.213	2.065	2.120	1.768	1.719	1.632	1.927	1.973	2.355	1.830	2.024	2.156	2.220	2.188	1.954	2.263	2.836	2.684	2.377	3.162	2.839	2.719	2.576	2.729	2.569	2.355	2.399	2.608	2.473	2.039	2.175	2.322
370.0	106.8	153.8	198.2	242.1	246.7	254.3	284.4	294.1	323.0	359.8	402.7	446.2	486.5	483.5	464.0	401.5	340.9	313.3	286.5	270.2	269.2	325.2	335.8	215.2	135.7	115.3	114.8	307.7	 1565	 5898	9999.9	 5440	94.68	9.727	6.323	4.620	3.657	2.941	3.153	2.952	2.379	2.265	2.250	1.739	2.060	2.044	2.047	2.024	1.704	1.606	1.807	1.812	2.068	2.142	1.891	1.997	2.142	2.312	2.273	2.182	2.365	2.513	2.381	2.589	2.694	2.337	2.490	2.461	2.566	2.541	2.302	2.845	2.325	2.338	2.086	2.194	2.173
375.0	86.79	144.3	213.8	254.6	286.6	262.2	301.1	317.8	337.2	363.2	408.2	438.6	474.4	474.5	450.3	393.7	356.3	327.3	318.5	292.0	282.3	280.1	310.0	350.3	204.1	131.9	105.7	131.1	396.3	 1351	 3735	9999.9	 7439	125.6	9.037	6.619	4.652	3.720	3.297	3.165	2.703	2.163	2.258	2.065	2.096	1.830	2.040	1.921	2.044	1.694	1.689	1.937	2.226	1.867	1.660	2.094	2.484	2.368	2.644	2.212	2.597	2.382	2.518	2.559	2.546	2.717	2.203	2.878	2.789	2.525	2.297	3.027	2.668	2.267	2.450	2.372	2.026
380.0	101.9	127.4	206.6	243.5	265.7	292.3	313.2	318.7	338.2	388.9	389.7	433.5	466.6	461.6	434.0	402.1	363.3	355.2	327.8	313.5	298.3	281.4	272.6	351.2	306.2	169.9	122.8	104.0	145.4	345.5	888.6	 5232	9999.9	 5005	79.74	7.783	6.450	4.139	3.569	3.238	3.202	2.392	2.325	2.501	2.071	2.265	1.824	1.940	1.760	1.680	1.894	1.922	2.047	2.206	1.924	2.271	2.571	2.055	2.614	2.883	2.740	2.477	2.440	2.438	2.546	2.623	2.179	2.589	2.656	2.629	2.601	2.561	2.705	2.088	2.290	2.149	2.409
385.0	89.28	137.0	215.8	233.7	266.5	294.6	327.1	349.9	360.2	385.4	397.6	432.0	445.0	446.7	421.3	411.9	378.5	364.5	348.0	338.8	312.6	291.7	271.9	302.0	359.8	240.4	145.0	114.5	102.0	130.0	238.0	 1296	 7050	9999.9	 1151	34.86	7.200	5.649	4.571	3.359	2.784	2.628	2.230	2.147	1.866	2.176	1.944	1.809	2.065	1.936	2.055	2.213	2.184	2.162	1.988	2.210	2.595	2.178	2.494	2.845	2.260	2.359	2.725	2.377	2.602	2.641	2.341	2.520	2.423	2.517	2.502	2.422	2.073	2.003	1.925	2.674	2.612
390.0	97.75	147.5	208.4	242.7	277.6	296.6	330.2	349.5	367.9	386.0	392.7	431.4	436.2	439.4	432.7	406.6	377.5	374.6	359.5	348.8	331.0	313.9	287.8	278.6	305.7	321.8	214.8	144.3	114.9	97.31	104.4	327.3	 1771	 6027	 9009	 3961	69.74	7.161	4.771	3.906	3.220	2.917	2.540	2.263	2.256	2.310	1.896	2.103	1.766	1.906	1.862	2.269	2.243	2.013	2.325	2.242	2.395	2.267	2.255	2.217	2.567	2.671	2.408	2.374	2.633	2.436	2.331	2.658	2.422	2.571	2.425	2.289	2.414	2.477	2.256	2.416	2.579
395.0	105.7	143.5	214.9	239.7	283.2	297.8	329.4	342.6	356.7	395.8	414.8	426.0	430.4	431.8	433.9	397.8	386.6	366.7	369.9	358.8	344.5	332.9	311.5	284.1	274.3	290.9	315.8	200.1	141.4	109.1	92.14	124.0	429.0	 1374	 3839	9999.9	 5298	89.47	6.451	4.915	4.400	3.145	2.817	2.734	2.941	2.131	2.220	2.470	1.904	1.798	1.772	1.992	2.414	2.351	2.171	2.384	2.430	2.195	1.993	2.196	2.415	2.625	2.392	2.226	2.456	2.024	2.076	2.540	2.855	2.211	2.652	2.561	2.266	2.205	1.962	2.553	2.116
400.0	119.1	124.4	216.2	249.0	287.4	307.6	340.6	359.2	368.1	397.0	421.5	417.9	428.3	437.4	417.7	396.1	382.0	371.0	369.4	369.1	349.7	339.0	316.5	295.9	273.4	262.0	311.3	273.8	168.8	128.3	98.79	86.55	138.1	336.3	918.7	 5452	9999.9	 1086	54.86	6.122	4.777	3.854	3.688	2.503	2.507	2.161	2.223	2.479	2.076	1.855	1.707	2.171	2.332	2.271	2.029	2.274	2.284	2.573	2.086	2.587	2.574	2.426	2.440	2.538	2.182	2.285	2.107	2.513	2.541	2.198	2.657	2.109	2.519	2.399	2.689	2.446	2.211
405.0	103.2	111.1	195.9	262.9	289.9	328.3	322.9	369.5	391.1	397.9	422.4	427.1	440.2	428.9	417.8	394.2	381.3	381.1	367.7	368.1	351.7	338.7	322.8	303.6	282.6	261.7	270.9	307.3	232.2	146.3	113.8	86.83	81.55	111.6	231.5	 1390	 6702	 8553	927.9	21.33	5.418	4.426	3.884	2.576	2.513	2.321	2.422	2.277	1.856	1.743	1.761	2.312	2.495	2.509	2.621	2.515	2.354	2.532	2.335	2.471	2.440	2.576	2.741	2.471	2.519	2.524	2.083	2.301	2.590	2.349	2.846	1.839	2.405	2.009	2.661	2.222	2.577
