Sample:	'1
File name:	L2025090911ÖÂ·áÂ·ÇÅ.FD3
Run date:	'17:38:10, 09/09/2025
Operator:	Administrator
Comment:	'

Instrument
Model:	F-2700 FL Spectrophotometer
Serial number:	3064-004
ROM Version:	4J14000 07

Instrument parameters
Measurement type:	3-D scan
Data mode:	Fluorescence
EX  Start WL:	220.0 nm
EX  End WL:	600.0 nm
EX Sampling interval:	5.0 nm
EM  Start WL:	230.0 nm
EM  End WL:	650.0 nm
EM Sampling interval:	5.0 nm
Scan speed:	12000 nm/min
EX Slit:	5.0 nm
EM Slit:	5.0 nm
PMT Voltage:	700 V
Response:	Auto 
Corrected spectra:	Off
Contour interval:	50.000

Peak integration
Integration method:	Rectangular
Sensitivity:	1
Threshold:	1.000

Peaks
No.	ApexEX/EM(nm)	Height(Data)
1	225.0/590.0	36.40
2	225.0/640.0	26.37
3	230.0/570.0	47.15
4	230.0/615.0	35.44
5	230.0/630.0	27.58
6	235.0/345.0	 1005
7	235.0/595.0	37.64
8	235.0/625.0	26.80
9	240.0/520.0	274.3
10	245.0/530.0	233.6
11	245.0/605.0	28.69
12	250.0/545.0	217.5
13	255.0/280.0	648.9
14	255.0/555.0	204.2
15	260.0/285.0	824.2
16	260.0/565.0	179.8
17	265.0/290.0	903.8
18	265.0/580.0	167.2
19	270.0/295.0	 1271
20	270.0/595.0	147.8
21	275.0/305.0	 1609
22	275.0/375.0	 1346
23	275.0/605.0	146.8
24	280.0/310.0	 1589
25	280.0/340.0	 1368
26	280.0/360.0	 1338
27	280.0/615.0	119.7
28	285.0/315.0	 1603
29	285.0/630.0	97.91
30	290.0/320.0	 1489
31	290.0/645.0	83.26
32	305.0/340.0	 1029
33	310.0/345.0	909.1
34	315.0/355.0	829.1
35	320.0/360.0	882.5
36	325.0/365.0	867.8
37	330.0/375.0	806.5
38	335.0/380.0	841.5
39	340.0/385.0	802.4
40	350.0/400.0	721.0
41	365.0/420.0	580.3
42	430.0/505.0	85.22
43	445.0/525.0	50.97
44	450.0/530.0	41.38
45	460.0/340.0	4.245
46	460.0/545.0	27.82
47	495.0/270.0	2.192
48	505.0/275.0	2.932
49	510.0/280.0	3.197
50	520.0/285.0	3.893
51	530.0/290.0	4.046
52	545.0/300.0	7.057
53	550.0/305.0	7.677
54	560.0/310.0	6.978
55	570.0/315.0	7.327
56	575.0/290.0	60.86
57	575.0/320.0	7.500
58	585.0/325.0	7.516

Data points
	220.0	225.0	230.0	235.0	240.0	245.0	250.0	255.0	260.0	265.0	270.0	275.0	280.0	285.0	290.0	295.0	300.0	305.0	310.0	315.0	320.0	325.0	330.0	335.0	340.0	345.0	350.0	355.0	360.0	365.0	370.0	375.0	380.0	385.0	390.0	395.0	400.0	405.0	410.0	415.0	420.0	425.0	430.0	435.0	440.0	445.0	450.0	455.0	460.0	465.0	470.0	475.0	480.0	485.0	490.0	495.0	500.0	505.0	510.0	515.0	520.0	525.0	530.0	535.0	540.0	545.0	550.0	555.0	560.0	565.0	570.0	575.0	580.0	585.0	590.0	595.0	600.0
230.0	19.27	650.0	 3105	 2310	129.0	16.17	8.447	6.712	4.316	4.812	4.990	4.532	3.753	3.851	3.776	3.032	2.928	2.336	2.014	1.655	1.955	1.509	1.473	1.354	1.269	1.259	1.214	1.176	0.972	0.842	1.057	0.775	0.811	0.677	0.718	0.659	0.644	0.607	0.535	0.547	0.633	0.551	0.645	0.456	0.453	0.534	1.628	5.693	9.067	6.783	2.583	0.697	0.451	0.365	0.290	0.249	0.391	0.239	0.295	0.202	0.265	0.200	0.185	0.178	0.218	0.191	0.249	0.191	0.136	0.152	0.146	0.184	0.129	0.159	0.118	0.182	0.071
235.0	51.66	174.8	 1377	 4799	 3173	285.7	9.003	6.226	4.371	5.200	5.010	4.568	4.000	4.205	2.971	2.421	2.864	1.804	2.016	2.067	1.946	2.007	1.419	1.606	1.403	1.439	1.161	1.098	0.996	0.819	0.876	0.492	0.966	0.748	0.631	0.570	0.837	0.601	0.546	0.557	0.367	0.525	0.606	0.760	0.524	0.482	0.786	1.551	3.737	6.911	8.997	8.315	3.519	0.686	0.345	0.393	0.386	0.176	0.345	0.189	0.173	0.232	0.204	-0.026	0.428	0.294	0.200	0.288	0.303	0.190	0.222	0.079	0.056	0.023	0.065	0.205	0.062
240.0	52.72	99.23	351.1	 2839	 7639	 4160	154.0	6.545	7.003	5.397	5.371	4.334	4.563	4.385	3.662	2.556	2.681	2.343	2.093	0.881	2.264	1.944	1.661	1.503	1.564	1.133	0.691	1.135	1.172	0.929	0.802	0.627	0.818	0.586	0.487	0.625	0.697	0.613	0.619	0.632	0.326	0.727	0.503	0.457	0.806	0.824	0.662	0.879	1.046	2.241	5.414	12.16	12.89	8.279	2.657	0.524	0.313	0.400	0.314	0.243	0.348	0.403	0.282	0.098	0.252	0.332	0.155	0.106	0.105	0.126	0.192	0.204	0.118	0.087	0.063	0.085	0.189
245.0	34.66	112.0	147.8	763.5	 5469	9999.9	861.7	33.00	5.547	7.886	6.211	4.180	4.031	6.209	3.676	3.425	2.412	2.450	2.364	1.731	2.405	1.939	1.821	1.337	1.613	1.255	1.071	0.926	1.374	0.932	0.886	0.877	0.671	0.494	0.540	0.630	0.738	0.704	0.651	0.607	0.340	0.489	0.533	0.556	0.554	0.666	0.857	0.912	0.664	0.794	1.605	4.617	10.31	15.30	14.33	7.502	1.769	0.396	0.331	0.261	0.424	0.304	0.373	0.189	0.260	0.203	0.204	0.356	0.034	0.099	0.159	0.258	0.109	0.108	0.028	0.124	0.005
250.0	18.08	62.77	160.9	272.2	 1468	 7516	 6655	 2540	197.7	12.34	7.854	6.331	5.861	5.329	4.471	3.895	2.810	2.639	2.436	1.766	1.912	1.754	1.953	1.393	1.758	1.409	0.995	1.295	0.947	1.074	1.063	0.892	0.763	0.690	0.685	0.597	0.570	0.574	0.599	0.671	0.585	0.519	0.419	0.425	0.479	0.494	0.914	0.839	0.922	1.073	0.882	1.398	2.697	5.446	9.817	15.25	18.06	14.09	7.576	1.748	0.473	0.347	0.277	0.182	0.262	0.309	0.184	0.217	0.087	0.069	0.188	0.277	0.139	0.146	0.029	0.145	0.211
255.0	17.59	23.48	83.88	257.3	467.1	 1743	 3320	 6518	 3957	259.5	14.31	11.55	8.558	7.870	6.258	4.513	3.334	2.571	2.630	2.212	2.125	1.962	2.150	1.158	1.264	1.279	1.479	0.947	1.347	1.081	0.941	0.851	0.827	0.604	0.595	0.494	0.408	0.541	0.709	0.871	0.697	0.787	0.518	0.347	0.441	0.523	0.645	0.542	0.658	0.990	1.216	1.345	1.117	1.572	2.491	4.010	7.771	18.26	30.09	25.01	10.55	1.904	0.595	0.156	0.160	0.304	0.201	0.216	0.297	0.213	0.267	0.147	-0.021	0.174	0.097	0.125	0.259
260.0	16.30	14.11	37.31	176.8	367.6	495.6	850.6	 3454	 8717	 3353	137.4	11.64	10.93	12.28	6.614	5.310	3.786	2.363	3.206	2.267	2.276	1.983	1.869	1.720	1.738	1.323	1.387	1.323	1.466	1.331	0.783	0.866	0.887	0.451	1.003	0.680	0.952	0.426	0.723	0.770	0.645	0.612	0.710	0.612	0.442	0.480	0.409	0.339	0.501	0.687	0.765	1.504	1.616	1.207	0.810	1.353	2.263	5.631	15.51	31.01	38.96	25.20	7.174	0.741	0.234	0.244	0.198	0.339	0.280	0.253	0.239	0.216	0.137	0.239	0.185	0.065	0.333
265.0	11.81	16.18	26.28	72.99	299.2	399.3	243.4	929.1	 5414	9999.9	 2554	56.80	14.25	14.81	8.434	4.931	3.886	4.560	3.141	3.113	2.230	2.165	1.625	1.863	1.543	1.492	1.291	1.159	1.374	1.444	0.662	1.296	1.119	0.901	0.988	0.612	0.542	0.392	0.808	0.797	0.393	0.510	0.676	0.447	0.486	0.710	0.475	0.549	0.517	0.563	0.444	1.039	1.580	2.032	1.397	0.920	0.886	1.650	4.091	10.28	25.75	45.56	42.74	20.75	3.163	0.338	0.573	0.309	0.256	0.157	0.276	0.180	0.166	0.231	0.194	0.335	0.214
270.0	18.35	24.57	30.76	39.09	121.5	335.0	386.3	301.2	 1421	 5420	9999.9	 5545	167.7	24.59	9.132	6.907	5.382	4.811	4.071	3.445	3.006	2.290	1.830	1.716	1.561	1.686	1.259	1.414	1.207	1.485	0.966	1.137	0.954	0.948	0.693	0.716	0.663	0.578	0.655	0.535	0.519	0.570	0.549	0.682	0.546	0.655	0.578	0.563	0.590	0.482	0.510	0.541	0.754	1.258	1.679	2.192	1.916	1.108	1.267	2.634	6.502	14.63	26.59	39.89	43.60	31.23	16.21	3.471	0.503	0.192	0.244	0.249	0.302	0.212	0.173	0.219	0.266
275.0	38.47	57.61	59.25	47.48	60.46	130.9	404.7	519.0	414.7	 1294	 3893	9999.9	 8888	225.8	15.40	9.095	8.249	5.563	5.423	3.831	3.370	2.255	2.341	2.526	1.597	1.445	1.592	1.307	1.358	1.542	0.926	1.096	1.056	1.109	0.697	0.859	0.761	0.611	0.714	0.609	0.517	0.554	0.630	0.681	0.780	0.685	0.647	0.873	0.646	0.422	0.556	0.582	0.676	0.619	0.631	1.520	2.475	2.932	2.044	1.292	1.839	3.779	6.487	10.25	18.33	39.75	67.99	47.55	21.42	2.321	0.351	0.312	0.350	0.186	0.067	0.231	0.365
280.0	79.95	85.41	105.1	78.05	50.53	79.25	202.8	648.9	457.3	408.0	 1052	 5061	9999.9	9999.9	112.5	12.93	9.089	6.773	5.980	3.609	3.777	2.729	2.795	2.648	1.598	1.543	1.731	1.631	1.649	1.140	1.212	1.005	1.340	0.954	0.745	0.797	0.666	0.776	0.741	0.748	0.793	0.626	0.938	0.736	0.709	1.023	0.963	0.880	0.840	0.657	0.585	0.711	0.531	0.637	0.523	0.589	1.084	2.213	3.197	3.191	1.462	1.452	1.969	2.962	5.098	11.39	30.68	63.72	82.51	41.25	10.50	0.902	0.380	0.368	0.012	0.311	0.309
285.0	109.8	140.9	172.5	128.7	69.82	81.11	107.8	376.3	824.2	395.0	432.2	 1449	 6970	9999.9	 1848	53.64	12.25	8.125	5.983	4.787	3.920	3.088	2.570	2.423	1.696	1.985	2.006	1.195	1.815	1.280	1.291	1.292	1.236	1.122	1.013	0.951	1.074	0.885	0.776	1.172	1.021	0.935	1.035	1.091	0.995	1.083	1.108	1.117	0.932	0.928	0.717	0.832	0.765	0.643	0.578	0.404	0.748	1.346	1.851	3.813	3.893	2.543	1.234	1.784	2.201	3.578	7.988	19.15	47.62	81.31	55.22	30.17	4.546	0.455	0.300	0.211	0.246
290.0	149.9	224.0	238.9	196.4	121.6	112.3	115.5	207.2	555.4	903.8	500.2	660.1	 1974	 9972	9999.9	 6322	101.8	13.82	8.217	6.532	4.603	3.905	3.101	3.032	2.559	2.312	2.030	1.758	1.811	1.608	1.272	1.479	1.180	1.216	1.001	0.799	1.033	1.212	1.298	1.225	1.192	1.089	1.246	1.213	1.229	1.460	1.396	1.400	1.144	1.075	0.952	0.958	0.715	0.568	0.680	0.642	0.925	1.124	1.157	1.927	2.834	3.863	4.046	3.252	2.188	2.303	3.148	5.901	12.33	24.17	38.23	60.86	60.33	54.30	20.23	4.321	0.525
295.0	190.3	270.8	307.1	243.3	182.5	154.6	163.5	215.0	347.3	681.6	 1271	784.6	870.7	 2539	 3490	9999.9	 9157	128.5	13.01	8.949	6.261	5.119	4.143	3.027	3.078	2.184	2.074	1.670	2.002	2.086	1.621	1.656	1.423	1.175	1.129	1.131	1.006	1.357	1.255	1.171	1.400	1.269	1.255	1.250	1.500	1.291	1.374	1.409	1.212	1.308	0.934	1.012	0.882	0.924	1.023	1.103	1.091	1.390	1.035	1.367	1.712	2.356	2.998	5.449	5.705	3.885	2.823	2.998	4.692	7.136	9.879	15.27	21.02	53.24	92.52	56.32	28.73
300.0	202.8	288.8	337.3	301.1	221.0	199.6	211.9	254.0	350.4	520.8	 1162	 1399	776.5	960.2	 1037	 4242	9999.9	 6502	86.17	10.43	8.518	5.754	4.614	3.835	3.836	2.547	2.438	2.101	2.047	1.923	1.646	1.613	1.234	1.338	1.459	0.949	0.934	1.416	1.456	1.302	1.262	1.187	1.488	1.440	1.674	1.650	1.431	1.848	1.565	1.698	1.190	1.175	0.793	0.897	0.934	1.084	1.148	1.543	1.179	1.723	1.535	2.143	2.437	3.398	5.728	7.057	5.221	3.399	3.064	3.378	4.046	4.942	5.860	13.89	36.26	75.24	106.4
305.0	211.6	317.1	393.1	345.4	265.7	235.7	256.7	314.8	381.5	527.0	868.6	 1609	 1231	715.2	567.3	 1180	 5777	9999.9	 1227	44.81	10.25	7.354	6.046	4.311	3.807	3.100	2.659	2.113	1.909	1.672	2.189	1.697	1.501	1.261	1.230	1.007	1.347	1.444	1.485	1.245	1.670	1.358	1.300	1.447	1.462	1.608	1.584	1.860	1.703	1.631	1.399	1.361	1.182	1.316	1.139	1.310	1.628	1.569	1.258	1.794	1.768	2.126	2.371	2.978	3.895	5.839	7.677	6.550	4.310	3.251	3.400	2.732	2.732	4.518	9.219	21.49	54.46
310.0	206.1	321.6	410.4	386.4	303.6	273.9	310.2	373.3	460.3	609.5	815.6	 1178	 1589	 1182	604.5	546.2	 1526	 5302	9999.9	 4871	73.49	10.74	6.840	5.203	4.409	3.679	2.824	2.677	2.070	1.873	2.183	1.739	1.841	1.406	1.107	1.176	1.339	1.462	1.617	1.584	1.360	1.467	1.589	1.409	1.625	1.770	1.654	1.864	1.722	1.526	1.515	1.624	1.263	1.486	1.301	1.410	1.746	1.735	1.851	1.946	2.350	2.153	2.472	3.087	3.322	3.979	5.305	6.660	6.978	5.669	4.110	3.037	2.661	2.480	3.335	5.986	13.26
315.0	222.2	364.5	449.4	425.2	335.4	315.1	353.7	425.6	527.5	669.8	855.3	 1036	 1239	 1603	 1030	511.6	586.4	 1351	 3065	9999.9	 7070	97.14	10.72	7.037	4.999	4.054	2.972	3.114	2.145	2.493	1.938	1.745	1.742	1.084	1.191	1.432	1.353	1.614	1.489	1.541	1.319	1.604	1.465	1.312	1.662	1.551	1.680	1.794	1.904	1.599	1.622	1.608	1.692	1.475	1.452	1.815	1.740	1.783	1.923	2.027	2.461	2.457	2.603	3.271	3.520	3.812	4.134	4.616	5.562	6.317	7.327	5.968	3.929	3.015	2.709	3.054	4.131
320.0	242.3	429.0	568.9	520.5	378.8	350.9	383.0	465.2	586.6	715.3	934.3	 1067	 1183	 1378	 1489	726.3	448.4	519.1	822.9	 3831	9999.9	 5367	66.00	9.943	6.422	3.975	3.762	3.689	2.426	2.636	1.856	2.419	1.595	1.111	1.324	1.166	1.510	1.597	1.480	1.315	1.588	1.659	1.321	1.778	1.797	1.752	1.959	2.322	2.077	1.811	1.580	1.945	1.513	1.736	1.780	1.623	2.016	1.867	2.054	2.509	2.617	2.507	3.370	3.406	3.798	3.727	4.266	4.244	4.903	5.192	6.373	7.500	6.750	4.175	3.034	2.541	2.491
325.0	282.4	491.5	728.7	649.1	447.7	382.5	435.2	505.3	628.1	797.1	986.2	 1149	 1242	 1238	 1457	 1156	523.6	384.5	355.6	993.5	 5374	9999.9	912.5	37.78	8.306	5.782	4.574	3.866	3.020	2.652	2.030	2.487	1.683	1.681	1.393	1.396	1.366	1.694	1.643	1.313	1.445	1.672	1.673	1.746	1.852	2.204	2.463	2.808	3.173	2.322	1.951	1.952	1.578	1.637	1.806	1.725	1.934	1.928	2.467	2.644	3.329	2.590	3.691	3.853	4.652	4.116	4.679	4.645	4.878	5.005	5.044	5.582	6.652	7.516	4.481	3.433	2.611
330.0	301.7	536.5	831.0	798.3	555.1	443.8	463.3	551.0	670.6	836.9	 1032	 1173	 1291	 1256	 1209	 1226	936.3	479.3	314.8	383.1	 1361	 4885	 9797	 3789	58.65	9.743	6.768	4.405	3.696	3.189	2.306	2.554	1.891	1.692	1.446	1.431	1.162	1.382	1.604	1.674	1.508	1.830	1.851	1.643	1.963	2.267	2.684	3.108	3.480	3.294	2.189	2.396	1.893	1.899	2.223	2.053	2.097	2.287	2.282	2.810	2.981	3.132	3.472	4.124	4.218	4.237	4.432	5.096	5.134	5.328	4.940	4.813	5.425	6.284	6.252	6.063	4.128
335.0	312.7	585.1	935.5	895.8	667.4	542.5	518.2	598.0	707.3	871.6	 1056	 1210	 1333	 1317	 1193	 1037	 1051	857.6	409.1	305.2	470.1	 1204	 3029	9999.9	 5711	79.02	8.760	5.973	4.815	3.263	2.961	2.895	2.156	1.731	1.635	1.412	1.277	1.615	1.774	1.836	1.544	1.793	1.976	2.035	2.248	2.643	2.931	3.271	4.036	3.611	2.434	2.661	2.411	2.219	2.181	2.172	2.421	2.647	2.328	3.085	2.896	3.332	3.721	4.332	4.077	4.681	4.817	4.974	5.557	5.671	5.744	5.336	5.018	4.802	4.692	5.299	5.479
340.0	322.2	582.4	965.2	984.5	737.3	602.6	587.6	643.1	747.1	907.9	 1084	 1238	 1368	 1339	 1221	 1023	926.9	 1029	625.9	347.3	310.9	417.7	793.4	 4006	9999.9	 4385	53.81	8.649	5.967	4.468	3.074	3.181	2.278	2.025	1.911	1.498	1.554	1.646	1.681	1.776	1.672	1.741	2.146	1.816	2.670	2.218	3.234	3.563	4.245	3.800	2.627	2.825	2.786	2.399	2.684	2.263	2.533	2.689	2.618	3.165	3.482	3.765	3.931	4.162	4.507	4.801	5.533	5.262	5.721	5.459	5.615	5.364	5.703	4.786	4.343	4.557	5.035
345.0	320.3	597.7	916.8	 1005	811.2	681.4	653.1	677.5	776.9	917.1	 1089	 1232	 1337	 1331	 1246	 1025	865.2	894.7	909.1	463.7	319.8	285.9	315.1	 1028	 5483	9999.9	751.3	32.90	7.841	5.531	3.910	3.320	2.330	1.766	1.792	1.462	1.606	1.493	1.602	1.687	1.518	1.533	1.811	2.066	2.416	2.232	2.838	3.370	3.655	3.503	2.930	2.775	3.091	2.392	2.736	2.462	2.954	3.008	2.596	2.928	3.444	3.347	3.969	3.896	4.576	4.799	5.305	5.139	5.226	5.406	5.684	5.143	5.768	4.766	4.585	4.881	4.387
350.0	306.3	572.1	882.9	988.2	874.0	793.1	752.5	752.5	850.2	969.8	 1104	 1232	 1315	 1327	 1251	 1073	899.7	802.5	867.1	779.0	469.0	331.2	274.8	384.9	 1393	 4986	 8747	 3194	51.38	8.759	5.566	4.129	2.889	2.372	1.838	1.671	1.831	1.801	1.720	1.527	1.627	1.828	1.750	2.016	2.142	2.429	2.703	3.087	3.370	3.138	2.914	3.401	3.388	2.940	2.838	3.254	3.096	3.173	3.132	3.422	3.591	3.574	3.901	4.104	4.210	4.702	4.920	5.258	5.181	5.578	5.209	5.444	5.610	5.125	5.063	4.906	4.461
355.0	278.0	507.6	830.0	968.9	928.0	878.1	847.7	886.6	968.8	 1089	 1162	 1245	 1332	 1324	 1254	 1126	962.5	846.7	770.0	829.1	779.8	470.1	341.0	309.6	471.4	 1227	 2948	 9493	 4902	69.99	8.403	5.153	3.770	2.515	2.574	2.125	1.610	2.293	1.692	1.460	1.728	1.605	1.672	1.748	2.206	2.317	2.444	3.078	3.161	3.304	2.974	3.498	3.452	3.294	3.140	3.367	3.241	3.302	3.497	4.063	3.610	4.162	4.279	4.302	4.737	4.715	5.209	5.323	5.152	5.566	5.454	5.965	5.242	5.016	5.039	5.371	4.773
360.0	289.2	488.2	791.5	963.5	965.1	952.3	956.9	976.7	 1029	 1133	 1198	 1261	 1338	 1337	 1275	 1151	 1012	916.0	797.6	771.4	882.5	678.5	422.7	339.3	309.0	421.3	768.9	 4049	9999.9	 3741	47.93	7.341	4.781	3.249	2.594	2.166	1.997	1.983	1.813	1.646	1.697	1.720	1.743	1.975	2.183	2.440	2.533	3.253	2.757	3.221	2.876	3.559	3.470	3.555	3.458	3.723	3.344	3.219	3.218	3.996	4.143	4.602	4.295	4.607	4.791	4.688	5.580	4.923	5.685	5.408	5.821	5.814	5.200	5.536	5.112	5.376	5.063
365.0	268.3	475.2	776.8	950.5	 1009	 1027	 1052	 1062	 1107	 1210	 1226	 1298	 1331	 1332	 1278	 1166	 1044	949.1	843.2	774.2	810.4	867.8	562.7	396.5	318.3	276.7	300.8	 1038	 5722	9999.9	674.4	27.02	6.073	4.337	3.015	2.445	1.945	1.955	1.879	2.067	1.829	1.895	1.524	1.887	2.378	2.424	2.418	3.190	2.880	3.072	2.962	3.516	3.710	3.756	3.970	3.713	4.144	3.608	3.884	4.077	3.978	4.597	4.751	4.722	5.292	4.423	4.686	4.973	5.351	5.310	5.426	5.131	5.329	5.638	5.339	5.483	5.627
370.0	258.1	455.1	736.5	937.1	 1025	 1066	 1106	 1100	 1166	 1237	 1273	 1307	 1325	 1317	 1276	 1191	 1094	993.6	911.6	832.5	789.8	831.5	802.4	546.8	386.9	308.9	246.4	357.7	 1444	 5123	 8216	 2775	42.81	7.014	4.191	3.207	2.150	1.934	2.118	1.779	1.686	1.896	1.723	1.819	2.047	2.235	2.392	2.775	3.097	3.160	3.029	3.607	3.671	3.584	4.056	3.854	4.392	4.061	4.305	4.409	4.522	4.644	5.115	4.853	5.118	5.065	4.978	5.231	5.120	5.488	5.575	5.593	5.505	5.896	5.769	5.562	6.015
375.0	275.9	470.6	683.6	925.8	 1039	 1109	 1158	 1152	 1197	 1270	 1314	 1346	 1311	 1307	 1290	 1185	 1113	 1047	964.6	896.0	836.6	789.5	806.5	790.0	513.4	385.5	297.3	258.4	445.6	 1230	 3020	 9016	 4014	54.48	6.580	4.220	2.755	2.492	2.132	2.050	1.886	2.251	1.825	1.780	2.007	2.102	2.386	2.849	2.857	2.945	2.834	3.580	3.712	3.619	4.169	3.863	4.216	4.370	4.386	4.352	5.067	4.480	4.881	5.014	5.183	4.779	5.256	5.010	5.308	5.939	5.626	5.482	5.641	5.383	5.930	5.653	5.703
380.0	258.7	436.1	688.0	903.6	 1012	 1148	 1173	 1189	 1211	 1275	 1315	 1338	 1317	 1304	 1264	 1189	 1121	 1065	990.4	926.1	876.5	805.2	762.1	841.5	680.5	462.3	350.1	270.3	250.0	381.1	768.9	 4180	 9650	 2842	34.16	5.621	3.568	3.090	2.807	2.261	2.097	1.768	1.794	2.124	2.127	2.234	2.247	2.682	2.644	3.048	2.995	3.546	3.788	3.847	4.006	4.273	4.401	4.203	4.651	4.733	4.860	4.940	5.463	5.169	5.403	4.504	4.891	4.920	5.447	5.558	5.734	5.266	5.686	5.563	5.872	6.074	5.564
385.0	242.6	435.2	676.8	899.5	 1028	 1151	 1172	 1217	 1228	 1259	 1311	 1304	 1297	 1290	 1244	 1184	 1123	 1081	 1003	951.4	893.7	843.6	783.9	775.8	802.4	571.4	402.7	311.4	244.3	219.2	266.0	 1061	 5609	 8700	518.9	17.21	4.663	3.704	3.075	2.497	2.359	2.079	1.938	2.105	2.238	1.933	2.145	2.667	2.650	2.866	2.821	3.589	3.822	4.292	3.686	4.348	4.357	4.011	4.958	4.427	4.281	4.857	5.288	4.664	5.199	5.171	5.175	4.564	5.167	5.210	5.438	5.096	5.699	5.609	5.835	5.874	5.776
390.0	242.6	425.2	632.9	865.9	973.5	 1129	 1152	 1191	 1210	 1269	 1267	 1277	 1274	 1250	 1209	 1146	 1109	 1057	 1012	960.2	920.8	868.2	809.0	755.1	761.2	728.3	527.8	375.9	289.6	228.1	186.8	325.6	 1416	 4631	 6447	 2104	32.34	5.580	3.825	3.271	2.466	2.068	1.877	1.972	2.112	2.174	2.138	2.503	2.721	2.739	2.813	3.609	3.867	4.126	3.700	4.200	4.597	4.458	4.528	4.894	4.332	4.670	4.917	4.648	5.080	5.082	5.033	5.002	5.172	5.092	5.438	5.075	5.053	5.889	5.746	5.915	5.495
395.0	234.3	407.7	618.5	814.8	953.1	 1100	 1155	 1180	 1219	 1238	 1249	 1249	 1259	 1223	 1163	 1117	 1075	 1036	 1007	964.7	931.9	889.6	825.3	775.7	729.1	721.4	700.2	486.1	349.0	278.1	210.5	191.3	397.2	 1089	 2544	 7189	 3074	43.57	5.986	4.158	3.278	2.493	2.502	2.313	2.228	2.349	1.966	2.349	2.665	2.614	2.826	3.701	3.263	3.818	4.189	3.994	4.376	4.905	4.452	4.814	4.337	4.439	4.772	4.557	4.715	4.756	4.824	4.968	4.844	5.192	5.267	5.061	4.879	5.483	5.742	5.442	5.515
400.0	235.8	386.5	616.0	779.8	949.5	 1082	 1129	 1183	 1200	 1223	 1235	 1206	 1200	 1192	 1128	 1092	 1058	 1045	995.8	968.0	937.3	892.8	843.6	790.3	735.0	688.1	721.0	606.6	411.0	317.4	238.5	186.4	186.4	309.8	635.5	 3535	 7365	 2114	26.89	4.789	3.413	2.804	2.812	2.384	2.301	2.340	2.307	2.622	2.644	2.483	2.977	3.405	3.698	4.228	4.212	3.740	4.555	4.734	4.676	4.656	4.187	4.476	4.705	4.541	4.437	4.749	5.158	4.569	5.207	5.016	5.195	5.283	5.119	5.076	5.097	5.696	5.366
405.0	235.4	397.0	612.6	755.0	934.3	 1070	 1108	 1134	 1191	 1192	 1205	 1186	 1171	 1151	 1102	 1065	 1020	 1008	976.4	953.4	913.2	886.8	843.2	798.0	741.4	687.3	669.0	676.1	496.1	357.1	275.4	206.6	162.6	151.2	198.1	898.4	 4516	 6516	430.2	12.22	4.858	3.436	2.810	2.308	2.720	2.258	2.188	2.970	2.318	2.607	2.608	3.361	3.293	3.824	3.792	3.587	4.545	4.458	4.541	4.784	4.314	4.427	4.285	4.578	4.283	4.031	4.643	4.460	5.102	5.082	5.219	4.719	5.260	4.645	4.972	5.301	5.007
410.0	237.4	380.5	546.7	751.4	911.3	 1018	 1091	 1118	 1173	 1182	 1182	 1153	 1134	 1101	 1059	 1019	979.2	975.9	945.3	929.3	899.7	869.2	833.1	798.2	750.6	694.4	647.7	637.9	606.9	455.9	324.8	247.7	184.2	139.4	118.5	251.1	 1138	 3606	 4306	 1644	27.74	4.895	3.646	2.833	2.701	2.304	2.096	2.702	2.570	2.511	2.363	3.290	3.459	3.609	3.812	3.777	4.094	4.385	4.403	4.402	4.670	4.582	4.252	4.410	4.112	4.350	4.473	4.643	4.974	4.916	4.806	4.766	5.139	4.866	5.129	5.134	5.340
