Sample:	'1
File name:	Default_20230214_150019.FD3
Run date:	'14:53:58, 02/14/2023
Operator:	dsjg
Comment:	'

Instrument
Model:	F-2700 FL Spectrophotometer
Serial number:	2198-001
ROM Version:	4J14000 07

Instrument parameters
Measurement type:	3-D scan
Data mode:	Fluorescence
EX  Start WL:	220.0 nm
EX  End WL:	600.0 nm
EX Sampling interval:	5.0 nm
EM  Start WL:	230.0 nm
EM  End WL:	650.0 nm
EM Sampling interval:	5.0 nm
Scan speed:	12000 nm/min
EX Slit:	5.0 nm
EM Slit:	5.0 nm
PMT Voltage:	700 V
Response:	Auto 
Corrected spectra:	Off
Contour interval:	50.000

Peak integration
Integration method:	Rectangular
Sensitivity:	1
Threshold:	1.000

Peaks
No.	ApexEX/EM(nm)	Height(Data)
1	230.0/345.0	201.3
2	230.0/505.0	67.97
3	235.0/260.0	118.5
4	235.0/515.0	66.55
5	240.0/265.0	147.0
6	240.0/400.0	187.2
7	240.0/525.0	63.93
8	245.0/270.0	139.9
9	245.0/415.0	179.9
10	245.0/540.0	56.35
11	250.0/275.0	167.5
12	250.0/425.0	172.3
13	250.0/550.0	46.51
14	255.0/280.0	183.3
15	255.0/440.0	175.7
16	255.0/560.0	41.03
17	260.0/435.0	177.0
18	260.0/575.0	31.16
19	265.0/295.0	202.5
20	265.0/420.0	172.0
21	265.0/585.0	28.19
22	270.0/300.0	264.7
23	270.0/595.0	24.45
24	275.0/305.0	289.9
25	275.0/605.0	20.58
26	280.0/310.0	252.2
27	280.0/355.0	199.8
28	280.0/385.0	199.5
29	280.0/615.0	16.80
30	285.0/315.0	241.1
31	285.0/360.0	200.3
32	285.0/630.0	13.34
33	290.0/325.0	236.4
34	290.0/645.0	10.60
35	295.0/330.0	201.8
36	300.0/335.0	198.9
37	305.0/340.0	190.9
38	310.0/350.0	163.5
39	315.0/355.0	155.4
40	320.0/360.0	162.1
41	330.0/375.0	136.2
42	335.0/380.0	149.4
43	340.0/385.0	136.1
44	350.0/400.0	123.6
45	355.0/405.0	120.5
46	365.0/420.0	96.69
47	370.0/425.0	93.59
48	375.0/430.0	80.71
49	380.0/440.0	71.23
50	385.0/445.0	64.46
51	400.0/465.0	39.89
52	405.0/470.0	31.87
53	415.0/485.0	23.96
54	420.0/490.0	19.44
55	430.0/505.0	14.93
56	435.0/510.0	11.99
57	445.0/525.0	8.911
58	450.0/530.0	7.444
59	455.0/540.0	6.256
60	460.0/545.0	5.219
61	475.0/565.0	2.721
62	545.0/300.0	1.799
63	555.0/305.0	1.744
64	570.0/315.0	1.568
65	575.0/320.0	1.495
66	585.0/325.0	1.697

Data points
	220.0	225.0	230.0	235.0	240.0	245.0	250.0	255.0	260.0	265.0	270.0	275.0	280.0	285.0	290.0	295.0	300.0	305.0	310.0	315.0	320.0	325.0	330.0	335.0	340.0	345.0	350.0	355.0	360.0	365.0	370.0	375.0	380.0	385.0	390.0	395.0	400.0	405.0	410.0	415.0	420.0	425.0	430.0	435.0	440.0	445.0	450.0	455.0	460.0	465.0	470.0	475.0	480.0	485.0	490.0	495.0	500.0	505.0	510.0	515.0	520.0	525.0	530.0	535.0	540.0	545.0	550.0	555.0	560.0	565.0	570.0	575.0	580.0	585.0	590.0	595.0	600.0
230.0	11.23	210.7	489.7	117.5	3.759	1.258	1.155	0.886	0.728	0.735	0.750	0.444	0.457	0.405	0.324	0.344	0.309	0.329	0.296	0.251	0.271	0.202	0.194	0.208	0.214	0.202	0.191	0.170	0.203	0.181	0.184	0.161	0.149	0.139	0.159	0.205	0.269	0.225	0.230	0.203	0.159	0.180	0.177	0.166	0.145	0.163	0.170	0.449	1.215	1.438	0.784	0.222	0.099	0.085	0.080	0.057	0.068	0.051	0.076	0.051	0.063	0.060	0.055	0.044	0.060	0.057	0.058	0.049	0.045	0.051	0.031	0.045	0.016	0.029	0.029	0.037	0.030
235.0	12.69	66.18	452.4	561.7	194.5	6.065	1.169	1.239	1.163	0.798	0.709	0.834	0.631	0.533	0.306	0.407	0.279	0.279	0.284	0.326	0.366	0.256	0.213	0.233	0.234	0.209	0.193	0.188	0.177	0.191	0.147	0.168	0.158	0.121	0.142	0.157	0.222	0.268	0.274	0.246	0.269	0.196	0.167	0.162	0.193	0.182	0.141	0.180	0.448	0.903	1.637	2.475	1.520	0.412	0.084	0.061	0.131	0.066	0.072	0.064	0.043	0.050	0.065	0.057	0.048	0.057	0.038	0.053	0.062	0.049	0.053	0.041	0.026	0.018	0.044	0.013	0.040
240.0	24.34	26.16	168.2	700.3	795.7	155.0	2.830	1.441	1.397	0.992	0.975	0.803	0.559	0.471	0.647	0.324	0.303	0.218	0.313	0.237	0.309	0.322	0.151	0.215	0.268	0.225	0.178	0.141	0.222	0.127	0.130	0.152	0.148	0.133	0.120	0.134	0.157	0.205	0.238	0.242	0.255	0.180	0.184	0.172	0.194	0.245	0.193	0.165	0.199	0.309	0.730	2.156	3.688	3.114	1.554	0.271	0.078	0.054	0.067	0.085	0.035	0.047	0.045	0.050	0.046	0.053	0.056	0.054	0.038	0.051	0.041	0.033	0.043	0.032	0.059	0.043	0.037
245.0	29.36	41.23	50.04	308.8	999.9	769.3	99.03	2.304	2.099	1.139	1.120	0.733	0.563	0.519	0.517	0.472	0.275	0.333	0.224	0.253	0.315	0.289	0.237	0.252	0.209	0.288	0.148	0.188	0.173	0.173	0.202	0.186	0.132	0.151	0.138	0.153	0.147	0.170	0.265	0.222	0.223	0.177	0.231	0.196	0.173	0.263	0.249	0.295	0.208	0.182	0.243	0.701	1.969	4.092	5.203	3.135	0.973	0.150	0.078	0.076	0.057	0.065	0.049	0.062	0.031	0.056	0.064	0.047	0.053	0.028	0.041	0.024	0.026	0.068	0.045	0.026	0.068
250.0	15.48	46.79	69.44	93.87	377.3	887.2	795.1	164.7	18.52	1.528	1.500	0.975	0.820	0.696	0.514	0.467	0.409	0.303	0.279	0.302	0.280	0.245	0.336	0.198	0.222	0.230	0.186	0.182	0.229	0.190	0.229	0.157	0.150	0.140	0.123	0.140	0.161	0.095	0.173	0.213	0.251	0.183	0.211	0.198	0.165	0.218	0.189	0.266	0.326	0.316	0.284	0.288	0.554	1.316	2.562	3.936	5.174	4.511	2.816	0.905	0.154	0.058	0.051	0.078	0.048	0.069	0.050	0.046	0.058	0.039	0.049	0.042	0.051	0.050	0.046	0.027	0.046
255.0	7.595	19.75	77.99	113.4	109.7	249.2	845.5	 1356	230.7	14.11	2.185	1.295	1.085	0.853	0.586	0.486	0.425	0.531	0.431	0.242	0.285	0.237	0.301	0.195	0.280	0.197	0.158	0.182	0.192	0.229	0.180	0.180	0.116	0.130	0.127	0.122	0.122	0.098	0.108	0.154	0.243	0.252	0.225	0.209	0.192	0.198	0.146	0.170	0.173	0.258	0.513	0.535	0.392	0.435	0.669	1.002	1.817	3.773	7.260	7.757	4.351	1.118	0.097	0.072	0.050	0.059	0.086	0.018	0.065	0.069	0.049	0.057	0.041	0.047	0.045	0.026	0.030
260.0	5.666	7.046	36.32	118.5	112.0	71.54	292.2	 1236	 1457	180.3	7.289	1.979	1.581	0.800	0.616	0.607	0.507	0.525	0.419	0.333	0.238	0.271	0.265	0.293	0.229	0.219	0.178	0.209	0.173	0.200	0.196	0.202	0.151	0.174	0.159	0.155	0.101	0.126	0.105	0.113	0.134	0.230	0.201	0.255	0.232	0.179	0.143	0.170	0.136	0.171	0.329	0.607	0.821	0.548	0.331	0.330	0.545	1.103	3.115	6.265	9.347	7.510	3.000	0.463	0.059	0.075	0.053	0.055	0.049	0.062	0.063	0.043	0.030	0.045	0.028	0.033	0.027
265.0	6.190	4.066	12.70	69.07	147.0	80.13	77.18	472.0	 1577	 1355	134.7	3.728	1.699	1.024	0.694	0.696	0.500	0.525	0.523	0.329	0.335	0.351	0.320	0.350	0.323	0.228	0.240	0.220	0.168	0.213	0.178	0.205	0.189	0.154	0.129	0.182	0.179	0.127	0.130	0.077	0.120	0.180	0.202	0.254	0.230	0.244	0.202	0.193	0.140	0.142	0.176	0.267	0.663	0.870	0.747	0.344	0.249	0.354	0.850	1.932	5.054	8.917	10.22	6.405	1.623	0.160	0.071	0.092	0.056	0.077	0.071	0.084	0.052	0.047	0.037	0.052	0.031
270.0	6.858	4.452	7.023	20.57	82.16	139.9	94.46	125.0	530.0	 1338	 1441	529.0	32.51	1.736	1.030	1.041	0.664	0.551	0.558	0.422	0.485	0.297	0.359	0.329	0.329	0.283	0.289	0.195	0.231	0.256	0.211	0.197	0.147	0.174	0.165	0.119	0.120	0.150	0.132	0.101	0.089	0.118	0.187	0.246	0.217	0.231	0.202	0.188	0.149	0.143	0.143	0.159	0.268	0.467	0.666	0.745	0.745	0.481	0.324	0.546	1.310	2.572	4.921	7.458	8.738	7.709	4.331	1.410	0.138	0.082	0.081	0.048	0.054	0.032	0.037	0.030	0.046
275.0	8.019	5.616	7.659	8.812	23.43	78.62	167.5	119.4	134.7	355.8	 1040	 1810	766.4	32.12	1.909	1.407	0.967	0.764	0.681	0.508	0.428	0.391	0.295	0.315	0.298	0.265	0.282	0.266	0.232	0.294	0.232	0.245	0.150	0.134	0.139	0.148	0.119	0.159	0.126	0.108	0.134	0.113	0.117	0.174	0.284	0.245	0.212	0.192	0.175	0.166	0.141	0.156	0.141	0.214	0.262	0.344	0.672	1.037	0.977	0.484	0.440	0.682	1.236	1.829	2.908	5.705	9.966	11.11	5.914	1.149	0.073	0.058	0.041	0.041	0.047	0.049	0.049
280.0	13.53	10.24	9.855	7.516	10.45	29.08	122.6	183.3	93.51	98.73	330.8	 1289	 1867	558.0	11.81	1.712	1.412	0.888	0.679	0.545	0.546	0.372	0.292	0.357	0.377	0.255	0.297	0.273	0.221	0.257	0.256	0.233	0.197	0.177	0.145	0.178	0.106	0.139	0.105	0.123	0.121	0.117	0.084	0.151	0.183	0.228	0.229	0.235	0.196	0.145	0.140	0.152	0.158	0.161	0.154	0.178	0.341	0.715	1.098	1.138	0.717	0.347	0.401	0.551	0.788	1.597	4.001	8.402	11.92	9.832	3.532	0.383	0.066	0.037	0.067	0.038	0.064
285.0	16.11	17.26	15.29	9.610	9.246	14.04	53.49	162.4	170.2	65.30	102.6	449.9	 1508	 1721	97.90	4.406	1.719	0.995	0.855	0.727	0.584	0.476	0.463	0.411	0.309	0.284	0.341	0.275	0.296	0.272	0.202	0.207	0.152	0.229	0.129	0.161	0.093	0.113	0.125	0.125	0.127	0.123	0.106	0.122	0.118	0.246	0.229	0.247	0.191	0.178	0.183	0.155	0.154	0.164	0.135	0.133	0.207	0.356	0.530	1.058	1.355	0.855	0.396	0.272	0.361	0.494	1.080	2.481	5.857	10.34	12.02	7.778	1.611	0.117	0.067	0.040	0.067
290.0	23.70	24.39	22.65	17.64	12.67	12.28	25.38	75.18	170.6	174.6	99.76	144.4	488.9	 1176	 1400	371.9	23.76	1.615	1.182	0.819	0.794	0.557	0.481	0.502	0.368	0.363	0.404	0.285	0.276	0.286	0.246	0.230	0.166	0.189	0.167	0.167	0.133	0.133	0.161	0.132	0.138	0.133	0.114	0.133	0.138	0.191	0.199	0.258	0.255	0.235	0.198	0.196	0.175	0.185	0.176	0.155	0.149	0.205	0.254	0.468	0.749	0.969	1.208	0.921	0.597	0.354	0.524	0.769	1.599	3.109	5.615	8.221	9.639	8.174	4.478	1.075	0.137
295.0	29.11	35.59	35.53	23.80	18.08	17.56	22.74	41.03	88.67	202.5	202.4	120.8	158.2	318.6	791.8	 1672	564.0	25.43	1.655	1.245	0.916	0.765	0.500	0.467	0.595	0.470	0.447	0.291	0.290	0.319	0.274	0.243	0.264	0.231	0.162	0.189	0.123	0.178	0.143	0.132	0.135	0.148	0.145	0.139	0.136	0.181	0.181	0.223	0.293	0.274	0.231	0.247	0.221	0.191	0.232	0.221	0.191	0.228	0.242	0.278	0.382	0.480	0.718	1.230	1.483	1.074	0.674	0.501	0.636	0.950	1.441	2.090	3.257	6.145	11.47	12.12	5.564
300.0	33.18	39.16	40.92	31.19	24.05	22.69	25.66	36.56	61.59	135.5	264.7	179.9	103.0	111.2	250.4	 1062	 1891	432.7	8.449	1.521	1.266	0.947	0.726	0.589	0.573	0.522	0.469	0.284	0.383	0.418	0.231	0.236	0.296	0.248	0.178	0.240	0.130	0.218	0.189	0.168	0.175	0.128	0.127	0.162	0.149	0.188	0.203	0.241	0.275	0.330	0.259	0.240	0.224	0.201	0.205	0.211	0.190	0.233	0.192	0.265	0.314	0.315	0.460	0.714	1.327	1.799	1.548	0.808	0.491	0.536	0.554	0.670	0.952	1.786	4.865	10.22	14.57
305.0	32.67	45.62	45.37	35.37	27.57	25.39	30.66	40.39	55.73	97.07	205.5	289.9	142.0	73.09	85.37	349.1	 1334	 1857	63.36	3.195	1.525	1.088	0.867	0.741	0.674	0.602	0.577	0.349	0.433	0.333	0.330	0.274	0.210	0.266	0.230	0.225	0.169	0.208	0.176	0.170	0.139	0.150	0.136	0.159	0.183	0.196	0.181	0.264	0.234	0.248	0.308	0.262	0.240	0.201	0.240	0.218	0.204	0.238	0.274	0.247	0.365	0.367	0.406	0.530	0.859	1.197	1.732	1.744	0.828	0.489	0.396	0.433	0.420	0.563	1.282	3.269	7.779
310.0	31.93	45.44	46.69	39.64	31.27	31.79	36.77	46.26	60.92	85.06	130.6	220.0	252.2	132.8	57.51	101.8	401.6	 1147	 1533	658.2	17.25	1.635	1.176	0.855	0.745	0.666	0.555	0.391	0.476	0.359	0.363	0.270	0.295	0.233	0.213	0.213	0.217	0.213	0.182	0.200	0.167	0.181	0.163	0.180	0.175	0.154	0.206	0.220	0.236	0.219	0.261	0.305	0.320	0.266	0.269	0.239	0.240	0.274	0.297	0.296	0.346	0.369	0.416	0.473	0.621	0.734	0.965	1.350	1.479	1.280	0.810	0.515	0.321	0.369	0.450	0.874	1.986
315.0	32.95	46.72	52.44	41.45	39.97	37.90	44.11	52.20	67.11	83.03	109.5	140.7	196.8	241.1	98.23	55.00	112.3	287.3	741.6	 1812	418.4	17.55	1.591	1.160	0.892	0.802	0.581	0.506	0.573	0.465	0.380	0.364	0.326	0.315	0.211	0.243	0.201	0.257	0.200	0.184	0.224	0.182	0.142	0.138	0.151	0.202	0.211	0.217	0.238	0.252	0.231	0.315	0.293	0.298	0.313	0.253	0.318	0.237	0.317	0.344	0.411	0.420	0.389	0.487	0.581	0.622	0.646	0.799	0.887	0.967	1.568	1.257	0.582	0.387	0.326	0.388	0.633
320.0	41.14	65.70	70.74	53.45	39.99	44.46	49.71	58.30	73.06	90.87	111.9	126.8	148.3	222.4	199.1	69.00	53.77	85.86	214.9	990.9	 1971	327.4	7.313	1.616	1.176	0.768	0.705	0.501	0.599	0.516	0.444	0.333	0.347	0.290	0.264	0.205	0.189	0.296	0.189	0.176	0.192	0.167	0.134	0.134	0.220	0.189	0.226	0.269	0.340	0.299	0.271	0.262	0.315	0.365	0.315	0.293	0.343	0.277	0.356	0.382	0.398	0.465	0.450	0.465	0.599	0.645	0.688	0.744	0.622	0.711	1.208	1.495	1.233	0.793	0.452	0.370	0.360
325.0	55.10	98.11	108.9	72.15	50.12	50.79	57.16	67.72	82.56	103.5	123.2	136.8	137.3	168.0	236.4	147.0	52.74	46.68	66.81	296.4	 1347	 1794	49.56	2.919	1.528	1.095	0.922	0.635	0.599	0.482	0.482	0.387	0.375	0.336	0.316	0.248	0.262	0.256	0.220	0.198	0.162	0.180	0.171	0.208	0.210	0.235	0.249	0.291	0.365	0.432	0.354	0.308	0.381	0.345	0.336	0.329	0.389	0.379	0.403	0.457	0.472	0.458	0.484	0.676	0.680	0.669	0.765	0.723	0.708	0.707	0.783	1.011	1.316	1.697	0.898	0.512	0.384
330.0	60.87	118.2	135.6	89.49	62.24	57.51	63.83	76.18	92.47	114.9	134.6	149.1	147.7	146.7	169.9	201.8	122.6	52.84	41.06	84.70	379.7	 1124	 1559	625.8	14.50	1.585	1.165	0.850	0.700	0.532	0.520	0.524	0.362	0.378	0.299	0.269	0.212	0.264	0.232	0.199	0.197	0.203	0.184	0.235	0.213	0.236	0.293	0.448	0.487	0.526	0.397	0.370	0.371	0.335	0.357	0.409	0.414	0.436	0.403	0.506	0.524	0.508	0.564	0.684	0.669	0.729	0.739	0.742	0.735	0.732	0.770	0.767	0.890	1.167	1.198	1.234	0.839
335.0	75.17	136.5	165.7	108.9	78.31	73.44	80.52	88.91	105.5	127.9	151.2	168.5	166.9	160.0	145.5	152.4	198.9	119.9	46.79	44.05	104.3	275.3	734.7	 1926	347.7	15.97	1.727	1.102	1.062	0.582	0.565	0.579	0.393	0.395	0.330	0.274	0.259	0.246	0.187	0.209	0.201	0.263	0.254	0.199	0.223	0.338	0.302	0.431	0.696	0.556	0.488	0.435	0.373	0.408	0.413	0.455	0.499	0.509	0.404	0.523	0.647	0.610	0.696	0.653	0.766	0.815	0.841	0.793	0.911	0.765	0.811	0.826	0.906	0.822	0.942	0.985	1.330
340.0	82.15	158.1	195.8	134.5	97.08	95.49	95.07	105.2	119.5	139.6	165.7	183.1	186.5	180.5	158.7	132.8	165.4	190.9	69.49	42.89	48.39	80.19	201.7	 1066	 2042	283.9	6.260	1.325	1.114	0.887	0.772	0.575	0.469	0.401	0.298	0.287	0.309	0.264	0.197	0.224	0.185	0.264	0.245	0.207	0.244	0.336	0.369	0.538	0.674	0.644	0.592	0.511	0.518	0.438	0.453	0.423	0.493	0.620	0.612	0.605	0.660	0.681	0.738	0.770	0.820	0.886	0.925	1.000	0.898	0.883	0.917	0.870	0.939	0.872	0.763	0.774	0.997
345.0	88.13	156.6	201.3	155.4	113.5	107.6	107.4	116.4	128.5	142.5	170.8	191.1	195.6	191.6	170.2	133.1	125.4	186.0	145.0	56.01	41.17	42.23	63.07	308.8	 1500	 1818	43.04	2.518	1.396	1.048	0.835	0.613	0.453	0.444	0.359	0.292	0.321	0.282	0.248	0.235	0.239	0.239	0.256	0.252	0.224	0.260	0.397	0.588	0.702	0.668	0.628	0.620	0.646	0.508	0.499	0.506	0.533	0.578	0.719	0.637	0.695	0.680	0.710	0.743	0.746	0.926	0.995	0.984	1.036	0.964	0.949	0.926	0.950	0.823	0.763	0.695	0.815
350.0	80.83	149.5	194.2	160.0	128.8	119.7	116.7	123.9	130.2	144.4	169.5	192.6	198.2	194.1	175.6	140.1	116.1	128.9	163.5	126.5	53.63	40.77	38.03	87.64	413.5	 1215	 1650	598.7	12.85	1.432	1.069	0.887	0.576	0.507	0.386	0.360	0.384	0.295	0.244	0.225	0.265	0.233	0.244	0.257	0.248	0.288	0.395	0.507	0.652	0.676	0.632	0.662	0.647	0.620	0.573	0.529	0.564	0.602	0.696	0.701	0.759	0.757	0.692	0.794	0.823	0.899	0.933	0.866	0.978	0.959	0.982	0.951	1.038	0.916	0.827	0.664	0.723
355.0	77.69	139.9	187.9	164.5	142.3	130.5	129.3	133.3	134.9	153.3	169.5	189.9	199.8	198.5	182.8	147.9	120.6	112.4	114.5	155.4	121.0	53.30	39.70	44.57	110.2	291.2	778.3	 1945	320.2	15.83	1.438	1.000	0.757	0.688	0.440	0.401	0.324	0.364	0.274	0.235	0.276	0.267	0.294	0.250	0.230	0.289	0.349	0.528	0.568	0.588	0.590	0.710	0.669	0.612	0.639	0.618	0.657	0.705	0.640	0.731	0.838	0.742	0.745	0.831	0.846	0.945	0.839	0.940	0.975	0.983	1.074	1.016	1.009	0.987	0.863	0.759	0.656
360.0	71.08	132.8	182.6	165.2	145.4	138.4	134.9	141.7	140.2	153.6	168.9	188.4	199.4	200.3	184.8	153.0	125.2	111.6	102.2	121.2	162.1	88.49	46.82	40.63	47.24	80.26	204.7	 1093	 1960	272.7	5.533	1.384	0.976	0.714	0.527	0.447	0.417	0.426	0.292	0.272	0.279	0.291	0.255	0.207	0.253	0.338	0.380	0.489	0.537	0.604	0.592	0.741	0.695	0.702	0.626	0.691	0.710	0.748	0.586	0.740	0.749	0.788	0.834	0.914	0.847	0.904	0.843	1.023	0.896	0.950	1.168	1.095	0.960	0.947	0.801	0.785	0.784
365.0	73.59	127.3	170.3	165.5	154.7	140.6	138.3	146.9	143.5	153.0	170.1	185.4	196.6	199.0	184.1	155.2	131.5	115.7	102.6	102.7	143.6	141.2	57.98	45.31	36.70	37.06	59.13	305.6	 1498	 1840	40.05	2.504	1.151	0.885	0.649	0.465	0.407	0.422	0.269	0.252	0.296	0.285	0.272	0.243	0.297	0.357	0.303	0.467	0.539	0.661	0.554	0.734	0.743	0.618	0.670	0.711	0.733	0.706	0.667	0.766	0.842	0.800	0.794	0.907	0.845	0.839	0.935	0.953	1.003	1.040	1.048	0.983	0.985	0.967	0.843	0.780	0.800
370.0	65.71	118.3	162.6	166.1	157.6	152.9	145.9	150.7	147.9	154.3	170.4	182.5	192.7	192.2	179.4	155.5	136.7	122.1	110.6	102.5	108.8	138.9	122.7	67.25	42.93	34.60	32.39	83.25	410.5	 1278	 1544	543.0	11.71	1.346	0.821	0.659	0.484	0.410	0.319	0.305	0.312	0.278	0.261	0.207	0.254	0.326	0.318	0.506	0.562	0.589	0.539	0.690	0.727	0.689	0.726	0.741	0.688	0.758	0.685	0.805	0.800	0.811	0.799	0.882	0.909	0.887	0.926	0.960	0.998	1.006	0.964	0.975	1.024	0.973	0.840	0.844	0.801
375.0	62.34	106.3	152.1	166.1	164.7	162.0	155.0	154.2	152.9	161.6	173.2	183.9	193.7	191.2	177.1	159.9	142.6	132.1	121.2	108.9	104.6	106.7	136.2	127.4	63.66	44.00	35.86	42.63	108.9	305.1	773.8	 1867	280.3	14.01	1.308	0.864	0.631	0.471	0.363	0.310	0.353	0.245	0.222	0.225	0.260	0.304	0.392	0.455	0.539	0.576	0.563	0.689	0.704	0.782	0.728	0.768	0.825	0.764	0.725	0.797	0.697	0.716	0.796	0.837	0.957	0.819	0.990	0.980	0.927	0.946	0.950	0.993	1.134	0.991	0.770	0.830	0.813
380.0	59.99	106.2	154.5	169.5	169.5	169.7	161.0	155.7	157.9	164.9	175.0	185.2	199.3	194.8	178.3	161.6	147.6	139.4	128.1	116.7	107.8	101.9	111.0	149.4	99.43	54.81	44.41	41.12	46.93	85.60	208.2	 1083	 1727	235.7	4.709	1.091	0.763	0.576	0.437	0.441	0.359	0.298	0.301	0.244	0.302	0.314	0.400	0.419	0.514	0.538	0.509	0.658	0.742	0.801	0.764	0.831	0.734	0.813	0.745	0.725	0.726	0.760	0.809	0.784	0.949	0.941	0.962	0.996	1.029	1.027	1.027	1.026	1.111	1.075	0.842	0.897	0.971
385.0	60.96	104.6	156.1	175.2	176.9	174.6	166.6	157.9	157.8	164.8	175.2	186.3	199.5	193.5	178.8	163.0	151.6	142.5	134.1	122.0	112.7	103.6	100.1	128.1	136.1	75.19	53.02	46.23	37.69	40.31	67.93	311.0	 1337	 1609	33.42	1.935	1.008	0.675	0.470	0.552	0.421	0.327	0.285	0.276	0.267	0.342	0.389	0.439	0.499	0.604	0.541	0.713	0.703	0.690	0.761	0.734	0.778	0.787	0.751	0.801	0.846	0.797	0.833	0.803	0.910	0.986	0.820	1.132	1.000	1.045	1.081	1.031	1.011	0.951	0.855	0.936	0.946
390.0	55.53	98.15	145.5	171.4	176.0	173.5	168.4	164.7	159.1	164.4	176.1	183.6	193.9	187.1	177.4	165.9	155.5	146.4	137.6	127.8	116.9	108.1	102.3	104.2	122.7	117.2	73.71	51.34	39.40	32.97	37.14	89.69	366.9	 1101	 1304	436.3	9.922	0.920	0.628	0.513	0.421	0.368	0.334	0.289	0.289	0.359	0.360	0.456	0.488	0.532	0.560	0.708	0.763	0.712	0.841	0.806	0.770	0.766	0.821	0.761	0.794	0.830	0.825	0.828	0.885	0.943	0.843	0.980	0.973	1.035	1.017	1.005	1.036	1.017	0.911	0.962	1.009
395.0	59.61	98.16	139.9	162.9	178.4	177.0	172.3	169.0	163.8	166.5	177.3	179.7	189.9	186.2	175.9	165.7	157.1	150.3	141.1	131.8	121.1	113.5	105.0	100.4	98.86	115.1	116.1	69.05	45.01	36.52	33.56	41.84	95.17	258.2	656.1	 1521	234.6	11.57	0.862	0.697	0.617	0.388	0.396	0.271	0.351	0.383	0.434	0.419	0.458	0.494	0.606	0.759	0.815	0.828	0.793	0.804	0.768	0.791	0.840	0.843	0.806	0.843	0.871	0.859	0.875	0.928	0.913	0.892	0.946	0.991	1.014	1.026	0.953	1.017	0.946	0.978	0.973
400.0	57.75	94.87	135.6	164.7	187.2	176.1	176.4	168.0	167.4	169.0	175.0	178.2	187.1	183.4	172.6	165.5	159.5	151.3	140.7	131.2	121.7	115.9	108.3	102.0	94.58	96.16	123.6	99.26	54.21	41.94	37.33	35.38	37.17	66.68	166.7	879.3	 1494	200.3	4.371	0.842	0.621	0.517	0.374	0.304	0.360	0.397	0.411	0.396	0.476	0.508	0.586	0.718	0.773	0.911	0.844	0.776	0.783	0.829	0.782	0.805	0.875	0.840	0.835	0.846	0.860	0.894	0.911	0.856	0.947	1.092	0.937	1.009	0.971	0.979	0.964	1.022	1.039
405.0	56.68	95.31	136.0	165.5	187.1	177.9	177.5	170.0	170.4	166.7	176.5	180.3	182.2	182.8	169.6	164.2	158.8	150.2	140.5	131.7	122.4	116.6	108.9	103.8	95.97	88.43	103.2	120.5	73.61	47.17	41.61	36.36	26.71	25.52	44.93	238.1	 1111	 1225	29.84	1.931	0.767	0.594	0.475	0.411	0.396	0.335	0.413	0.426	0.551	0.558	0.531	0.751	0.802	0.758	0.862	0.787	0.822	0.838	0.847	0.757	0.835	0.868	0.903	0.835	0.842	0.820	0.827	0.881	0.947	1.062	0.916	0.956	0.880	0.915	0.905	0.981	1.120
410.0	55.28	91.10	131.7	161.1	179.8	178.6	172.7	171.1	168.9	169.2	174.6	173.9	179.7	174.5	164.5	160.3	152.7	146.2	136.9	129.7	121.8	115.3	108.6	104.4	95.58	87.73	86.19	102.6	100.2	66.21	45.23	38.37	26.68	19.43	19.47	59.80	294.5	827.8	 1008	357.4	9.227	0.774	0.608	0.489	0.358	0.381	0.372	0.395	0.530	0.491	0.527	0.727	0.792	0.765	0.785	0.796	0.858	0.874	0.896	0.850	0.863	0.831	0.842	0.814	0.822	0.805	0.831	0.927	0.936	0.930	0.937	0.953	0.960	0.884	0.963	0.961	1.052
