Sample:	'1
File name:	T2025031802Ð¢¸¾ºÓ¹¢½¹Â·ÇÅ.FD3
Run date:	'16:19:46, 03/19/2025
Operator:	Administrator
Comment:	'

Instrument
Model:	F-2700 FL Spectrophotometer
Serial number:	23B8-004
ROM Version:	4J14000 07

Instrument parameters
Measurement type:	3-D scan
Data mode:	Fluorescence
EX  Start WL:	220.0 nm
EX  End WL:	600.0 nm
EX Sampling interval:	5.0 nm
EM  Start WL:	230.0 nm
EM  End WL:	650.0 nm
EM Sampling interval:	5.0 nm
Scan speed:	12000 nm/min
EX Slit:	5.0 nm
EM Slit:	5.0 nm
PMT Voltage:	700 V
Response:	Auto 
Corrected spectra:	Off
Contour interval:	50.000

Peak integration
Integration method:	Rectangular
Sensitivity:	1
Threshold:	1.000

Peaks
No.	ApexEX/EM(nm)	Height(Data)
1	230.0/640.0	135.3
2	235.0/340.0	6684
3	240.0/520.0	294.1
4	245.0/535.0	239.4
5	250.0/545.0	188.9
6	255.0/280.0	577.3
7	255.0/560.0	147.7
8	260.0/285.0	576.3
9	260.0/575.0	117.3
10	265.0/585.0	105.8
11	275.0/320.0	4897
12	275.0/615.0	267.8
13	280.0/385.0	2503
14	280.0/625.0	251.2
15	335.0/385.0	727.2
16	335.0/405.0	677.3
17	350.0/400.0	862.5
18	355.0/385.0	895.3
19	355.0/405.0	906.5
20	370.0/405.0	849.7
21	430.0/505.0	27.83
22	445.0/525.0	17.32
23	460.0/545.0	9.676
24	475.0/340.0	24.28
25	515.0/280.0	4.147
26	520.0/285.0	4.401
27	545.0/385.0	10.20
28	560.0/320.0	24.65
29	570.0/385.0	13.90

Data points
	220.0	225.0	230.0	235.0	240.0	245.0	250.0	255.0	260.0	265.0	270.0	275.0	280.0	285.0	290.0	295.0	300.0	305.0	310.0	315.0	320.0	325.0	330.0	335.0	340.0	345.0	350.0	355.0	360.0	365.0	370.0	375.0	380.0	385.0	390.0	395.0	400.0	405.0	410.0	415.0	420.0	425.0	430.0	435.0	440.0	445.0	450.0	455.0	460.0	465.0	470.0	475.0	480.0	485.0	490.0	495.0	500.0	505.0	510.0	515.0	520.0	525.0	530.0	535.0	540.0	545.0	550.0	555.0	560.0	565.0	570.0	575.0	580.0	585.0	590.0	595.0	600.0
230.0	64.98	1167	3626	1231	57.02	14.82	12.02	10.07	8.664	8.331	8.114	7.437	6.826	5.891	5.402	4.825	5.015	3.725	3.350	2.965	2.781	2.539	2.578	2.264	2.123	1.953	2.007	1.828	1.729	1.772	1.778	1.585	1.412	1.420	1.263	1.165	1.247	1.112	1.058	0.956	0.990	1.013	1.003	0.943	0.861	0.852	1.612	5.848	12.87	11.67	5.031	1.337	0.706	0.703	0.700	0.672	0.720	0.673	0.657	0.741	0.652	0.641	0.619	0.635	0.618	0.631	0.649	0.634	0.619	0.613	0.617	0.608	0.618	0.590	0.587	0.637	0.647
235.0	84.56	344.0	2514	4863	597.8	111.4	14.94	11.69	9.550	9.683	9.098	7.325	7.232	7.008	5.243	5.103	5.500	3.790	3.473	2.970	2.725	2.640	2.566	2.186	2.062	1.994	1.990	1.827	1.543	1.625	1.744	1.599	1.412	1.595	1.308	1.254	1.245	1.123	1.067	1.032	0.973	0.985	0.937	1.029	0.987	0.873	1.001	2.053	5.104	10.61	18.45	21.16	11.86	2.834	0.863	0.668	0.675	0.767	0.718	0.683	0.647	0.655	0.689	0.630	0.684	0.688	0.640	0.557	0.563	0.615	0.629	0.557	0.616	0.637	0.571	0.658	0.650
240.0	111.9	153.8	775.2	4328	4700	508.5	56.92	14.73	11.65	11.21	9.064	8.280	7.418	7.403	5.561	5.131	5.695	3.692	3.378	2.869	3.258	2.980	2.755	2.510	2.383	2.039	2.158	2.019	1.909	1.763	1.999	1.781	1.485	1.595	1.345	1.304	1.109	1.090	1.082	1.207	0.964	1.003	1.034	0.999	0.948	1.070	1.027	1.092	1.700	3.379	9.274	25.23	37.17	22.90	10.50	1.900	0.768	0.768	0.720	0.675	0.697	0.691	0.736	0.608	0.656	0.637	0.629	0.695	0.576	0.680	0.576	0.590	0.641	0.638	0.623	0.610	0.695
245.0	104.7	187.5	243.7	1501	6875	6767	388.3	33.84	12.31	12.48	10.86	9.460	7.861	7.682	5.926	5.671	6.030	4.147	3.660	3.472	3.255	2.610	2.590	2.614	2.455	2.326	2.093	2.053	1.894	1.890	1.859	1.789	1.471	1.724	1.302	1.234	1.240	1.010	1.054	1.120	1.091	1.021	0.903	0.995	0.919	1.085	1.271	1.207	1.029	1.327	2.712	8.209	23.13	39.08	46.27	20.93	8.691	1.340	0.818	0.803	0.744	0.618	0.653	0.664	0.622	0.667	0.645	0.650	0.641	0.625	0.667	0.630	0.731	0.629	0.605	0.638	0.748
250.0	71.40	148.3	240.5	438.3	2235	6570	8507	1465	108.7	17.69	13.83	11.37	9.796	8.401	7.113	5.934	6.376	4.720	4.027	3.630	3.072	2.745	2.722	2.489	2.558	2.311	2.312	2.193	2.019	1.890	1.960	1.774	1.534	1.554	1.412	1.328	1.234	1.166	1.168	1.124	1.157	1.052	0.985	1.023	0.922	1.000	1.063	1.272	1.386	1.344	1.380	2.562	5.990	12.12	25.24	36.75	41.84	50.88	16.89	9.227	1.528	0.732	0.767	0.712	0.682	0.704	0.686	0.677	0.646	0.627	0.654	0.630	0.688	0.681	0.639	0.673	0.711
255.0	69.92	75.52	171.6	349.3	604.3	1641	6241	9999.9	2171	138.9	22.43	15.86	12.78	9.694	8.692	6.777	7.416	4.993	4.257	3.830	3.311	3.005	2.731	2.740	2.511	2.369	2.295	2.278	2.357	2.121	2.056	1.961	1.662	1.492	1.445	1.438	1.307	1.357	1.296	1.166	1.282	0.973	1.034	1.029	0.975	1.027	0.980	1.028	1.009	1.207	1.694	2.283	2.281	3.368	6.338	9.146	14.91	41.64	77.09	110.5	27.24	10.88	1.335	0.820	0.808	0.810	0.666	0.661	0.675	0.691	0.734	0.694	0.683	0.682	0.641	0.646	0.687
260.0	70.43	57.78	87.12	272.7	383.7	440.6	1823	9867	9999.9	1780	94.30	20.82	17.40	11.66	10.13	8.210	8.136	5.446	4.814	4.085	3.863	3.431	2.817	3.025	2.641	2.714	2.571	2.457	2.226	2.095	2.074	2.063	1.817	1.670	1.353	1.287	1.450	1.307	1.399	1.109	1.176	1.061	1.012	0.998	1.066	0.986	0.996	0.904	0.903	0.972	1.226	2.149	2.457	2.182	2.177	2.728	4.118	10.99	29.27	85.89	108.2	101.5	24.01	6.610	1.032	0.843	0.791	0.735	0.729	0.718	0.667	0.703	0.686	0.726	0.681	0.750	0.659
265.0	71.51	54.41	52.44	135.6	384.0	304.5	464.5	3208	9999.9	9999.9	1381	49.50	21.85	14.87	12.34	9.308	9.152	6.197	5.665	4.463	4.122	3.458	3.161	2.989	2.844	2.844	2.533	2.595	2.312	2.342	2.138	1.921	1.941	1.695	1.425	1.404	1.293	1.280	1.252	1.222	1.180	1.103	1.047	1.035	1.032	0.990	0.972	0.921	0.864	0.823	0.904	1.350	2.087	2.677	2.347	1.659	1.764	3.327	7.389	23.43	49.51	105.6	137.7	32.56	19.24	2.881	1.001	0.816	0.827	0.774	0.723	0.718	0.742	0.758	0.779	0.700	0.740
270.0	82.81	66.82	58.52	66.55	183.4	370.1	349.0	793.7	3366	9999.9	9999.9	5213	90.05	23.30	15.67	11.97	11.48	7.723	6.407	5.057	4.679	3.984	3.580	3.416	3.225	2.870	2.723	2.667	2.432	2.449	2.480	2.077	1.991	1.873	1.714	1.567	1.502	1.347	1.331	1.190	1.179	1.202	1.154	1.086	1.112	1.109	1.076	0.993	0.895	0.845	0.835	1.032	1.187	1.584	2.204	2.630	2.553	2.212	2.482	6.210	12.10	28.33	55.90	81.71	122.6	100.1	80.30	13.09	3.979	1.000	0.965	0.810	0.795	0.888	0.792	0.836	0.741
275.0	101.5	108.3	95.72	68.37	82.08	170.3	455.8	450.2	821.6	2454	9481	9999.9	7751	110.3	25.22	17.38	15.70	10.22	8.714	6.013	5.163	4.977	4.055	3.932	3.401	2.895	3.000	2.778	2.678	2.687	2.440	2.411	2.238	2.207	1.812	1.745	1.614	1.508	1.298	1.363	1.266	1.352	1.187	1.230	1.303	1.302	1.153	1.109	1.087	0.900	0.871	1.028	0.985	1.014	1.253	1.608	2.454	3.628	3.380	2.883	3.601	7.151	13.33	19.24	31.91	57.32	137.1	194.6	142.8	20.54	3.098	1.025	1.019	1.001	0.878	0.895	0.840
280.0	144.5	156.6	138.4	87.60	71.16	86.97	273.2	577.3	379.1	637.7	2584	9999.9	9999.9	1125	77.99	24.00	21.31	12.24	9.803	7.292	6.418	5.146	4.464	4.292	3.620	3.383	3.338	3.203	2.971	2.631	2.611	2.630	2.354	2.396	1.971	1.966	1.489	1.678	1.480	1.474	1.548	1.388	1.383	1.331	1.195	1.313	1.216	1.297	1.290	1.113	0.998	1.064	0.969	1.067	0.994	1.162	1.435	2.377	3.611	4.147	2.842	2.703	3.903	5.345	8.221	14.44	39.82	101.4	200.3	224.6	32.27	14.55	1.647	1.079	1.052	0.930	0.867
285.0	175.6	197.2	194.5	119.2	86.80	75.02	131.8	451.8	576.3	305.4	707.0	3190	9999.9	9999.9	887.4	52.14	28.90	16.13	11.79	8.467	7.809	5.925	5.030	4.748	4.265	3.822	3.623	3.357	3.098	2.885	3.005	2.663	2.377	2.267	2.074	2.129	1.844	1.603	1.508	1.458	1.426	1.457	1.435	1.469	1.473	1.595	1.390	1.548	1.473	1.259	1.184	1.207	1.082	1.091	0.991	1.076	1.127	1.467	2.036	3.585	4.401	3.436	2.297	2.421	3.102	4.499	10.23	25.11	63.78	153.2	215.2	201.8	27.35	8.647	1.283	1.188	1.016
290.0	246.7	286.8	289.9	191.1	122.2	102.5	128.3	240.7	539.5	642.1	452.3	944.9	3270	9999.9	9999.9	3579	71.41	26.68	16.59	11.86	9.445	7.111	6.351	5.589	4.867	4.323	4.255	3.738	3.388	3.155	3.354	2.851	2.397	2.456	2.294	2.202	1.953	1.767	1.663	1.553	1.501	1.548	1.455	1.485	1.673	1.802	1.673	1.817	1.816	1.515	1.424	1.448	1.306	1.146	1.228	1.250	1.285	1.447	1.693	2.173	2.803	3.765	4.328	4.073	2.998	2.834	4.080	7.316	16.10	37.52	67.25	122.0	156.6	176.0	127.0	18.37	8.147
295.0	344.7	451.9	463.3	326.2	231.7	202.9	249.2	295.6	450.1	802.5	1009	741.0	1142	2624	8192	9999.9	5655	81.84	27.14	16.74	12.07	9.519	7.630	6.937	5.216	5.033	4.393	4.114	3.963	3.477	3.572	2.921	2.764	2.565	2.369	2.396	2.117	1.886	1.809	1.790	1.653	1.571	1.686	1.575	1.804	1.916	2.212	2.323	2.276	2.047	1.938	1.944	1.750	1.645	1.648	1.763	1.711	1.918	2.188	2.464	2.801	2.860	3.398	5.018	6.621	5.593	4.403	4.605	6.479	11.03	17.57	29.65	38.25	59.74	137.8	236.7	221.7
300.0	457.6	718.3	788.7	587.2	479.5	443.2	449.3	739.3	959.0	1326	1789	1512	1336	1462	2773	9999.9	9999.9	4392	68.93	25.36	16.51	12.10	9.562	7.935	6.565	5.956	4.978	4.549	4.280	3.621	3.996	3.434	2.908	2.891	2.578	2.699	2.243	2.208	2.045	1.888	1.886	1.906	1.844	2.003	2.000	2.706	2.898	3.086	3.314	2.807	2.664	2.901	2.730	2.668	2.704	2.847	3.234	3.617	3.968	4.335	4.564	5.327	6.090	7.251	8.478	10.26	10.15	8.969	9.193	9.134	10.01	12.18	13.85	18.61	38.11	93.95	209.0
305.0	689.5	1130	1178	869.2	828.3	890.2	1137	1505	1954	2205	3127	3639	3014	2366	2311	3998	9999.9	9999.9	617.2	50.69	22.85	14.99	11.66	9.754	7.499	6.460	5.866	5.312	4.663	4.414	4.260	3.732	3.083	3.199	2.824	2.873	2.496	2.423	2.277	2.224	2.133	2.230	2.147	2.411	2.559	3.123	3.764	4.472	4.633	4.072	3.816	4.315	4.191	4.045	4.329	4.598	5.520	6.815	7.297	8.062	8.840	10.04	11.74	12.61	13.95	15.49	18.37	18.47	18.44	15.59	13.85	13.40	13.28	14.53	17.50	29.37	62.27
310.0	985.0	1575	1798	1467	1253	1323	1652	2068	2494	3118	3807	4402	4325	3382	2770	2525	4904	9999.9	9999.9	9416	53.37	22.91	16.03	12.82	9.058	7.820	6.703	6.032	5.359	4.813	4.593	3.920	3.515	3.463	3.095	2.823	2.693	2.557	2.593	2.451	2.352	2.463	2.660	2.711	3.236	3.935	4.710	6.074	6.232	5.694	5.293	5.982	5.774	5.593	5.974	6.333	7.336	8.956	9.851	10.75	11.06	12.59	14.47	16.05	17.36	18.58	20.44	21.24	22.62	22.03	19.75	17.40	16.32	16.37	15.67	16.44	22.92
315.0	1223	2044	2409	1995	1641	1654	2018	2427	2783	3499	4188	4771	4795	4304	3350	2464	2793	3234	8202	9999.9	4168	60.55	24.34	17.49	12.30	9.441	8.040	7.176	6.271	5.362	5.458	4.629	3.644	3.595	3.251	3.338	2.897	2.801	2.742	2.641	2.757	2.805	2.967	3.057	3.851	4.742	5.826	7.524	8.369	7.121	6.881	7.716	7.213	7.176	7.325	7.641	8.730	10.34	11.52	11.97	12.88	13.74	16.03	17.94	18.68	20.52	22.29	22.48	24.21	23.89	23.43	22.65	20.83	19.24	16.44	15.06	15.65
320.0	1342	2375	2864	2321	1869	1815	2151	2525	2869	3614	4280	4897	4888	4508	3809	2596	2371	1717	2271	9999.9	9999.9	3438	50.92	23.24	16.25	11.47	9.354	7.942	6.913	6.125	5.314	5.066	4.211	3.913	3.377	3.304	3.257	3.129	3.025	2.734	2.728	2.730	3.160	3.508	4.070	5.373	6.333	8.997	9.365	8.782	8.180	8.797	7.699	7.741	7.852	8.207	9.416	11.16	12.39	12.85	13.24	14.37	16.41	17.87	18.47	20.56	22.53	22.90	24.65	24.02	23.30	23.88	23.66	22.46	17.88	15.18	14.09
325.0	1578	2785	3474	2916	2140	1908	2181	2528	2773	3446	4117	4726	4792	4332	3840	2738	2214	1351	824.4	2864	9999.9	9999.9	481.9	42.57	20.40	14.46	10.55	9.489	7.518	6.766	5.690	5.446	4.452	4.069	3.469	3.347	3.267	3.203	2.990	2.817	2.976	2.955	3.279	3.614	4.450	5.985	7.407	10.15	11.41	10.57	9.828	10.59	9.308	8.564	8.211	8.399	9.891	10.80	11.95	13.02	12.78	13.22	15.34	17.29	18.40	19.91	21.58	22.64	23.92	23.41	23.27	22.28	22.28	22.86	19.69	15.93	13.92
330.0	1814	3474	4692	4428	3348	2368	2226	2461	2651	3228	3883	4490	4619	4237	3670	2906	2333	1342	644.7	902.3	3121	9999.9	9999.9	8883	45.04	21.52	15.06	11.61	8.913	7.892	6.812	5.712	5.008	4.337	3.913	3.654	3.397	3.279	2.981	3.029	3.008	2.926	3.535	3.914	4.954	6.882	8.963	12.33	14.45	14.31	14.18	15.68	14.21	12.52	10.79	9.363	10.28	10.91	11.92	12.70	12.40	12.51	14.22	15.74	17.54	19.05	20.07	21.49	22.60	22.81	22.52	22.18	21.48	21.14	18.92	17.45	15.73
335.0	2105	4051	5984	6256	5148	3213	2447	2483	2594	3079	3712	4318	4522	4255	3701	2928	2573	1622	802.5	635.5	1021	2547	8878	9999.9	3450	51.89	21.80	15.71	11.70	9.680	7.804	6.706	5.703	5.160	4.393	3.926	3.595	3.362	3.266	3.194	3.274	3.141	3.640	4.268	5.506	7.711	10.10	14.80	17.79	18.47	19.40	22.51	21.59	19.25	14.83	11.66	11.43	11.37	12.37	12.56	12.21	12.56	13.53	15.03	17.16	18.05	19.25	20.76	22.14	22.76	22.94	22.89	22.05	20.54	18.86	17.44	15.90
340.0	2111	4129	6304	6684	5484	3403	2398	2365	2428	2846	3400	3985	4189	4012	3494	2764	2388	1719	901.2	599.6	578.3	844.3	2424	9999.9	9999.9	2963	42.80	20.10	14.61	11.64	9.089	7.434	5.841	5.425	4.706	4.138	3.630	3.397	3.296	3.272	3.263	3.243	3.685	4.247	5.297	7.902	10.09	14.84	18.26	19.34	20.31	24.28	23.03	20.35	15.92	12.23	11.11	10.87	11.84	11.92	11.18	12.23	13.04	14.19	15.62	16.29	17.88	18.97	20.77	21.03	21.55	20.75	20.63	20.15	18.10	16.03	15.53
345.0	1982	4012	6005	6423	5291	3252	2250	2178	2231	2588	3046	3561	3743	3627	3158	2516	2095	1581	995.7	601.5	479.1	468.9	772.8	3089	9999.9	9999.9	418.9	32.39	17.39	13.60	10.32	7.967	6.490	5.909	4.897	4.411	3.854	3.650	3.182	3.332	3.297	3.107	3.635	4.211	5.366	7.312	10.04	14.14	17.80	18.52	20.22	22.94	22.20	19.67	15.50	11.36	10.60	10.43	10.83	10.75	10.76	10.99	11.91	13.33	14.17	14.87	16.13	16.89	18.70	19.18	19.54	19.21	18.86	18.45	16.82	15.16	14.09
350.0	1839	3645	5617	6320	5302	3230	2114	2005	2013	2302	2684	3100	3266	3183	2828	2288	1893	1392	1021	727.6	504.0	417.3	430.7	873.2	3189	9999.9	9999.9	7283	37.42	18.53	13.03	9.836	7.604	6.416	5.339	4.587	3.794	3.722	3.248	3.336	3.179	3.138	3.553	3.740	4.980	6.843	9.295	13.19	16.61	17.37	19.37	22.61	22.32	19.88	15.19	11.12	10.13	10.01	9.800	9.913	9.567	10.16	10.58	11.56	12.57	13.19	14.29	15.08	16.42	17.05	17.12	16.89	17.07	16.12	15.01	13.87	13.15
355.0	1638	3244	4991	5798	5000	3092	2009	1837	1814	2053	2345	2671	2806	2749	2477	2045	1695	1260	910.4	785.8	607.3	426.4	369.5	389.8	812.9	2368	9532	9999.9	3120	44.07	18.87	12.62	9.421	7.804	6.071	4.723	4.003	3.947	3.169	3.454	3.072	3.045	3.361	3.636	4.735	6.419	8.383	11.73	14.85	15.88	17.18	21.03	20.74	19.13	14.63	10.77	9.524	9.306	8.899	9.248	8.844	8.997	9.564	10.33	11.21	11.53	11.94	12.72	14.06	14.73	14.73	15.04	15.06	14.20	13.30	12.44	11.58
360.0	1415	2808	4438	5125	4414	2824	1853	1691	1693	1856	2072	2312	2437	2383	2172	1807	1510	1142	835.2	703.1	661.5	461.1	350.0	282.7	295.3	602.6	2473	9999.9	9999.9	2607	36.49	17.71	12.49	8.708	6.541	5.412	4.597	4.188	3.546	3.595	2.986	3.278	3.335	3.751	4.450	6.048	7.528	10.90	13.16	13.96	15.37	18.96	18.50	17.17	12.94	9.884	8.817	8.524	8.495	8.602	8.160	8.472	8.994	9.332	9.994	10.37	10.47	11.42	12.15	12.69	12.93	13.28	13.24	12.68	11.78	10.83	10.40
365.0	1228	2467	3861	4476	3943	2549	1726	1569	1561	1714	1877	2066	2152	2114	1905	1604	1359	1039	780.8	636.0	614.6	535.8	365.0	265.3	194.3	224.9	624.0	3161	9999.9	9999.9	386.2	33.24	17.45	11.60	7.792	5.763	4.855	4.309	3.847	3.507	3.239	3.192	3.393	3.529	4.046	5.572	6.512	9.371	11.56	12.46	13.87	16.26	16.43	14.87	12.37	9.111	7.894	8.035	7.541	7.797	7.747	7.869	8.193	8.859	8.918	9.577	10.00	10.17	11.15	10.87	11.44	11.76	11.72	11.26	10.60	9.985	9.376
370.0	1061	2110	3284	3892	3558	2391	1611	1467	1458	1588	1751	1886	2017	1908	1673	1428	1222	964.3	751.2	617.5	551.1	549.6	477.1	336.0	234.2	208.3	307.4	872.1	3500	9999.9	9999.9	6299	131.4	25.20	11.79	7.770	6.029	4.959	4.080	3.737	3.441	3.415	3.400	3.383	3.909	4.780	6.037	8.165	10.17	10.82	11.91	14.53	14.76	13.77	11.11	8.755	7.796	7.456	7.300	7.429	7.166	7.514	7.578	8.175	8.415	9.036	9.320	9.435	9.951	10.52	10.75	10.32	10.28	9.983	9.704	8.999	8.485
375.0	950.7	1814	2882	3472	3337	2373	1574	1400	1451	1581	1835	1920	2243	1970	1486	1260	1089	897.8	733.9	629.2	572.8	540.3	582.9	516.8	404.3	378.2	466.7	591.2	1119	2703	9999.9	9999.9	2697	148.1	20.54	11.21	8.101	6.148	4.964	4.358	3.905	3.411	3.410	3.444	4.073	4.563	5.471	7.295	8.969	9.704	10.84	13.17	13.81	13.23	11.65	8.747	7.871	7.384	7.132	7.037	7.220	7.259	7.512	8.013	8.768	9.318	9.236	9.732	10.16	12.38	12.87	10.43	9.249	9.028	8.690	8.077	7.429
380.0	866.4	1654	2634	3209	3189	2373	1563	1380	1441	1589	1920	1962	2471	2028	1375	1155	1004	856.9	719.3	642.0	600.0	558.5	609.1	700.1	569.4	530.8	717.0	784.5	722.0	1085	3357	9999.9	9999.9	2194	35.20	15.08	10.07	6.903	5.692	4.576	4.054	3.827	3.713	3.517	3.977	4.330	5.364	6.575	7.978	8.920	9.867	12.34	12.80	13.09	11.65	9.113	7.718	7.176	6.924	7.055	7.074	7.420	7.426	8.107	9.073	9.719	9.552	8.949	10.58	13.02	13.69	10.66	9.039	8.457	7.787	7.660	7.143
385.0	799.6	1490	2363	2909	3008	2313	1500	1335	1405	1547	1907	1925	2503	2005	1278	1063	935.7	812.3	702.7	639.3	614.2	579.1	615.1	727.2	688.7	622.9	826.4	895.3	684.4	772.1	1539	4008	9999.9	9999.9	310.5	21.42	11.89	8.146	6.412	5.216	4.326	3.976	3.559	3.448	3.626	4.109	5.125	6.378	7.794	8.171	9.048	11.70	12.28	12.14	11.25	8.721	7.855	6.995	6.741	6.761	7.145	7.284	7.471	7.595	8.949	10.20	9.444	9.071	10.29	13.19	13.90	10.12	8.339	7.562	6.989	6.925	6.680
390.0	692.4	1276	2002	2460	2564	2034	1381	1246	1279	1393	1672	1679	2103	1729	1139	957.2	857.6	755.6	665.9	616.2	592.0	561.7	576.6	633.8	632.4	624.0	741.9	768.3	571.9	592.2	935.4	1464	3585	9999.9	9999.9	4811	25.92	11.35	8.208	6.314	4.862	4.437	3.865	3.607	3.730	4.254	4.772	5.552	6.655	6.934	7.719	9.881	10.46	10.71	10.03	7.951	7.298	6.631	6.481	6.397	6.466	6.869	7.151	7.122	7.813	8.902	8.534	8.063	8.941	11.18	11.76	9.136	7.376	6.923	6.364	6.309	6.154
395.0	649.0	1115	1699	2126	2270	1856	1305	1167	1197	1292	1540	1546	1894	1571	1037	882.7	794.2	719.4	648.7	612.1	593.1	569.9	585.2	629.3	598.3	638.5	784.2	761.3	560.0	556.7	801.4	880.0	1019	2443	9630	9999.9	2172	29.81	11.90	7.807	6.340	5.181	4.198	3.883	4.108	4.230	4.662	5.496	6.073	6.285	6.785	8.723	9.072	9.706	8.958	7.224	7.034	6.156	6.379	6.141	6.280	6.570	6.682	6.535	7.062	8.206	7.775	7.447	8.362	10.31	10.73	8.385	6.757	6.114	5.809	5.921	5.765
400.0	579.3	1009	1619	2008	2138	1781	1279	1134	1170	1262	1533	1519	1911	1543	977.3	840.2	764.1	699.4	645.5	615.5	613.0	589.1	614.0	662.8	627.4	651.3	862.5	857.6	617.0	604.7	841.2	824.4	472.4	636.3	2578	9999.9	9999.9	1695	23.26	10.02	7.560	5.693	4.494	3.909	4.167	4.313	4.492	5.060	5.977	5.950	6.656	7.847	8.708	9.310	8.579	7.366	6.753	6.031	6.134	5.815	5.947	6.117	6.329	6.805	7.205	8.380	8.116	7.003	7.814	10.34	10.91	8.023	6.684	6.047	5.647	5.659	5.511
405.0	518.3	938.2	1488	1829	2013	1709	1247	1094	1138	1214	1498	1468	1852	1491	933.2	801.7	733.2	681.5	633.9	611.6	612.6	601.4	627.7	677.3	645.5	651.8	852.6	906.5	653.1	621.0	849.7	806.6	358.9	234.9	620.3	3179	9999.9	9999.9	271.7	16.01	8.585	6.558	5.021	4.304	4.178	4.342	4.451	4.810	5.538	5.845	6.356	7.562	8.272	8.722	8.201	7.136	6.619	6.130	5.934	5.935	5.660	5.974	6.019	6.344	6.760	7.716	7.287	6.969	7.694	10.21	10.11	7.568	6.056	5.612	5.168	5.207	5.213
410.0	470.8	826.5	1266	1559	1717	1500	1153	1033	1051	1100	1295	1270	1546	1266	854.4	741.7	682.4	638.3	602.0	584.4	581.9	570.3	583.0	616.7	584.3	575.0	700.4	751.3	596.2	538.4	674.9	625.7	277.2	138.1	183.1	742.5	3212	9999.9	9999.9	3777	21.89	8.654	6.217	5.308	4.395	4.530	4.330	4.706	5.068	5.281	5.556	6.968	7.362	7.763	7.248	6.322	6.189	5.814	5.489	5.678	5.383	5.674	5.672	5.941	6.405	6.801	6.479	6.279	7.009	8.608	8.514	6.623	5.468	5.182	5.104	4.973	5.146
415.0	418.5	716.4	1076	1333	1467	1309	1070	976.0	975.9	990.5	1123	1097	1247	1062	772.8	684.3	635.2	596.6	569.9	549.8	540.6	533.5	538.2	549.9	522.6	506.3	571.6	581.8	499.1	478.1	520.8	465.9	222.4	113.8	89.02	197.4	739.9	2347	7739	9999.9	1960	25.97	8.662	6.583	5.446	4.991	4.764	4.679	4.687	4.682	5.081	5.835	6.348	6.895	6.337	5.948	5.726	5.288	5.227	5.483	5.308	5.593	5.598	5.479	5.522	6.060	5.755	5.651	6.058	6.914	7.286	5.634	4.922	4.786	4.724	4.841	4.666
420.0	404.3	676.0	1028	1231	1326	1213	1037	965.5	946.9	950.1	1032	1015	1134	973.5	728.1	648.0	604.2	571.7	546.0	528.0	516.4	511.2	514.2	525.3	498.2	481.5	532.4	528.0	444.9	453.3	494.0	419.6	207.1	110.4	71.79	79.55	190.5	543.9	2008	9859	9999.9	1589	19.84	8.216	6.051	5.232	5.022	4.781	4.711	4.638	4.709	5.852	6.062	6.631	6.118	5.567	5.662	5.468	5.202	5.234	5.379	5.243	5.311	5.001	5.220	5.494	5.245	4.896	5.286	6.461	6.394	5.083	4.914	4.419	4.548	4.300	4.442
