Sample:	'1
File name:	T2025032001º«µêºÓ1.FD3
Run date:	'09:11:48, 03/21/2025
Operator:	Administrator
Comment:	'

Instrument
Model:	F-2700 FL Spectrophotometer
Serial number:	23B8-004
ROM Version:	4J14000 07

Instrument parameters
Measurement type:	3-D scan
Data mode:	Fluorescence
EX  Start WL:	220.0 nm
EX  End WL:	600.0 nm
EX Sampling interval:	5.0 nm
EM  Start WL:	230.0 nm
EM  End WL:	650.0 nm
EM Sampling interval:	5.0 nm
Scan speed:	12000 nm/min
EX Slit:	5.0 nm
EM Slit:	5.0 nm
PMT Voltage:	700 V
Response:	Auto 
Corrected spectra:	Off
Contour interval:	50.000

Peak integration
Integration method:	Rectangular
Sensitivity:	1
Threshold:	1.000

Peaks
No.	ApexEX/EM(nm)	Height(Data)
1	225.0/340.0	4684
2	235.0/510.0	344.4
3	240.0/265.0	382.0
4	240.0/525.0	278.8
5	245.0/270.0	377.3
6	245.0/535.0	231.6
7	245.0/625.0	19.66
8	250.0/275.0	498.0
9	250.0/550.0	184.1
10	255.0/280.0	555.2
11	255.0/560.0	148.7
12	260.0/290.0	548.7
13	260.0/575.0	120.1
14	265.0/585.0	115.3
15	270.0/300.0	1069
16	270.0/600.0	102.2
17	275.0/305.0	1154
18	275.0/340.0	1437
19	275.0/610.0	88.42
20	280.0/625.0	73.69
21	285.0/635.0	58.55
22	315.0/355.0	430.2
23	320.0/365.0	430.9
24	325.0/370.0	418.4
25	330.0/375.0	421.8
26	335.0/385.0	420.1
27	440.0/520.0	33.10
28	460.0/340.0	12.74
29	505.0/275.0	2.821
30	510.0/280.0	2.947
31	520.0/285.0	3.455
32	530.0/290.0	3.284
33	540.0/295.0	4.999
34	545.0/300.0	5.589
35	560.0/310.0	5.474
36	560.0/340.0	6.852
37	565.0/335.0	6.646
38	585.0/325.0	6.522

Data points
	220.0	225.0	230.0	235.0	240.0	245.0	250.0	255.0	260.0	265.0	270.0	275.0	280.0	285.0	290.0	295.0	300.0	305.0	310.0	315.0	320.0	325.0	330.0	335.0	340.0	345.0	350.0	355.0	360.0	365.0	370.0	375.0	380.0	385.0	390.0	395.0	400.0	405.0	410.0	415.0	420.0	425.0	430.0	435.0	440.0	445.0	450.0	455.0	460.0	465.0	470.0	475.0	480.0	485.0	490.0	495.0	500.0	505.0	510.0	515.0	520.0	525.0	530.0	535.0	540.0	545.0	550.0	555.0	560.0	565.0	570.0	575.0	580.0	585.0	590.0	595.0	600.0
230.0	66.47	1553	3377	868.8	25.86	3.767	3.335	2.880	2.563	2.505	2.327	2.288	2.008	1.670	1.493	1.298	1.027	1.036	0.865	0.716	0.593	0.751	0.534	0.536	0.476	0.381	0.382	0.408	0.371	0.328	0.292	0.290	0.244	0.216	0.206	0.171	0.187	0.173	0.146	0.152	0.319	0.588	0.512	0.279	0.163	0.174	1.787	7.520	11.29	7.306	2.356	0.366	0.092	0.092	0.070	0.068	0.070	0.070	0.057	0.059	0.050	0.062	0.053	0.041	0.047	0.055	0.053	0.038	0.051	0.044	0.037	0.041	0.048	0.038	0.031	0.027	0.035
235.0	149.4	419.1	2063	3104	597.8	38.42	4.564	3.759	2.926	3.388	2.525	2.250	1.902	1.735	1.548	1.233	1.093	1.161	0.791	0.620	0.655	0.686	0.573	0.550	0.472	0.407	0.410	0.396	0.352	0.379	0.243	0.328	0.285	0.209	0.251	0.174	0.217	0.139	0.128	0.182	0.151	0.277	0.569	0.565	0.418	0.223	0.496	1.989	4.630	7.787	9.865	10.26	4.588	0.709	0.063	0.102	0.065	0.070	0.068	0.056	0.075	0.060	0.042	0.049	0.054	0.055	0.030	0.042	0.055	0.047	0.042	0.034	0.041	0.031	0.040	0.027	0.021
240.0	223.4	192.7	617.9	2677	3274	474.1	20.34	5.150	4.130	3.754	3.293	3.093	2.443	1.836	1.702	1.534	1.214	1.045	1.065	0.779	0.808	0.691	0.573	0.548	0.566	0.514	0.400	0.448	0.399	0.394	0.313	0.260	0.270	0.258	0.286	0.188	0.200	0.200	0.162	0.180	0.164	0.192	0.272	0.432	0.684	0.688	0.495	0.634	1.171	2.386	5.563	13.08	15.92	10.22	3.347	0.433	0.084	0.099	0.098	0.092	0.083	0.061	0.035	0.046	0.098	0.055	0.047	0.078	0.088	0.039	0.064	0.049	0.049	0.031	0.048	0.026	0.020
245.0	160.8	245.8	210.7	918.2	3610	3218	326.4	8.902	5.786	3.941	3.700	3.365	2.813	2.169	1.806	1.465	1.191	1.064	0.912	0.843	0.781	0.647	0.723	0.733	0.555	0.460	0.417	0.544	0.388	0.405	0.334	0.320	0.323	0.169	0.261	0.190	0.159	0.197	0.189	0.183	0.138	0.161	0.190	0.191	0.381	0.767	0.711	0.611	0.448	0.631	1.387	4.312	11.18	18.10	18.06	8.325	1.809	0.171	0.082	0.098	0.073	0.067	0.053	0.061	0.091	0.071	0.096	0.047	0.053	0.044	0.043	0.034	0.029	0.033	0.027	0.031	0.095
250.0	51.36	181.0	263.4	294.4	1167	3377	4100	1235	58.62	6.247	4.878	4.242	3.246	2.494	2.043	1.560	1.299	1.311	0.988	0.958	0.725	0.677	0.661	0.712	0.632	0.500	0.423	0.514	0.499	0.404	0.324	0.339	0.260	0.205	0.233	0.208	0.186	0.258	0.185	0.210	0.197	0.163	0.149	0.146	0.194	0.305	0.435	0.750	0.854	0.793	0.634	1.139	2.761	5.915	11.32	16.71	21.28	17.19	8.954	2.025	0.201	0.102	0.073	0.070	0.069	0.103	0.064	0.084	0.067	0.053	0.027	0.052	0.052	0.043	0.043	0.044	0.067
255.0	22.85	62.47	185.1	334.8	340.9	851.2	3345	6578	1665	55.83	7.414	5.442	4.225	3.123	2.432	1.988	1.206	1.300	1.289	1.038	0.826	0.741	0.691	0.783	0.577	0.513	0.449	0.516	0.440	0.493	0.328	0.350	0.245	0.363	0.280	0.208	0.312	0.250	0.173	0.151	0.192	0.214	0.138	0.156	0.128	0.200	0.205	0.304	0.441	0.870	1.095	1.149	0.923	1.430	2.665	4.035	7.983	20.06	34.44	26.58	13.79	1.860	0.186	0.126	0.085	0.092	0.055	0.102	0.077	0.083	0.052	0.060	0.070	0.057	0.053	0.060	0.068
260.0	17.70	29.16	70.73	288.1	317.8	239.9	991.7	5639	7229	289.2	25.68	7.439	5.416	4.380	3.098	2.170	1.625	1.713	1.235	1.094	1.034	0.852	0.793	0.773	0.649	0.508	0.635	0.575	0.368	0.461	0.368	0.344	0.347	0.355	0.268	0.241	0.293	0.311	0.189	0.157	0.175	0.213	0.168	0.174	0.226	0.157	0.141	0.175	0.227	0.361	0.687	1.433	1.364	0.993	0.820	0.998	2.004	5.390	14.89	32.26	45.36	24.86	9.377	0.947	0.149	0.132	0.097	0.073	0.071	0.072	0.059	0.082	0.079	0.083	0.067	0.068	0.096
265.0	20.44	18.67	31.39	133.6	382.0	237.4	260.1	1873	8000	6791	225.1	14.39	7.445	5.061	3.580	2.697	2.166	1.908	1.222	1.356	0.994	0.882	0.905	0.837	0.612	0.511	0.545	0.549	0.443	0.509	0.384	0.470	0.383	0.342	0.285	0.285	0.281	0.297	0.214	0.207	0.247	0.195	0.185	0.185	0.210	0.135	0.161	0.166	0.179	0.176	0.293	0.744	1.500	1.941	1.249	0.557	0.683	1.383	3.611	9.521	24.88	45.81	50.23	20.58	4.950	0.357	0.153	0.186	0.075	0.132	0.080	0.073	0.078	0.123	0.096	0.074	0.070
270.0	43.88	30.93	26.72	49.11	185.6	377.3	274.9	473.3	2499	7433	8734	889.4	50.81	8.336	4.975	3.732	3.201	2.169	1.700	1.518	1.250	1.139	0.974	0.852	0.775	0.606	0.715	0.594	0.546	0.572	0.472	0.481	0.436	0.484	0.410	0.414	0.345	0.310	0.247	0.289	0.239	0.263	0.281	0.234	0.242	0.229	0.204	0.180	0.175	0.171	0.176	0.312	0.591	1.045	1.591	1.739	1.412	0.927	1.114	2.400	5.934	13.20	26.32	39.46	38.64	41.08	14.04	4.852	0.385	0.144	0.191	0.142	0.108	0.130	0.107	0.090	0.090
275.0	96.19	72.71	49.13	35.96	67.72	183.0	498.0	328.5	610.0	1828	6618	9999.9	1227	48.19	8.480	5.478	4.079	2.616	2.293	1.808	1.343	1.564	1.165	0.895	1.039	0.828	0.726	0.637	0.764	0.649	0.462	0.532	0.553	0.636	0.624	0.583	0.453	0.455	0.384	0.397	0.348	0.341	0.457	0.434	0.360	0.327	0.285	0.356	0.269	0.218	0.218	0.211	0.296	0.401	0.600	0.887	2.014	2.821	1.760	1.118	1.671	3.203	6.146	9.230	12.46	33.67	64.25	67.95	21.73	4.782	0.337	0.158	0.135	0.157	0.130	0.083	0.112
280.0	171.6	136.7	84.36	44.72	45.14	80.91	319.0	555.2	283.9	478.4	1857	9666	9999.9	862.6	20.86	7.872	5.295	3.897	2.685	2.119	1.691	1.379	1.189	1.178	1.011	0.970	0.899	0.763	0.772	0.590	0.499	0.683	0.544	0.789	0.760	0.790	0.727	0.591	0.572	0.580	0.470	0.478	0.560	0.623	0.463	0.589	0.511	0.415	0.333	0.304	0.244	0.203	0.259	0.302	0.362	0.443	0.904	1.945	2.947	2.666	1.571	1.101	1.729	2.503	3.242	8.463	22.62	53.41	76.94	31.75	17.09	1.916	0.222	0.153	0.175	0.113	0.139
285.0	301.7	226.2	131.4	67.54	49.07	61.23	145.5	515.5	381.6	240.4	542.0	2963	9999.9	8399	125.9	12.75	7.100	4.560	3.192	2.691	1.930	1.538	1.364	1.209	1.122	1.105	0.823	0.643	0.830	0.688	0.571	0.670	0.631	0.878	0.921	1.096	1.005	0.904	0.857	0.803	0.724	0.641	0.761	0.770	0.585	0.731	0.627	0.581	0.518	0.441	0.320	0.288	0.301	0.321	0.315	0.391	0.473	0.818	1.598	3.013	3.455	1.962	1.104	1.085	1.318	2.557	5.803	13.95	33.28	61.85	81.77	28.48	10.70	0.694	0.189	0.169	0.263
290.0	437.5	365.7	246.8	134.1	83.08	80.99	109.7	251.8	548.7	539.9	332.2	881.9	3128	9037	8929	1957	32.93	6.927	4.628	3.899	2.610	1.968	1.600	1.481	1.397	1.206	0.982	0.853	0.998	0.803	0.746	0.709	0.740	0.933	1.215	1.402	1.413	1.240	1.136	1.046	0.954	0.938	0.967	1.036	0.990	1.094	1.017	0.917	0.893	0.665	0.476	0.423	0.425	0.405	0.450	0.459	0.490	0.632	0.838	1.338	2.384	3.220	3.284	2.598	1.620	1.663	2.435	4.108	8.425	16.49	32.72	45.63	59.84	51.73	18.89	8.901	1.194
295.0	570.6	550.4	363.0	208.7	126.9	112.2	128.9	193.1	331.0	749.9	792.3	550.6	960.5	2251	6062	9999.9	738.0	32.96	7.445	5.117	3.434	2.912	2.201	2.020	1.664	1.421	0.980	0.896	1.089	0.829	0.752	0.688	0.993	1.130	1.571	1.769	1.822	1.677	1.313	1.140	1.195	1.354	1.185	1.164	1.308	1.406	1.328	1.311	1.233	0.978	0.662	0.650	0.722	0.639	0.495	0.515	0.651	0.688	0.720	1.041	1.325	1.740	2.459	4.096	4.999	3.498	2.147	2.428	3.250	4.810	8.443	11.06	15.62	28.00	60.50	82.51	30.74
300.0	663.7	665.4	484.6	286.9	165.8	148.2	163.1	209.3	298.7	553.0	1069	747.4	561.7	727.3	1662	8110	9974	558.2	15.78	6.289	4.449	3.315	2.632	2.109	1.907	1.697	1.381	1.217	1.136	0.826	0.793	0.853	0.977	1.234	1.819	1.947	1.977	1.662	1.480	1.446	1.413	1.431	1.329	1.370	1.528	1.593	1.576	1.746	1.467	1.118	0.841	0.911	0.780	0.679	0.684	0.679	0.877	0.837	1.000	1.061	1.316	1.460	1.813	2.593	4.345	5.589	4.314	3.099	2.714	2.659	3.301	3.634	4.475	7.381	17.79	45.55	77.05
305.0	774.2	747.8	570.0	365.8	206.4	180.3	205.7	246.8	329.8	486.2	902.2	1154	633.2	452.5	540.9	2406	9886	5465	80.56	10.16	5.786	4.093	3.164	2.337	2.041	1.779	1.420	1.296	1.247	0.918	0.874	0.881	1.115	1.275	1.719	1.905	1.969	1.753	1.855	1.582	1.460	1.539	1.578	1.596	1.658	1.880	1.798	1.929	1.811	1.457	1.153	1.102	0.916	0.792	0.723	0.750	0.924	1.012	1.211	1.184	1.398	1.514	1.873	2.441	3.308	4.474	5.386	5.450	3.952	2.901	2.696	2.191	2.247	2.667	4.739	11.35	26.66
310.0	833.1	859.1	675.2	422.4	255.4	217.9	246.5	299.5	389.7	527.1	743.7	1058	1056	580.1	362.2	671.3	2824	6587	6738	1548	23.37	5.962	4.135	2.966	2.289	2.123	1.745	1.426	1.241	1.143	1.052	1.040	1.069	1.304	1.668	1.957	2.021	1.901	1.862	1.782	1.675	1.545	1.638	1.697	1.921	2.103	2.020	2.241	1.983	1.571	1.235	1.272	1.048	0.933	0.904	0.901	1.116	1.246	1.265	1.364	1.617	1.957	2.220	2.522	2.821	3.448	4.089	5.163	5.474	5.015	4.082	2.908	2.284	1.997	2.164	3.445	6.755
315.0	1070	1079	877.7	507.4	304.7	257.8	298.7	360.2	466.1	594.1	758.4	895.5	1042	994.1	470.4	335.6	737.2	1589	4628	8828	536.4	23.41	6.054	4.369	2.921	2.295	1.980	1.791	1.402	1.163	1.068	1.152	0.974	1.367	1.812	2.083	2.067	2.054	1.946	1.866	1.734	2.011	1.891	1.959	2.193	2.452	2.606	2.851	2.556	2.180	1.474	1.371	1.193	1.289	1.191	1.047	1.164	1.338	1.642	1.637	1.943	2.319	2.543	2.907	3.177	3.466	3.711	4.479	4.462	4.827	5.966	5.484	3.634	2.523	2.041	2.055	2.436
320.0	1702	1887	1409	769.0	373.3	322.7	362.9	445.3	582.7	747.4	930.9	1029	1059	1150	818.0	368.4	321.4	440.2	1243	6284	7476	433.1	12.43	5.803	3.687	2.729	2.153	1.867	1.522	1.370	1.187	1.141	1.018	1.404	1.686	1.967	1.902	2.183	2.072	2.310	2.066	2.315	2.690	3.071	3.426	4.378	4.662	5.290	4.944	3.626	2.216	1.826	1.419	1.408	1.312	1.479	1.686	1.612	2.075	2.351	2.355	2.749	3.220	3.552	3.802	4.454	4.601	4.915	4.602	5.041	5.599	5.973	6.166	4.342	3.069	2.354	1.958
325.0	2634	3451	3104	1295	486.4	389.5	457.7	579.6	741.9	961.9	1162	1281	1254	1161	1106	586.7	297.5	234.7	364.3	1843	7203	4179	62.66	9.043	4.826	3.503	2.698	2.002	1.766	1.309	1.273	1.179	1.208	1.648	1.775	2.065	2.164	2.372	2.249	2.574	2.571	3.110	3.594	4.119	4.915	6.599	7.998	9.560	9.405	6.768	3.752	2.643	1.902	1.547	1.619	1.593	1.923	2.050	2.454	2.694	2.891	3.429	4.077	4.510	5.003	5.492	5.464	5.933	5.737	6.061	6.067	5.829	6.282	6.522	5.025	3.201	2.580
330.0	2958	4000	3743	1606	581.8	458.0	523.0	639.2	823.7	1039	1252	1370	1317	1149	997.5	810.6	444.2	227.4	192.2	490.4	2079	4939	5257	1301	19.77	4.785	3.560	2.485	2.194	1.789	1.470	1.457	1.258	1.599	1.714	2.064	2.284	2.308	2.556	2.622	2.680	3.132	3.842	4.562	5.481	7.482	8.698	10.80	10.99	8.161	4.600	3.219	2.173	1.869	1.856	1.820	2.094	2.284	2.682	2.917	3.250	3.732	4.356	4.808	5.275	5.478	6.014	6.272	6.190	6.210	6.299	5.626	5.535	5.474	5.112	4.951	3.913
335.0	3159	4465	4223	1769	677.7	513.4	561.6	689.9	881.0	1086	1305	1435	1385	1185	948.3	733.9	653.3	351.6	188.5	211.8	545.4	1198	3710	7231	449.6	20.81	4.876	3.628	2.644	2.192	1.531	1.342	1.370	1.596	1.589	1.929	2.094	2.291	2.499	2.566	2.760	3.275	4.005	5.027	6.121	8.148	9.431	11.77	11.94	8.881	5.227	3.463	2.412	2.267	1.905	2.078	2.169	2.298	2.862	3.054	3.571	3.612	4.665	5.189	5.352	5.929	5.985	6.367	6.421	6.646	6.304	6.080	5.495	5.063	4.625	4.291	4.115
340.0	3249	4684	4486	1936	743.3	552.6	587.5	731.5	911.4	1112	1328	1437	1395	1216	946.3	680.3	600.8	517.0	246.0	167.8	221.4	330.9	1011	5319	6179	377.2	10.19	4.743	3.138	2.752	1.885	1.720	1.485	1.622	1.807	1.910	2.149	2.449	2.488	2.620	2.908	3.489	4.344	5.084	6.341	8.700	10.15	12.38	12.74	9.722	5.409	3.569	2.507	2.489	2.301	2.101	2.344	2.582	3.012	3.127	3.887	3.799	4.623	5.005	5.471	6.135	6.207	6.471	6.852	6.513	6.571	6.037	5.615	5.047	4.506	3.776	3.698
345.0	2950	4180	4044	1825	750.0	569.4	593.0	708.0	866.4	1054	1244	1338	1307	1145	900.6	650.8	499.7	537.7	374.5	186.7	164.0	152.1	276.8	1584	6139	3523	53.94	6.752	3.974	2.991	2.140	1.625	1.656	1.703	1.841	1.817	2.099	2.245	2.229	2.501	2.748	3.072	4.017	4.627	6.015	7.821	9.070	11.59	11.67	9.207	5.136	3.661	2.722	2.346	2.153	2.256	2.396	2.695	2.900	3.088	3.878	3.783	4.201	4.813	5.106	5.757	5.567	5.976	5.996	5.911	6.117	5.692	5.173	4.568	4.183	3.892	3.485
350.0	2516	3432	3348	1620	746.6	600.8	585.6	673.6	786.8	942.7	1107	1185	1160	1043	841.6	620.7	466.2	426.5	447.4	318.2	189.7	139.4	137.3	406.6	1814	4251	4284	1076	17.42	4.024	2.636	2.113	1.854	1.561	1.833	1.824	2.063	2.123	2.123	2.359	2.465	2.831	3.368	3.839	4.862	6.390	7.326	9.236	9.256	7.420	4.543	3.421	2.670	2.434	2.189	2.314	2.414	2.674	2.538	2.945	3.235	3.436	3.878	4.233	4.590	5.074	5.195	5.186	5.381	5.329	5.332	5.152	4.980	4.570	4.123	3.770	3.165
355.0	2108	2900	2883	1445	761.2	630.5	600.4	653.5	738.0	880.5	998.4	1061	1050	945.9	792.5	616.1	474.8	398.4	381.0	430.2	306.0	176.2	140.4	170.3	458.3	1038	3176	5780	409.8	16.42	4.246	3.032	1.988	1.805	1.928	1.732	1.880	1.897	2.156	2.108	2.222	2.502	2.774	3.252	4.178	5.274	6.392	7.570	7.790	6.184	4.056	3.263	2.708	2.605	2.396	2.363	2.450	2.516	2.757	2.835	3.128	3.172	3.747	3.775	3.967	4.365	4.694	4.759	4.813	4.846	5.154	4.905	4.657	4.286	3.907	3.638	3.377
360.0	1794	2458	2444	1353	755.2	639.6	599.8	648.8	709.7	816.8	921.3	980.2	958.5	880.2	754.1	601.2	484.3	416.9	369.9	397.7	415.6	251.7	166.6	139.3	176.6	283.4	890.3	4511	4992	332.9	7.728	3.541	2.348	1.933	1.903	1.926	2.015	1.674	2.018	2.067	2.044	2.203	2.663	3.003	3.638	4.734	5.305	6.221	6.735	5.407	3.628	2.836	2.616	2.534	2.477	2.302	2.523	2.557	2.707	2.715	3.170	3.197	3.339	3.655	4.070	4.000	4.386	4.355	4.331	4.435	4.675	4.339	4.355	4.092	3.823	3.538	3.371
365.0	1547	2075	2020	1233	772.2	644.7	630.4	638.2	689.6	780.0	852.5	906.5	881.1	825.6	720.6	594.5	499.4	439.6	391.5	368.7	430.9	367.6	213.3	157.5	135.3	132.2	247.7	1399	5365	3200	49.47	5.295	3.213	2.642	2.126	1.931	1.832	1.888	1.930	1.997	1.859	1.963	2.460	2.702	3.241	3.896	4.415	5.248	5.553	4.670	3.350	2.918	2.714	2.525	2.548	2.270	2.570	2.784	2.784	2.756	2.982	3.148	3.338	3.614	3.668	4.150	4.035	3.924	4.047	4.178	4.358	4.108	4.036	4.261	3.661	3.405	3.365
370.0	1325	1710	1691	1099	776.2	677.6	646.4	656.6	688.9	744.4	808.7	845.0	824.1	779.4	701.8	596.6	530.6	474.7	435.3	395.0	392.1	418.4	343.6	218.7	161.8	127.6	127.7	361.3	1641	3927	3842	879.4	14.36	3.538	2.562	2.172	1.969	1.861	1.797	1.908	1.786	1.903	2.284	2.359	2.902	3.411	3.684	4.321	4.519	3.940	3.146	2.844	2.817	2.609	2.653	2.418	2.512	2.548	2.853	2.773	2.956	2.957	3.138	3.313	3.335	3.655	3.822	3.627	3.809	3.880	4.071	3.779	3.967	4.059	3.627	3.556	3.319
375.0	1177	1449	1450	1023	785.1	720.7	686.9	671.0	688.9	733.9	779.8	805.2	786.5	748.5	688.9	606.6	556.5	516.9	479.3	438.0	408.4	391.6	421.8	338.8	215.5	160.6	129.1	152.1	413.6	970.4	3080	4900	341.7	14.16	3.489	2.637	2.526	2.002	1.936	1.949	1.897	1.942	2.156	2.310	2.471	3.052	3.331	3.731	4.048	3.289	2.777	2.830	2.790	2.738	2.759	2.820	2.781	2.800	2.775	2.888	2.786	3.033	3.175	3.087	3.387	3.501	3.747	3.385	3.470	3.932	3.588	3.472	3.904	3.869	3.492	3.787	3.436
380.0	1130	1289	1304	964.1	798.8	743.3	701.1	694.6	696.2	715.5	764.2	760.7	766.9	728.4	682.5	615.6	575.1	544.7	507.7	468.4	433.2	399.2	405.2	416.7	285.6	195.2	150.5	122.6	154.9	260.3	880.0	4038	2904	262.4	6.669	3.146	2.742	2.297	1.945	2.101	1.911	1.979	2.154	2.195	2.360	2.680	3.127	3.396	3.633	2.908	2.590	2.838	2.638	2.791	2.720	2.856	2.867	2.778	2.978	3.115	3.022	3.125	3.213	3.271	3.274	3.336	3.633	3.357	3.456	3.420	3.607	3.491	3.731	3.759	3.414	3.759	3.680
385.0	1012	1200	1196	959.4	837.4	779.1	722.7	710.3	704.3	729.2	751.5	758.2	750.4	715.6	677.4	621.2	592.1	564.9	535.1	495.7	459.3	420.5	397.7	420.1	374.7	241.6	179.2	137.6	115.1	116.5	238.4	1282	4073	2521	39.32	4.811	3.078	2.544	2.291	2.089	1.834	2.122	2.146	2.311	2.407	2.652	2.719	3.188	3.226	2.705	2.539	2.888	2.746	2.819	2.913	2.955	2.873	3.016	2.790	3.236	2.948	3.124	3.184	3.068	3.348	3.235	3.355	3.304	3.537	3.232	3.673	3.474	3.450	3.593	3.589	3.591	3.589
390.0	973.0	1120	1093	944.0	853.4	804.3	759.1	732.5	730.1	725.7	747.4	750.0	740.0	710.9	672.3	632.9	608.0	588.2	560.9	523.8	494.9	456.8	420.3	397.6	404.4	340.9	237.3	174.3	137.7	108.7	110.4	327.5	1264	2969	2797	652.9	12.24	3.503	2.700	2.282	2.024	2.128	2.115	2.305	2.364	2.517	2.589	3.030	2.943	2.598	2.578	2.779	3.026	3.039	3.160	2.993	3.032	3.047	2.995	3.050	2.953	3.002	3.130	3.266	3.194	3.307	3.300	3.442	3.365	3.352	3.625	3.490	3.584	3.748	3.557	3.638	3.750
395.0	1012	1076	1062	962.0	867.4	835.1	793.7	754.1	749.8	731.2	744.6	740.4	728.6	704.2	670.2	642.9	623.2	606.9	580.1	547.5	522.1	486.7	447.5	411.8	387.1	389.4	334.3	224.4	174.1	135.5	106.9	129.3	320.0	736.2	2225	3499	280.0	11.65	3.434	2.959	2.313	2.277	2.266	2.398	2.279	2.633	2.484	2.837	2.779	2.577	2.649	3.033	3.204	3.173	3.110	3.050	3.196	3.240	3.088	3.113	3.099	3.129	3.215	3.309	3.048	3.113	3.261	3.250	3.388	3.459	3.598	3.445	3.785	3.574	3.634	3.792	3.787
400.0	981.1	1062	1039	956.0	894.3	843.8	783.4	778.8	758.3	740.9	738.3	733.7	720.6	709.0	668.8	644.3	628.5	614.0	593.4	562.3	534.6	501.9	464.2	430.1	390.9	378.9	381.2	286.0	206.4	161.8	121.8	98.85	120.6	198.1	634.8	2843	2377	224.0	6.242	3.357	2.711	2.430	2.515	2.208	2.404	2.710	2.467	2.650	2.836	2.646	2.546	3.045	2.987	3.059	3.010	3.165	3.390	3.182	3.417	3.221	3.452	3.134	3.372	3.499	3.124	2.975	3.461	3.249	3.366	3.415	3.472	3.584	3.479	3.488	3.775	3.794	3.960
405.0	974.3	1043	1011	954.5	914.4	846.0	810.1	780.1	770.2	751.0	748.7	736.1	713.3	698.3	666.5	639.7	627.3	613.1	591.5	571.4	541.9	513.9	477.9	444.2	406.7	376.2	372.5	349.6	249.4	186.8	144.0	105.0	86.44	84.99	170.5	890.5	2933	2075	35.28	4.405	3.035	2.689	2.582	2.456	2.455	2.610	2.619	2.675	3.145	2.582	2.466	2.903	3.407	2.951	3.031	3.078	3.454	3.383	3.381	3.210	3.364	3.092	3.368	3.281	3.145	3.172	3.091	3.055	3.238	3.462	3.188	3.487	3.524	3.566	3.658	3.321	3.773
410.0	960.1	997.4	995.6	933.9	910.5	853.9	832.1	805.9	785.0	756.0	750.0	732.8	709.1	687.3	654.9	629.8	617.8	606.9	593.3	570.8	542.7	517.6	487.8	457.9	425.0	387.9	360.8	363.1	321.2	233.5	173.8	129.6	96.47	74.12	75.89	226.4	889.9	2142	2136	544.2	11.80	3.320	2.771	2.692	2.438	2.431	2.551	2.651	2.741	2.590	2.451	3.041	3.196	3.079	3.219	3.122	3.415	3.331	3.498	3.245	3.221	3.229	3.286	3.487	3.225	3.344	3.315	3.053	3.162	3.256	3.268	3.523	3.536	3.550	3.404	3.559	3.838
415.0	938.2	981.1	981.2	927.9	881.7	863.0	836.4	810.3	793.0	765.1	744.3	716.6	698.0	679.5	639.3	619.8	600.2	593.9	581.3	562.6	535.1	513.1	489.0	465.7	436.6	399.2	366.3	344.4	341.5	302.3	208.6	153.7	114.0	83.60	66.27	84.29	222.2	524.1	1555	2310	248.8	11.81	3.505	2.852	2.696	2.508	2.507	2.938	2.689	2.583	2.519	3.072	3.344	3.105	3.215	3.086	3.173	3.413	3.493	3.117	3.204	3.406	3.346	3.240	2.973	3.181	3.132	2.980	3.101	3.161	3.315	3.368	3.446	3.380	3.256	3.246	3.516
