Sample:	'1
File name:	Default_20230303_093921.FD3
Run date:	'09:33:00, 03/03/2023
Operator:	user
Comment:	'

Instrument
Model:	F-2700 FL Spectrophotometer
Serial number:	2190-003
ROM Version:	4J14000 07

Instrument parameters
Measurement type:	3-D scan
Data mode:	Fluorescence
EX  Start WL:	220.0 nm
EX  End WL:	600.0 nm
EX Sampling interval:	5.0 nm
EM  Start WL:	230.0 nm
EM  End WL:	650.0 nm
EM Sampling interval:	5.0 nm
Scan speed:	12000 nm/min
EX Slit:	5.0 nm
EM Slit:	5.0 nm
PMT Voltage:	700 V
Response:	Auto 
Corrected spectra:	Off
Contour interval:	50.000

Peak integration
Integration method:	Rectangular
Sensitivity:	1
Threshold:	1.000

Peaks
No.	ApexEX/EM(nm)	Height(Data)
1	230.0/345.0	90.77
2	235.0/340.0	91.78
3	235.0/350.0	87.88
4	255.0/280.0	184.5
5	255.0/555.0	-84.24
6	260.0/285.0	298.6
7	260.0/410.0	307.8
8	260.0/565.0	-73.28
9	265.0/290.0	342.5
10	265.0/415.0	311.5
11	265.0/440.0	327.3
12	265.0/580.0	-67.49
13	270.0/295.0	547.9
14	270.0/590.0	-57.42
15	275.0/305.0	746.7
16	275.0/405.0	362.5
17	275.0/420.0	337.1
18	275.0/605.0	-36.53
19	280.0/310.0	793.7
20	280.0/335.0	609.2
21	280.0/385.0	420.9
22	280.0/440.0	328.4
23	280.0/615.0	-32.12
24	285.0/315.0	816.4
25	285.0/625.0	-23.61
26	290.0/320.0	740.2
27	290.0/640.0	-20.29
28	295.0/405.0	368.9
29	305.0/340.0	406.1
30	310.0/345.0	356.2
31	310.0/400.0	353.6
32	320.0/360.0	329.1
33	325.0/365.0	336.5
34	335.0/380.0	319.2
35	340.0/385.0	319.2
36	345.0/390.0	287.4
37	350.0/395.0	276.7
38	355.0/405.0	269.3
39	360.0/410.0	239.3
40	365.0/420.0	230.1
41	370.0/425.0	219.6
42	400.0/465.0	98.37
43	415.0/485.0	52.58
44	425.0/495.0	37.38
45	430.0/505.0	29.77
46	435.0/510.0	23.18
47	445.0/525.0	15.64
48	450.0/530.0	11.74
49	465.0/550.0	3.723
50	545.0/300.0	-6.119
51	550.0/305.0	-5.892
52	555.0/310.0	-6.160
53	565.0/315.0	-6.237
54	575.0/320.0	-6.148
55	580.0/325.0	-6.322

Data points
	220.0	225.0	230.0	235.0	240.0	245.0	250.0	255.0	260.0	265.0	270.0	275.0	280.0	285.0	290.0	295.0	300.0	305.0	310.0	315.0	320.0	325.0	330.0	335.0	340.0	345.0	350.0	355.0	360.0	365.0	370.0	375.0	380.0	385.0	390.0	395.0	400.0	405.0	410.0	415.0	420.0	425.0	430.0	435.0	440.0	445.0	450.0	455.0	460.0	465.0	470.0	475.0	480.0	485.0	490.0	495.0	500.0	505.0	510.0	515.0	520.0	525.0	530.0	535.0	540.0	545.0	550.0	555.0	560.0	565.0	570.0	575.0	580.0	585.0	590.0	595.0	600.0
230.0	-861.0	-238.7	 3010	 1829	-222.4	-281.0	-241.9	-210.0	-185.2	-165.2	-145.1	-122.5	-102.6	-82.94	-68.29	-56.27	-46.81	-40.49	-35.34	-31.45	-27.75	-25.81	-24.05	-22.02	-20.38	-19.33	-18.18	-17.81	-17.01	-16.88	-16.15	-15.23	-14.19	-13.30	-12.28	-11.17	-10.88	-10.75	-10.31	-10.03	-9.843	-9.589	-9.557	-9.484	-9.007	-8.796	-7.404	-4.779	-0.762	-1.270	-4.559	-7.237	-7.207	-7.738	-7.358	-7.765	-7.917	-7.893	-8.029	-7.876	-7.992	-8.053	-8.018	-8.122	-8.083	-8.140	-8.228	-8.270	-8.316	-8.485	-8.443	-8.488	-8.480	-8.528	-8.712	-8.865	-9.074
235.0	-831.2	-620.8	732.4	 3099	 1874	-130.1	-244.0	-212.2	-181.7	-165.0	-143.9	-121.2	-101.8	-85.10	-69.85	-57.07	-46.79	-40.25	-34.73	-31.62	-28.56	-25.76	-24.03	-22.17	-20.44	-19.60	-18.16	-17.76	-17.49	-16.58	-16.00	-15.57	-14.07	-13.25	-12.52	-11.34	-11.04	-10.62	-10.30	-10.05	-9.636	-9.894	-9.594	-9.199	-9.199	-8.683	-7.717	-7.238	-4.922	-2.782	-1.405	-1.713	-5.065	-7.416	-7.384	-7.719	-7.907	-8.149	-7.866	-7.923	-8.033	-8.096	-8.139	-8.233	-8.189	-8.268	-8.285	-8.419	-8.554	-8.548	-8.432	-8.615	-8.587	-8.629	-8.584	-8.790	-9.142
240.0	-829.5	-630.7	-259.9	 1274	 3698	 1472	-165.6	-204.3	-185.4	-162.5	-141.9	-122.7	-103.2	-84.34	-68.54	-56.10	-46.10	-40.16	-34.70	-30.72	-28.08	-25.89	-23.38	-22.35	-20.73	-19.56	-18.33	-17.95	-17.52	-16.52	-16.12	-15.30	-14.04	-13.29	-12.59	-11.33	-11.07	-10.66	-10.34	-10.24	-9.708	-9.768	-9.847	-9.313	-9.044	-8.972	-7.563	-7.639	-6.528	-5.081	-3.749	-0.841	0.530	-2.543	-5.802	-7.691	-8.031	-8.037	-7.994	-7.987	-8.086	-8.180	-8.029	-8.122	-7.906	-8.163	-8.211	-8.359	-8.459	-8.634	-8.469	-8.604	-8.565	-8.629	-8.726	-8.914	-9.354
245.0	-840.3	-596.3	-435.9	11.18	 2066	 4275	 1155	-176.6	-182.1	-160.1	-140.8	-124.7	-102.3	-82.43	-68.54	-55.39	-47.03	-39.94	-35.82	-31.06	-27.99	-25.62	-23.99	-21.91	-20.02	-19.34	-17.61	-17.88	-17.10	-16.71	-15.97	-14.89	-14.40	-13.26	-12.78	-11.26	-10.84	-10.98	-10.72	-9.905	-9.784	-9.575	-9.737	-9.398	-9.015	-8.632	-7.523	-7.752	-7.108	-5.755	-5.656	-5.554	-2.741	0.835	1.816	-3.395	-6.995	-8.025	-8.049	-7.973	-8.051	-8.326	-8.174	-7.959	-8.062	-8.205	-8.126	-8.339	-8.321	-8.548	-8.532	-8.505	-8.463	-8.422	-8.726	-8.801	-9.035
250.0	-894.1	-645.2	-417.9	-238.4	263.0	 2140	 4161	 2813	196.7	-159.1	-140.7	-119.6	-101.5	-82.05	-66.64	-54.45	-46.67	-40.00	-35.63	-30.40	-28.02	-25.31	-23.96	-22.18	-20.21	-19.31	-18.33	-17.84	-17.17	-17.02	-16.11	-15.48	-14.24	-13.31	-12.52	-11.24	-11.20	-10.94	-10.39	-10.02	-9.779	-9.804	-9.733	-9.218	-9.011	-8.835	-7.559	-7.466	-6.884	-5.806	-5.972	-6.952	-6.076	-5.042	-1.991	0.186	2.350	0.873	-3.620	-7.162	-7.970	-8.098	-7.985	-8.089	-8.136	-8.106	-8.222	-8.345	-8.286	-8.570	-8.404	-8.445	-8.602	-8.433	-8.600	-8.866	-9.032
255.0	-873.5	-706.0	-494.0	-222.2	-101.6	271.8	 1408	 5878	 5070	284.9	-135.4	-117.1	-100.5	-79.34	-64.63	-55.70	-46.13	-39.55	-35.19	-30.93	-27.27	-25.57	-23.24	-22.00	-20.62	-19.54	-18.07	-17.58	-16.90	-16.95	-16.06	-15.34	-14.08	-13.39	-12.21	-11.13	-11.04	-10.94	-10.47	-9.962	-9.770	-9.782	-9.581	-9.100	-9.043	-8.793	-7.703	-7.674	-7.022	-5.834	-5.973	-6.916	-6.824	-7.091	-6.134	-5.962	-4.262	1.351	8.458	7.473	-1.651	-7.484	-8.006	-8.138	-8.156	-8.102	-8.312	-8.353	-8.316	-8.445	-8.265	-8.374	-8.555	-8.468	-8.635	-8.930	-9.232
260.0	-887.5	-687.7	-528.4	-321.8	-67.81	-91.72	156.6	 2559	 8192	 1651	48.94	-111.1	-96.67	-79.86	-63.71	-53.47	-46.75	-38.65	-34.46	-30.21	-27.98	-25.14	-23.47	-21.94	-20.62	-19.18	-18.58	-17.71	-16.81	-16.94	-16.37	-15.16	-14.08	-13.38	-12.22	-11.15	-11.02	-10.92	-10.39	-10.07	-9.976	-9.725	-9.474	-9.497	-8.943	-8.394	-7.644	-7.813	-7.225	-5.909	-5.859	-7.005	-6.703	-7.372	-6.896	-7.156	-7.175	-5.517	-0.494	7.754	13.75	6.974	-4.096	-7.788	-7.877	-8.009	-8.055	-8.364	-8.407	-8.509	-8.436	-8.477	-8.444	-8.282	-8.592	-8.872	-9.208
265.0	-885.7	-689.9	-550.4	-388.5	-144.9	-29.64	-107.0	480.6	 4201	 9363	 1348	-43.34	-97.31	-79.91	-62.34	-55.85	-46.14	-38.74	-33.20	-30.57	-27.59	-24.96	-23.34	-21.91	-20.18	-18.98	-18.27	-17.18	-17.21	-16.54	-15.91	-15.72	-14.12	-13.42	-12.32	-11.53	-11.24	-10.97	-10.37	-10.03	-10.03	-9.915	-9.447	-8.861	-8.941	-8.753	-7.763	-7.721	-7.189	-5.969	-6.092	-7.281	-6.636	-6.977	-6.966	-7.462	-7.803	-7.505	-6.169	-2.943	4.982	15.52	15.61	2.153	-6.813	-8.238	-8.110	-8.299	-8.469	-8.488	-8.345	-8.410	-8.438	-8.195	-8.628	-8.650	-9.092
270.0	-902.2	-708.7	-531.7	-417.9	-280.2	-66.03	25.92	10.71	891.9	 4253	 8747	 5235	295.0	-73.26	-62.92	-53.49	-45.32	-38.64	-33.94	-29.96	-27.23	-24.85	-23.27	-21.75	-19.97	-18.69	-17.47	-16.89	-16.96	-16.42	-15.80	-15.07	-13.85	-13.05	-12.30	-11.23	-11.00	-10.81	-10.63	-10.29	-10.13	-10.01	-9.543	-9.164	-8.888	-8.611	-7.770	-7.595	-7.095	-6.041	-6.110	-7.351	-7.037	-7.287	-6.799	-6.921	-7.305	-7.516	-7.485	-6.627	-4.905	-0.841	5.584	11.84	15.72	11.55	-0.349	-7.136	-8.359	-8.402	-8.407	-8.356	-8.381	-8.464	-8.550	-8.881	-9.268
275.0	-900.1	-685.0	-523.4	-415.6	-312.0	-206.4	-8.572	151.1	120.8	854.3	 2775	9999.9	 7876	387.4	-58.40	-49.72	-44.17	-37.66	-32.42	-30.22	-27.50	-24.60	-22.66	-21.30	-19.66	-19.24	-17.78	-17.24	-16.79	-16.59	-15.62	-14.70	-13.73	-12.96	-12.24	-11.04	-10.97	-10.98	-10.69	-10.24	-9.887	-9.983	-9.733	-9.414	-8.801	-8.543	-7.676	-7.558	-7.052	-6.119	-6.226	-7.297	-7.242	-7.548	-7.199	-7.373	-7.047	-7.085	-7.220	-7.175	-7.229	-6.055	-4.908	-3.141	0.658	13.99	28.20	20.04	0.151	-7.682	-8.426	-8.358	-8.302	-8.482	-8.582	-8.904	-8.983
280.0	-830.8	-654.0	-504.7	-387.5	-320.9	-252.9	-138.8	184.5	154.5	112.7	572.6	 3990	9999.9	 6076	178.7	-46.88	-41.03	-36.08	-33.10	-30.12	-27.70	-23.49	-22.16	-21.21	-19.76	-18.80	-18.16	-17.55	-16.77	-16.86	-15.48	-14.95	-13.29	-12.66	-12.09	-10.80	-10.68	-10.79	-10.09	-10.17	-9.762	-9.846	-9.704	-9.330	-8.737	-8.301	-7.549	-7.716	-6.991	-6.001	-6.050	-7.183	-7.260	-7.458	-6.989	-7.579	-7.602	-7.225	-7.022	-6.775	-7.586	-7.467	-7.199	-7.024	-6.101	-2.071	7.957	27.29	33.39	15.92	-4.042	-8.326	-8.230	-8.347	-8.626	-8.893	-9.071
285.0	-836.4	-610.7	-479.3	-387.0	-305.4	-260.7	-191.1	-5.621	298.6	90.06	84.22	918.0	 5536	9999.9	 4221	32.20	-36.98	-35.34	-31.65	-29.22	-26.50	-23.64	-21.98	-20.70	-19.89	-19.12	-17.69	-17.28	-16.54	-17.16	-15.07	-14.99	-14.02	-12.62	-12.36	-10.65	-10.72	-10.91	-9.962	-10.11	-9.481	-9.700	-9.547	-9.306	-8.610	-8.561	-7.536	-7.619	-6.893	-5.943	-6.016	-7.157	-7.259	-7.394	-7.158	-7.639	-7.673	-7.635	-7.251	-6.607	-7.122	-7.603	-7.554	-7.601	-7.417	-6.701	-4.170	3.157	19.14	35.40	30.32	5.284	-6.978	-8.403	-8.656	-8.934	-9.130
290.0	-765.8	-541.5	-423.6	-331.6	-284.0	-235.4	-198.8	-111.7	83.98	342.5	198.7	267.3	 1362	 5209	9999.9	 6740	186.7	-30.17	-29.83	-28.46	-25.51	-23.02	-21.89	-20.64	-19.67	-18.74	-17.69	-17.00	-16.13	-16.58	-15.49	-14.87	-13.73	-12.66	-11.94	-10.56	-10.84	-10.72	-10.16	-10.02	-9.867	-9.794	-9.540	-9.274	-8.798	-8.380	-7.411	-7.529	-6.791	-5.925	-5.966	-7.249	-7.169	-7.395	-7.212	-7.649	-7.729	-7.802	-7.476	-7.359	-7.031	-6.966	-6.792	-7.249	-7.587	-7.420	-7.012	-5.299	-1.556	5.342	16.61	25.06	28.29	16.38	1.090	-7.636	-8.967
295.0	-721.8	-492.5	-312.4	-273.8	-273.3	-231.5	-178.2	-112.6	-22.24	177.0	547.9	340.8	461.6	 1287	 3069	9999.9	9999.9	254.4	-25.69	-24.79	-24.38	-22.54	-21.50	-20.11	-18.67	-18.56	-17.33	-16.24	-16.55	-16.27	-15.61	-14.03	-13.53	-12.67	-11.66	-10.47	-10.68	-10.41	-10.36	-9.721	-9.695	-9.656	-9.348	-9.107	-8.923	-8.269	-7.522	-7.339	-6.770	-5.781	-5.955	-7.153	-6.937	-7.367	-7.302	-7.657	-7.728	-7.531	-7.667	-7.366	-7.358	-7.292	-7.068	-6.556	-6.642	-7.041	-7.248	-7.107	-6.303	-4.984	-2.191	-0.288	6.477	24.49	42.91	27.81	1.838
300.0	-640.3	-419.3	-265.0	-237.6	-228.4	-198.2	-151.3	-97.87	-24.41	110.8	456.4	683.8	375.9	465.5	783.2	 3938	9999.9	 3366	156.0	-22.98	-23.20	-22.15	-21.30	-19.95	-18.12	-18.12	-17.46	-16.43	-16.41	-16.51	-15.44	-14.42	-13.17	-12.75	-11.19	-10.40	-10.49	-10.37	-9.843	-9.919	-9.788	-9.480	-9.674	-9.000	-8.578	-7.903	-7.359	-7.146	-6.442	-5.861	-5.692	-7.224	-6.894	-7.021	-7.160	-7.406	-7.726	-7.484	-7.668	-7.496	-7.514	-7.439	-7.145	-7.105	-6.166	-6.119	-6.497	-7.373	-7.250	-7.183	-6.367	-5.894	-4.745	0.896	16.80	41.83	46.34
305.0	-624.4	-361.2	-207.7	-181.8	-198.8	-181.3	-138.1	-68.12	8.953	123.6	321.3	746.7	656.1	352.7	315.1	981.5	 5323	9999.9	 2704	61.85	-19.22	-21.40	-20.23	-19.02	-17.89	-18.24	-17.21	-16.39	-16.22	-16.14	-15.10	-14.25	-13.21	-12.40	-11.07	-10.55	-10.47	-10.32	-10.09	-9.975	-9.568	-9.568	-9.345	-9.054	-8.707	-8.021	-7.315	-7.147	-6.511	-5.831	-5.682	-7.162	-6.587	-7.398	-7.106	-7.249	-7.720	-7.577	-7.696	-7.510	-7.419	-7.568	-7.348	-7.297	-6.958	-6.563	-5.892	-6.224	-6.910	-7.506	-7.395	-7.607	-7.306	-6.178	-2.296	7.516	30.30
310.0	-525.2	-302.6	-147.7	-157.6	-177.4	-155.8	-105.8	-34.94	39.07	160.4	299.2	549.0	793.7	621.9	293.6	328.4	 1285	 5086	9999.9	 6748	134.5	-15.43	-18.10	-17.70	-17.52	-17.31	-16.62	-16.10	-16.07	-15.98	-15.12	-14.29	-13.06	-12.23	-11.40	-10.59	-10.24	-10.24	-9.823	-9.708	-9.380	-9.355	-9.342	-8.847	-8.411	-8.103	-7.158	-6.753	-6.469	-5.652	-5.733	-6.999	-6.773	-7.364	-7.168	-7.255	-7.528	-7.485	-7.584	-7.498	-7.347	-7.378	-7.365	-7.478	-7.016	-6.978	-6.457	-6.160	-6.212	-6.284	-7.289	-7.638	-7.649	-7.478	-6.949	-4.925	0.376
315.0	-483.2	-224.4	-76.29	-132.8	-157.0	-143.8	-93.58	-6.426	92.12	176.2	313.1	474.7	610.7	816.4	530.3	225.2	344.3	 1156	 3034	9999.9	 9136	198.5	-14.19	-16.86	-16.73	-16.20	-16.54	-15.86	-15.48	-15.99	-15.12	-13.90	-13.11	-12.34	-11.70	-10.26	-10.41	-9.884	-9.807	-9.694	-9.488	-9.571	-9.057	-8.727	-8.295	-7.964	-6.637	-7.098	-6.255	-5.595	-5.755	-7.133	-6.613	-7.287	-7.201	-7.423	-7.487	-7.420	-7.636	-7.641	-7.051	-7.067	-7.283	-7.264	-6.678	-6.962	-6.606	-6.607	-6.532	-6.237	-6.261	-7.008	-7.266	-7.745	-8.020	-7.769	-6.538
320.0	-462.1	-153.9	-3.294	-104.5	-135.7	-121.6	-72.22	-0.358	108.6	199.7	331.1	474.7	571.1	681.7	740.2	331.4	155.8	289.2	704.4	 4030	9999.9	 6706	123.6	-14.53	-15.51	-15.79	-15.07	-15.57	-15.71	-15.30	-14.66	-13.81	-12.63	-12.23	-11.57	-10.61	-10.60	-10.06	-10.07	-9.736	-9.235	-9.332	-8.977	-8.625	-8.489	-7.836	-6.865	-7.187	-6.477	-5.770	-5.684	-7.033	-6.706	-7.206	-7.034	-7.155	-7.492	-7.206	-7.144	-7.257	-7.146	-7.053	-7.161	-7.288	-6.891	-6.986	-6.951	-6.809	-6.795	-6.919	-6.344	-6.148	-6.569	-7.436	-8.049	-8.133	-7.933
325.0	-457.3	-154.9	22.73	-40.94	-126.5	-119.1	-48.77	28.53	121.7	233.8	377.7	532.0	578.7	607.6	674.6	544.7	172.5	114.0	181.8	948.9	 5288	9999.9	 1931	60.62	-12.98	-14.47	-14.56	-14.73	-15.36	-15.32	-14.95	-13.79	-12.54	-12.16	-11.96	-9.931	-10.53	-10.12	-9.969	-9.554	-9.261	-9.267	-9.239	-8.624	-8.393	-7.842	-6.694	-7.052	-6.162	-5.773	-5.488	-6.830	-6.877	-7.275	-6.761	-7.184	-7.668	-7.391	-7.334	-7.347	-6.969	-7.124	-7.101	-6.803	-7.097	-6.724	-7.112	-7.047	-6.733	-7.002	-6.929	-6.749	-6.322	-6.731	-7.310	-8.277	-8.200
330.0	-450.1	-109.8	57.83	-3.545	-102.6	-75.68	-30.40	48.80	154.9	262.5	389.5	534.6	599.9	576.4	529.1	529.0	375.9	136.9	79.09	236.1	 1254	 4880	 9717	 5890	105.0	-9.317	-12.89	-14.23	-14.52	-14.76	-14.57	-13.76	-12.58	-12.24	-11.43	-10.22	-10.26	-9.990	-9.745	-9.692	-9.226	-9.213	-8.971	-8.764	-8.305	-7.811	-6.808	-6.872	-6.177	-5.540	-5.657	-6.988	-6.845	-7.131	-7.005	-7.134	-7.431	-7.345	-7.157	-7.187	-6.998	-7.193	-7.034	-6.940	-6.841	-6.845	-6.801	-6.708	-6.888	-6.920	-6.988	-6.677	-6.897	-6.978	-6.930	-7.450	-7.981
335.0	-400.3	-64.35	84.37	33.91	-11.64	-46.50	3.754	85.58	156.4	298.1	402.3	555.5	609.2	589.3	514.5	403.0	395.5	337.0	104.2	91.79	304.0	 1106	 3018	9999.9	 8614	155.7	-8.905	-12.70	-13.57	-14.21	-13.68	-13.07	-12.66	-12.02	-11.45	-10.26	-10.01	-9.791	-9.654	-9.401	-9.341	-9.171	-8.908	-8.669	-8.321	-7.629	-6.671	-6.597	-6.156	-5.260	-5.400	-6.971	-6.642	-7.145	-6.689	-6.959	-7.193	-7.091	-7.297	-7.098	-6.897	-6.920	-7.037	-6.925	-6.904	-6.660	-6.864	-6.460	-7.255	-6.775	-7.029	-7.074	-7.032	-7.534	-7.564	-7.609	-7.273
340.0	-394.8	-96.01	86.53	91.78	-11.19	5.309	38.13	96.26	175.4	291.8	416.9	536.7	607.0	595.8	491.3	368.8	302.8	406.1	224.7	78.82	107.1	272.3	699.2	 4041	9999.9	 6307	109.0	-10.58	-11.32	-13.28	-13.33	-13.22	-11.97	-12.05	-11.07	-9.833	-9.832	-9.838	-9.397	-9.564	-9.011	-9.099	-9.092	-8.481	-7.983	-7.845	-6.874	-6.341	-6.176	-5.317	-5.359	-6.705	-6.575	-7.019	-6.741	-7.033	-7.181	-7.154	-7.245	-7.219	-7.107	-6.955	-6.761	-7.077	-6.810	-6.248	-6.807	-6.743	-7.168	-6.511	-6.841	-7.181	-7.184	-7.659	-7.529	-7.794	-7.501
345.0	-422.1	-84.98	90.77	81.12	30.57	11.09	65.17	107.9	191.7	294.2	381.5	508.2	582.1	589.4	488.9	365.1	266.9	309.3	356.2	143.6	75.38	96.83	181.3	955.8	 5448	9999.9	 1528	56.56	-10.04	-12.03	-12.24	-13.26	-11.66	-11.68	-10.71	-10.35	-9.957	-9.608	-9.787	-9.745	-9.126	-9.088	-8.538	-8.464	-7.986	-7.474	-6.833	-6.312	-6.231	-5.126	-5.349	-6.461	-6.666	-7.032	-6.785	-7.025	-7.114	-7.172	-7.090	-7.162	-7.018	-7.069	-7.025	-7.335	-6.858	-6.622	-6.796	-6.763	-6.790	-6.920	-6.970	-7.071	-6.969	-7.292	-7.849	-7.812	-8.154
350.0	-472.2	-107.5	58.43	87.88	47.09	50.51	85.88	133.6	202.1	286.7	363.2	495.0	546.0	549.6	485.6	369.0	262.4	235.6	300.3	296.2	148.8	84.04	81.69	241.9	 1309	 5067	 9293	 5368	89.33	-8.179	-11.40	-11.39	-11.95	-11.57	-10.58	-10.24	-9.717	-9.891	-9.414	-9.373	-9.030	-9.003	-8.742	-8.662	-7.838	-7.660	-6.827	-6.579	-5.965	-5.299	-5.353	-6.754	-6.707	-6.890	-6.828	-7.155	-7.055	-7.256	-6.995	-7.040	-6.800	-6.948	-6.926	-6.978	-6.895	-6.633	-6.856	-6.878	-7.003	-6.708	-6.925	-7.007	-7.002	-7.389	-7.693	-7.977	-8.073
355.0	-526.3	-133.0	50.89	84.96	93.51	94.96	122.8	164.8	203.7	275.4	379.5	430.2	504.2	520.9	489.1	365.7	282.9	242.8	232.1	285.3	297.5	142.0	87.00	102.5	326.7	 1155	 3106	9999.9	 7395	130.4	-9.095	-10.36	-10.50	-11.35	-10.46	-10.06	-9.576	-9.530	-9.466	-9.382	-9.256	-9.115	-8.631	-8.366	-8.128	-7.662	-6.694	-6.567	-6.258	-5.117	-5.427	-6.536	-6.562	-6.826	-6.726	-6.764	-7.269	-6.913	-7.194	-7.103	-6.913	-6.974	-6.796	-6.954	-7.006	-6.855	-7.057	-6.939	-7.098	-6.756	-6.968	-6.929	-7.398	-7.223	-7.774	-7.844	-7.861
360.0	-469.8	-116.6	74.50	55.59	87.79	134.2	141.0	167.7	230.3	277.6	361.6	424.7	502.6	481.7	460.3	377.2	305.9	256.3	233.0	236.0	329.1	251.4	121.4	92.17	123.2	291.1	727.3	 4273	9999.9	 5395	82.37	-8.391	-10.25	-10.24	-9.895	-9.512	-9.553	-9.227	-9.238	-9.196	-9.166	-9.146	-8.883	-8.410	-8.343	-7.775	-6.734	-6.617	-6.244	-5.131	-5.303	-6.511	-6.232	-6.742	-6.744	-6.679	-7.115	-6.737	-7.109	-7.023	-6.672	-6.968	-7.041	-6.870	-6.978	-6.994	-7.092	-7.129	-6.540	-6.900	-6.975	-6.928	-7.127	-7.384	-7.479	-7.596	-8.128
365.0	-445.9	-193.1	43.19	69.28	114.9	165.5	168.0	206.6	231.2	272.4	351.7	419.3	471.7	469.5	462.3	378.3	321.2	278.8	250.3	234.6	272.0	336.5	190.7	112.0	91.99	111.7	194.9	 1026	 5633	9999.9	 1329	37.16	-8.554	-9.186	-9.189	-9.339	-9.326	-9.172	-8.712	-8.821	-8.901	-8.936	-8.934	-8.555	-8.186	-7.827	-7.095	-6.637	-6.017	-5.389	-5.406	-6.268	-6.108	-6.429	-6.391	-6.821	-7.267	-6.822	-6.983	-7.124	-6.988	-6.932	-7.134	-6.820	-6.969	-6.796	-6.807	-6.707	-6.939	-7.147	-7.215	-7.026	-6.859	-7.192	-7.246	-7.717	-7.783
370.0	-513.5	-223.3	-7.225	92.43	147.1	158.8	179.3	214.7	238.6	279.9	331.8	399.7	448.1	463.6	443.7	379.1	340.6	302.0	280.6	258.8	251.8	292.3	291.8	187.7	115.9	95.22	92.19	260.9	 1370	 5347	 9045	 4732	67.59	-6.493	-8.282	-8.776	-8.983	-8.929	-8.751	-8.650	-8.975	-8.819	-8.850	-8.593	-8.210	-7.769	-6.991	-6.905	-6.113	-5.274	-5.352	-6.451	-6.277	-6.390	-6.269	-6.802	-7.145	-6.861	-7.093	-7.019	-7.137	-6.983	-7.072	-6.987	-6.808	-6.995	-6.869	-6.864	-6.996	-7.262	-7.195	-6.914	-7.071	-7.183	-7.543	-7.465	-7.651
375.0	-451.9	-240.6	-3.983	66.08	160.1	176.6	190.9	234.9	253.4	280.7	331.3	384.5	413.2	434.7	433.0	384.6	350.8	321.6	310.4	290.2	274.0	268.9	278.5	307.3	182.9	111.7	90.40	103.4	334.3	 1212	 3280	9999.9	 6324	94.46	-6.175	-6.862	-8.451	-8.765	-8.505	-8.960	-8.500	-9.061	-8.463	-8.235	-7.762	-7.496	-6.779	-6.542	-6.003	-5.323	-5.546	-6.475	-6.239	-6.695	-6.419	-6.565	-7.284	-6.905	-6.991	-6.979	-7.104	-6.917	-7.115	-7.167	-6.892	-6.763	-6.656	-6.749	-7.355	-7.104	-7.094	-7.262	-7.237	-7.016	-7.259	-7.421	-7.680
380.0	-493.5	-281.5	9.355	91.34	171.2	184.1	213.8	252.6	262.6	289.8	355.0	358.1	412.1	430.1	434.3	392.6	355.3	324.5	324.6	301.7	287.8	274.6	259.3	319.2	272.5	149.6	100.3	83.45	112.0	295.7	766.5	 4632	9999.9	 4219	55.57	-5.483	-7.187	-8.068	-8.463	-8.740	-8.537	-9.060	-9.000	-8.134	-7.662	-7.722	-6.383	-6.737	-6.207	-5.211	-5.262	-6.668	-5.983	-6.605	-6.206	-6.604	-7.082	-6.990	-6.859	-6.941	-7.072	-6.908	-7.181	-7.155	-6.946	-6.662	-6.720	-7.032	-6.976	-7.281	-7.096	-7.297	-6.978	-7.176	-7.263	-7.478	-7.815
385.0	-456.4	-241.2	-25.00	55.74	131.2	188.4	204.8	230.7	276.1	303.6	319.0	358.7	420.9	417.1	414.2	382.6	369.5	334.3	341.1	319.9	305.4	283.2	261.7	275.1	319.2	211.3	124.4	92.49	77.80	101.3	192.3	 1131	 6107	 9866	993.1	17.54	-6.309	-7.589	-7.988	-8.383	-8.551	-8.540	-8.846	-8.424	-8.278	-7.660	-6.541	-6.729	-6.178	-4.849	-5.341	-6.434	-6.050	-6.479	-6.021	-6.651	-7.046	-7.075	-6.916	-6.477	-6.818	-7.033	-7.099	-6.980	-7.169	-7.003	-6.817	-7.014	-7.320	-7.166	-7.141	-7.222	-7.127	-7.161	-7.096	-7.400	-7.807
390.0	-527.5	-194.2	-25.80	98.00	132.9	203.4	230.0	249.2	289.3	308.1	306.4	365.2	380.1	407.9	407.4	378.2	362.7	351.9	347.7	333.9	316.3	301.8	282.2	261.6	282.9	287.4	197.6	120.1	83.88	71.88	76.00	272.3	 1515	 5288	 7522	 3402	48.50	-5.635	-6.960	-7.582	-7.962	-8.530	-8.736	-8.144	-7.659	-7.701	-6.520	-6.776	-6.100	-5.092	-5.317	-6.150	-5.952	-6.260	-6.305	-6.668	-6.931	-6.759	-6.710	-6.677	-6.705	-7.045	-6.972	-6.811	-6.821	-6.761	-7.028	-7.112	-7.025	-7.323	-7.077	-7.227	-7.029	-7.289	-7.432	-7.398	-7.688
