Sample:	'1
File name:	L2025090907¾°Ô·Â·ÇÅ.FD3
Run date:	'14:54:24, 09/09/2025
Operator:	Administrator
Comment:	'

Instrument
Model:	F-2700 FL Spectrophotometer
Serial number:	3064-004
ROM Version:	4J14000 07

Instrument parameters
Measurement type:	3-D scan
Data mode:	Fluorescence
EX  Start WL:	220.0 nm
EX  End WL:	600.0 nm
EX Sampling interval:	5.0 nm
EM  Start WL:	230.0 nm
EM  End WL:	650.0 nm
EM Sampling interval:	5.0 nm
Scan speed:	12000 nm/min
EX Slit:	5.0 nm
EM Slit:	5.0 nm
PMT Voltage:	700 V
Response:	Auto 
Corrected spectra:	Off
Contour interval:	50.000

Peak integration
Integration method:	Rectangular
Sensitivity:	1
Threshold:	1.000

Peaks
No.	ApexEX/EM(nm)	Height(Data)
1	225.0/585.0	35.93
2	225.0/620.0	19.65
3	230.0/595.0	27.45
4	230.0/605.0	26.57
5	230.0/625.0	21.20
6	235.0/345.0	839.9
7	235.0/565.0	48.67
8	235.0/615.0	26.46
9	235.0/640.0	21.14
10	240.0/520.0	241.5
11	245.0/265.0	373.9
12	245.0/530.0	218.4
13	245.0/620.0	20.35
14	250.0/270.0	447.6
15	250.0/545.0	208.8
16	255.0/280.0	688.1
17	255.0/555.0	190.3
18	260.0/285.0	891.9
19	260.0/565.0	177.7
20	265.0/290.0	995.9
21	265.0/580.0	164.9
22	270.0/295.0	 1387
23	270.0/590.0	148.2
24	275.0/305.0	 1617
25	275.0/375.0	 1152
26	275.0/605.0	144.9
27	280.0/310.0	 1563
28	280.0/340.0	 1126
29	280.0/370.0	 1150
30	280.0/615.0	120.9
31	285.0/315.0	 1482
32	285.0/630.0	98.99
33	290.0/320.0	 1424
34	290.0/640.0	76.05
35	295.0/330.0	 1120
36	300.0/335.0	990.7
37	305.0/340.0	984.6
38	310.0/345.0	857.3
39	315.0/355.0	738.8
40	320.0/360.0	825.7
41	325.0/365.0	804.5
42	335.0/380.0	769.6
43	340.0/385.0	758.5
44	350.0/400.0	683.3
45	355.0/405.0	651.6
46	365.0/420.0	553.9
47	415.0/485.0	133.8
48	430.0/505.0	81.13
49	440.0/515.0	57.25
50	450.0/530.0	39.95
51	455.0/335.0	3.135
52	460.0/345.0	3.280
53	460.0/545.0	28.04
54	465.0/340.0	3.229
55	485.0/265.0	1.806
56	495.0/270.0	1.963
57	505.0/275.0	2.940
58	510.0/280.0	3.087
59	520.0/285.0	4.375
60	530.0/290.0	4.224
61	540.0/295.0	6.113
62	545.0/300.0	6.924
63	550.0/305.0	7.851
64	560.0/310.0	7.420
65	570.0/315.0	7.103
66	580.0/325.0	7.488
67	580.0/360.0	6.260
68	590.0/330.0	6.352

Data points
	220.0	225.0	230.0	235.0	240.0	245.0	250.0	255.0	260.0	265.0	270.0	275.0	280.0	285.0	290.0	295.0	300.0	305.0	310.0	315.0	320.0	325.0	330.0	335.0	340.0	345.0	350.0	355.0	360.0	365.0	370.0	375.0	380.0	385.0	390.0	395.0	400.0	405.0	410.0	415.0	420.0	425.0	430.0	435.0	440.0	445.0	450.0	455.0	460.0	465.0	470.0	475.0	480.0	485.0	490.0	495.0	500.0	505.0	510.0	515.0	520.0	525.0	530.0	535.0	540.0	545.0	550.0	555.0	560.0	565.0	570.0	575.0	580.0	585.0	590.0	595.0	600.0
230.0	19.12	784.7	 4363	 2318	141.9	4.989	4.092	3.452	1.611	3.383	2.621	2.180	1.911	2.034	1.323	1.641	1.429	0.830	0.766	0.847	1.028	0.787	0.547	0.646	0.612	0.630	0.488	0.454	0.430	0.309	0.465	0.469	0.293	0.245	0.294	0.498	0.332	0.441	0.419	0.405	0.328	0.340	0.446	0.218	0.252	0.181	1.461	5.425	8.620	6.223	2.131	0.374	0.129	0.103	0.021	0.106	0.035	0.039	0.008	0.044	0.059	0.005	0.029	-0.043	-0.007	-0.029	0.030	-0.067	-0.095	-0.056	-0.053	-0.075	-0.038	-0.070	-0.128	-0.068	-0.041
235.0	47.34	203.5	 1795	 4511	 3075	159.2	4.750	6.515	2.482	3.913	2.198	2.382	2.186	3.311	1.554	1.847	1.453	1.100	0.858	0.743	0.798	0.695	0.782	0.814	0.408	0.439	0.539	0.729	0.395	0.348	0.477	0.349	0.279	0.076	0.264	0.148	0.308	0.374	0.172	0.300	0.243	0.387	0.412	0.650	0.459	0.248	0.631	1.540	3.366	6.315	8.242	8.013	3.012	0.846	0.154	0.112	0.124	0.067	0.015	0.017	-0.012	0.070	0.029	-0.043	0.022	0.063	0.006	-0.095	-0.084	-0.048	-0.023	-0.113	-0.082	-0.046	-0.159	-0.128	-0.037
240.0	53.64	107.7	441.4	 2720	 6921	973.5	64.81	3.803	4.312	6.390	2.982	2.576	3.305	2.873	1.609	1.190	1.577	1.266	1.011	0.996	0.928	0.849	0.621	0.865	0.741	0.275	0.690	0.470	0.729	0.257	0.312	0.151	0.467	0.043	0.343	0.178	0.454	0.419	0.381	0.276	0.183	0.251	0.260	0.282	0.599	0.571	0.412	0.828	0.882	1.857	5.028	10.46	12.24	7.602	1.870	0.239	0.061	0.118	0.142	0.026	0.039	0.061	-0.053	-0.123	0.084	0.065	-0.066	-0.047	-0.052	-0.083	-0.066	-0.061	-0.067	-0.054	-0.116	-0.126	-0.056
245.0	31.61	119.6	164.6	732.4	 4985	 7061	755.6	42.56	6.288	6.577	3.801	4.612	3.853	3.122	1.865	1.977	1.542	1.307	0.782	1.249	1.060	0.618	1.104	1.322	0.676	0.463	0.695	0.729	0.743	0.888	0.391	0.109	0.582	0.308	0.300	0.172	0.397	0.353	0.436	0.457	0.183	0.242	0.167	0.235	0.300	0.628	0.704	0.939	0.578	0.493	1.394	3.808	9.142	13.71	12.72	5.910	1.356	0.027	0.056	0.045	0.126	-0.012	-0.047	-0.014	0.075	0.021	-0.007	-0.073	-0.023	-0.095	0.014	-0.046	-0.066	-0.070	-0.162	-0.101	-0.040
250.0	19.37	67.82	167.5	271.5	 1336	 4180	 7254	 2900	196.3	13.13	5.528	4.349	3.519	3.483	2.564	2.204	1.820	1.611	1.329	1.042	1.133	0.777	0.902	1.054	0.836	0.500	0.764	0.551	0.501	0.490	0.277	0.356	0.268	0.347	0.359	0.082	0.296	0.294	0.313	0.339	0.361	0.261	0.204	0.065	0.206	0.372	0.372	0.856	0.837	0.701	0.705	1.076	2.377	4.771	8.811	12.90	15.84	13.23	6.242	1.429	0.214	0.065	-0.009	-0.044	0.050	0.062	-0.006	-0.117	0.084	-0.057	-0.067	-0.133	-0.075	-0.056	-0.106	-0.112	-0.003
255.0	15.84	22.21	72.95	266.7	449.2	972.2	 3921	 7709	 3774	327.7	9.041	5.354	3.946	4.817	2.536	2.752	1.718	1.985	1.603	1.148	0.871	0.905	0.846	0.990	0.998	0.673	0.708	0.674	0.552	0.516	0.249	0.319	0.468	0.641	0.257	0.208	0.242	0.364	0.411	0.292	0.338	0.362	0.169	0.215	0.390	0.327	0.244	0.418	0.430	0.670	1.133	1.272	1.064	1.342	2.145	3.309	6.583	16.26	25.56	22.63	8.770	1.334	0.062	0.034	0.022	0.073	0.152	-0.077	-0.056	-0.017	-0.006	-0.040	-0.023	0.016	-0.151	-0.171	-0.067
260.0	22.94	12.97	26.83	176.7	414.0	314.0	 1010	 3949	 7888	 4025	124.0	8.002	6.372	5.037	3.315	3.048	2.486	1.881	1.850	1.959	1.327	0.919	0.912	0.877	0.885	0.853	0.585	0.697	0.432	0.854	0.593	0.523	0.497	0.390	0.407	0.233	0.261	0.327	0.182	0.172	0.272	0.208	0.346	0.147	0.360	0.182	0.290	0.276	0.251	0.372	0.856	1.632	1.601	0.787	0.705	0.808	1.857	4.602	12.87	26.41	32.84	21.19	5.337	0.489	0.206	0.075	-0.040	-0.001	-0.026	0.059	-0.031	-0.076	-0.116	-0.028	-0.137	-0.078	-0.100
265.0	22.03	18.45	15.14	62.20	306.4	373.9	290.8	 1042	 4769	9999.9	 2540	40.89	8.844	7.207	4.727	4.099	2.393	2.081	1.609	1.264	1.366	0.573	1.184	0.659	0.858	0.734	0.786	0.914	0.495	0.812	0.577	0.718	0.305	0.425	0.373	0.215	0.340	0.202	0.315	0.367	0.162	0.250	0.267	0.324	0.484	0.229	0.382	0.311	0.411	0.352	0.494	0.924	1.445	1.806	1.109	0.588	0.529	1.104	3.256	8.747	21.68	37.88	35.83	16.65	2.593	0.191	0.045	0.108	-0.021	-0.072	0.032	0.062	-0.067	-0.075	-0.086	0.003	0.010
270.0	35.48	27.66	23.53	37.84	110.5	333.9	447.6	331.5	 1246	 7042	 9836	 4341	158.2	10.30	6.674	4.645	3.085	2.553	2.099	1.697	1.610	1.111	1.307	1.108	0.934	0.639	0.846	0.804	0.531	0.877	0.477	0.788	0.393	0.546	0.406	0.400	0.360	0.314	0.328	0.504	0.291	0.246	0.196	0.377	0.321	0.265	0.352	0.338	0.413	0.403	0.229	0.354	0.561	1.148	1.635	1.963	1.783	0.820	0.991	2.209	5.405	11.86	21.90	32.38	37.25	29.20	14.09	2.733	0.079	-0.030	0.162	-0.011	-0.049	0.071	-0.004	0.016	0.019
275.0	74.07	70.49	59.59	52.88	51.65	117.1	427.6	570.3	378.8	 1668	 3614	 9924	 3019	183.7	11.57	7.422	4.545	2.405	2.262	1.837	1.530	1.851	1.109	1.417	0.794	1.120	1.023	0.627	0.792	0.437	0.551	0.698	0.462	0.431	0.666	0.377	0.483	0.245	0.530	0.391	0.300	0.368	0.456	0.514	0.493	0.558	0.465	0.707	0.393	0.401	0.263	0.343	0.340	0.418	0.717	1.072	2.332	2.940	1.783	1.025	1.655	3.108	5.223	8.072	14.92	32.84	55.84	44.53	17.98	1.559	0.145	-0.034	-0.002	0.025	0.019	0.002	-0.086
280.0	114.4	118.7	113.5	93.95	51.03	70.34	200.2	688.1	490.2	511.5	976.7	 4322	9999.9	 2429	95.48	10.34	5.844	3.979	3.309	1.958	1.959	1.842	1.383	1.291	0.987	1.374	0.833	0.688	0.757	0.776	0.870	0.670	0.500	0.661	0.622	0.427	0.526	0.192	0.551	0.522	0.526	0.697	0.737	0.529	0.600	0.805	0.719	0.854	0.607	0.523	0.462	0.311	0.352	0.243	0.393	0.454	1.023	2.163	3.087	2.886	1.482	1.341	1.841	2.314	4.003	9.529	24.52	50.54	67.47	37.41	8.162	0.584	0.062	0.025	0.014	0.019	-0.006
285.0	143.4	180.4	169.7	128.4	72.78	67.22	120.6	399.7	891.9	471.0	426.4	 1241	 5636	9999.9	 1740	39.23	7.595	5.299	3.578	2.334	2.024	1.921	1.737	1.647	1.292	1.282	1.149	0.732	0.777	0.907	0.656	0.735	0.528	0.769	0.498	0.671	0.612	0.754	0.666	0.826	0.717	0.727	0.724	0.636	0.884	0.967	0.932	0.979	0.783	0.742	0.466	0.312	0.248	0.388	0.312	0.421	0.722	1.066	1.933	3.773	4.375	2.103	1.474	1.505	1.907	2.986	6.454	15.56	38.71	67.05	53.29	26.27	3.208	0.292	0.144	-0.042	0.003
290.0	189.4	241.7	243.8	194.8	114.5	102.4	125.0	217.3	580.3	995.9	666.3	616.2	 1632	 5038	 9757	 4867	92.01	9.264	5.937	3.676	3.242	2.400	2.060	1.745	1.407	1.248	0.945	0.854	1.043	0.842	0.801	0.647	0.498	0.713	0.601	0.785	0.985	0.986	0.805	1.053	0.801	1.015	1.087	1.046	1.092	1.166	1.256	1.440	1.135	1.033	0.879	0.758	0.485	0.475	0.356	0.511	0.732	0.739	1.108	1.804	2.932	4.207	4.224	3.452	2.353	2.305	2.884	4.916	10.10	19.98	32.04	48.61	50.67	35.11	18.25	3.303	0.146
295.0	218.7	276.1	307.0	240.9	157.4	136.8	151.3	201.8	346.8	719.7	 1387	805.7	779.4	 1392	 3090	 9832	 6890	119.4	8.384	5.038	4.484	3.482	2.554	2.017	2.248	1.196	0.874	1.213	0.709	0.774	0.930	0.771	0.834	0.892	0.653	1.021	0.850	0.918	1.042	1.031	1.029	0.895	1.093	1.296	1.077	1.340	1.420	1.603	1.501	1.248	1.029	0.966	0.543	0.635	0.656	0.872	0.942	1.050	1.032	1.416	1.637	2.333	3.382	5.911	6.113	3.818	2.837	3.289	4.224	5.989	7.913	12.11	16.94	38.63	73.81	53.47	24.79
300.0	242.7	308.2	337.4	282.0	211.4	182.8	190.0	227.4	328.3	528.5	 1170	 1456	745.7	669.0	917.8	 3593	9999.9	 1448	73.18	8.210	5.171	4.046	3.076	2.414	2.422	1.592	1.151	1.481	0.854	1.040	1.008	0.807	0.893	0.652	0.699	0.864	0.841	1.295	1.100	1.279	0.981	0.954	1.311	1.500	1.160	1.565	1.602	1.712	1.570	1.507	1.163	1.008	0.963	0.728	1.005	1.156	1.079	1.259	1.205	1.571	1.855	2.025	2.303	3.836	5.822	6.924	5.139	3.578	2.960	3.414	3.265	3.923	4.553	10.15	28.08	61.01	84.73
305.0	237.3	317.1	351.3	297.5	244.7	220.2	244.1	289.3	368.8	517.9	835.4	 1617	 1215	609.3	499.7	999.4	 4610	9999.9	 1157	35.76	6.842	4.824	4.050	3.021	2.617	1.837	1.392	1.365	0.928	1.332	0.895	0.870	1.176	0.665	0.621	0.945	0.835	1.341	1.138	1.120	1.099	1.494	1.243	1.306	1.514	1.666	1.441	1.745	1.608	1.389	1.352	1.159	1.219	0.977	1.147	1.268	1.269	1.257	1.522	1.715	1.900	2.345	2.235	3.309	3.879	6.074	7.851	6.610	4.266	2.862	2.574	2.299	2.423	3.248	7.457	17.04	40.16
310.0	221.1	312.0	372.3	316.7	279.5	251.2	282.6	350.6	435.7	565.0	751.5	 1121	 1563	 1116	529.9	468.8	 1222	 4301	 7819	 4361	68.00	7.783	4.704	3.500	3.189	2.095	1.758	1.341	1.424	1.476	0.976	0.953	1.008	0.712	0.869	1.008	0.920	1.272	1.286	1.160	1.091	1.261	1.221	1.258	1.415	1.525	1.659	1.848	1.551	1.541	1.335	1.156	1.356	1.203	1.107	1.259	1.312	1.664	1.532	1.925	2.059	2.604	2.831	3.243	3.655	3.985	5.305	6.619	7.420	6.177	3.870	2.584	2.228	2.060	3.252	4.902	9.879
315.0	219.8	305.2	377.1	355.9	294.1	285.1	327.2	379.6	480.8	609.6	765.7	958.5	 1148	 1482	974.1	445.2	483.1	 1108	 2327	 8044	 5902	90.99	7.681	4.260	2.969	2.561	2.344	1.526	1.870	1.316	0.898	0.937	1.004	0.745	0.748	0.907	0.753	1.150	1.241	1.053	1.062	1.206	1.282	1.539	1.275	1.535	1.538	1.898	1.507	1.663	1.118	1.356	1.567	1.349	1.122	1.247	1.496	1.480	1.713	2.123	2.120	2.414	2.928	3.457	3.782	3.609	4.285	4.391	5.191	6.175	7.103	5.996	3.525	2.533	2.481	2.519	3.329
320.0	223.9	339.9	460.9	449.4	344.6	304.0	338.7	409.7	512.9	631.3	797.6	964.4	 1043	 1222	 1424	659.7	386.8	428.5	640.1	 2879	 9602	 4117	58.33	6.054	4.484	3.167	2.197	1.701	1.606	1.304	1.298	1.318	1.120	0.609	0.693	0.833	1.184	0.963	1.113	0.975	0.973	1.281	1.304	1.414	1.524	1.853	1.935	2.237	2.104	1.662	1.570	1.550	1.479	1.597	1.532	1.525	1.597	1.731	1.809	2.101	2.272	2.775	2.926	3.320	4.015	3.961	4.059	4.497	4.656	4.987	6.023	7.107	7.271	4.297	2.687	2.044	2.446
325.0	269.2	412.8	578.7	536.8	388.3	338.2	371.7	454.0	535.5	681.0	848.3	998.6	 1069	 1074	 1334	 1099	462.9	328.1	296.3	762.2	 4241	 9358	870.8	30.68	5.447	3.572	2.595	2.293	1.857	1.719	1.416	1.044	1.033	1.026	0.944	0.860	1.022	1.270	0.930	1.312	1.288	1.393	1.278	1.124	1.478	2.167	1.848	2.667	2.378	2.153	1.823	2.031	1.550	1.639	1.653	1.702	1.441	2.051	1.878	2.227	2.414	2.646	3.053	3.578	3.936	4.392	4.568	4.852	5.549	5.355	5.259	5.420	7.488	7.115	4.350	2.859	2.510
330.0	293.7	453.9	673.1	664.1	473.0	384.7	414.0	471.6	582.9	710.8	876.7	999.3	 1114	 1066	 1064	 1120	889.7	433.6	277.0	315.8	 1080	 3831	 6197	 3436	55.68	6.579	4.216	2.616	2.308	2.229	1.331	1.405	1.093	1.305	1.074	0.812	0.905	1.103	1.189	1.224	1.286	1.119	1.437	1.627	1.723	2.061	2.276	3.056	2.995	2.497	2.257	2.235	1.798	1.905	1.540	1.670	1.769	2.174	2.095	2.491	2.774	2.910	3.208	3.950	3.998	4.510	4.631	4.989	5.302	5.235	5.263	5.219	5.633	6.139	6.352	5.984	4.544
335.0	309.6	496.5	727.4	735.1	557.8	459.4	458.6	513.5	612.4	727.8	890.6	 1031	 1122	 1088	 1015	894.8	990.7	817.2	362.5	268.1	382.9	957.7	 1949	 7022	 4877	75.62	7.905	3.839	2.911	2.046	1.724	1.641	1.538	1.712	1.106	0.961	1.032	0.840	1.174	1.267	1.376	1.181	1.493	1.960	1.605	2.392	2.518	3.135	3.134	2.818	2.731	2.501	2.046	1.824	1.783	1.917	2.027	2.361	2.098	2.719	2.882	2.948	3.852	4.158	4.580	4.607	4.746	5.279	5.483	5.567	5.570	5.569	4.695	5.116	4.797	5.125	6.473
340.0	306.3	489.6	727.4	812.4	617.4	534.4	499.9	551.0	640.4	766.8	920.9	 1043	 1126	 1115	 1013	860.0	810.3	984.6	582.3	308.5	270.8	345.7	540.0	 2720	 8341	 3401	50.65	5.610	4.555	2.571	1.767	1.802	1.405	1.366	1.064	0.982	1.129	1.187	1.169	0.951	1.303	1.195	1.391	1.471	1.917	2.163	2.305	2.836	3.013	3.229	2.585	2.528	2.138	2.149	2.160	2.147	2.661	2.753	2.589	2.813	2.840	3.545	3.866	4.085	4.589	4.611	5.023	5.231	5.127	5.298	5.475	5.699	4.946	4.855	4.690	4.438	4.806
345.0	312.7	471.5	744.1	839.9	693.6	575.5	564.0	576.4	673.8	787.4	921.4	 1046	 1121	 1115	 1024	864.4	733.7	823.8	857.3	427.0	280.2	248.2	243.6	719.5	 4008	 8124	731.9	26.80	5.494	3.450	2.585	1.954	1.491	1.331	1.313	1.167	1.056	0.988	1.285	1.011	1.397	1.518	1.421	1.631	1.803	2.217	2.554	2.813	3.280	2.940	2.918	2.867	2.744	2.331	2.040	2.727	2.573	2.824	2.675	3.188	3.077	3.530	4.017	4.047	4.662	4.100	4.571	5.351	5.640	5.665	5.695	5.168	4.920	5.297	4.950	4.705	4.504
350.0	288.7	464.2	704.7	817.8	721.6	688.4	647.0	655.5	726.8	815.7	932.6	 1057	 1096	 1112	 1042	898.6	770.7	697.9	792.3	736.4	428.8	290.0	235.0	295.9	 1031	 3631	 5464	 2869	48.22	5.873	3.685	2.886	1.768	1.527	1.486	1.345	1.052	1.077	1.135	1.201	1.248	1.418	1.414	1.427	1.809	2.407	2.618	2.786	3.116	2.817	2.806	2.992	2.779	2.986	2.723	2.723	2.803	2.841	3.230	3.352	3.352	3.538	3.817	4.124	4.372	4.534	4.753	4.946	5.387	5.356	5.324	5.104	5.472	5.063	4.763	4.442	4.741
355.0	280.3	441.4	669.6	802.7	795.9	770.1	753.4	760.0	838.2	896.8	999.0	 1087	 1114	 1124	 1069	950.1	822.7	727.6	677.8	738.8	732.0	420.4	297.3	264.0	373.1	912.7	 1888	 6389	 4013	65.88	5.837	3.800	2.590	1.668	1.393	1.305	1.152	1.007	0.994	1.177	1.286	1.441	1.438	1.422	1.933	1.835	2.291	2.549	2.865	2.942	3.047	2.955	3.321	3.251	2.879	2.902	2.967	3.099	3.674	3.503	3.293	3.944	4.497	4.005	4.304	4.695	5.125	4.702	4.895	5.125	5.518	5.097	5.508	4.962	4.948	4.514	4.862
360.0	271.2	425.5	628.1	805.1	839.6	821.8	838.2	852.3	909.6	964.7	 1042	 1093	 1137	 1128	 1085	981.6	853.0	771.6	692.2	662.9	825.7	630.4	372.0	296.8	266.6	336.9	521.7	 2700	 7321	 2796	41.40	5.592	3.519	2.321	1.895	1.501	1.151	1.204	1.146	1.215	1.548	1.510	1.459	1.312	2.061	2.106	2.273	2.621	2.676	2.862	2.740	3.107	3.365	3.747	3.006	3.628	3.539	3.463	3.945	4.124	3.620	4.161	4.159	4.865	4.624	4.734	5.093	5.161	5.023	5.331	5.370	5.814	6.260	5.229	5.014	5.152	5.142
365.0	273.2	404.1	643.6	799.2	839.2	863.1	885.6	912.4	955.4	 1030	 1088	 1136	 1148	 1132	 1096	989.8	884.1	804.8	718.3	660.3	731.6	804.5	511.0	353.8	280.5	244.8	233.5	714.9	 3889	 7165	635.9	19.91	4.461	3.028	2.102	1.599	1.434	1.539	1.173	1.315	1.344	1.670	1.426	1.782	1.623	2.043	2.155	2.680	2.846	2.748	2.878	3.329	3.196	3.911	3.607	3.656	3.520	3.768	3.822	4.442	4.418	4.414	4.766	4.798	4.797	4.595	4.854	5.516	5.190	5.484	5.804	5.629	5.645	5.002	5.399	5.187	4.874
370.0	274.4	392.7	598.0	773.7	859.4	917.7	934.8	979.3	 1012	 1072	 1108	 1132	 1150	 1119	 1090	 1001	926.3	842.0	774.8	708.9	686.1	749.2	736.2	504.3	349.8	274.0	216.6	277.4	998.9	 3473	 5156	 2471	39.46	5.406	3.044	2.016	1.772	1.578	1.358	1.394	1.466	1.358	1.400	1.741	1.692	1.918	2.105	2.601	2.701	2.630	2.782	3.369	3.400	3.494	3.874	3.523	3.786	4.130	4.053	4.506	4.674	4.842	5.021	5.082	4.688	4.905	5.039	5.532	5.867	5.462	5.781	5.422	5.732	5.487	5.559	5.273	5.397
375.0	288.6	399.6	583.7	758.3	846.6	956.7	990.4	 1015	 1055	 1105	 1144	 1152	 1138	 1127	 1073	 1006	943.5	883.5	827.0	775.3	726.5	687.9	727.9	732.1	481.6	346.2	270.3	225.1	332.2	854.2	 1928	 6189	 3336	51.21	5.059	2.850	2.329	1.806	1.810	1.409	1.418	1.430	1.170	1.598	1.970	1.804	1.906	2.213	2.714	2.555	2.466	3.218	3.428	3.260	3.780	4.018	4.129	4.506	4.546	4.871	4.591	4.952	4.829	4.820	4.792	5.173	5.041	5.311	5.750	5.437	5.409	5.637	5.790	5.558	5.427	5.246	5.983
380.0	273.9	374.0	585.1	764.3	907.8	973.8	 1019	 1027	 1071	 1117	 1129	 1130	 1133	 1110	 1044	 1001	940.6	899.7	842.4	796.8	752.7	698.3	681.9	769.6	644.5	421.2	316.3	248.0	218.6	291.9	512.4	 2830	 6721	598.5	30.68	4.422	3.027	2.418	2.039	1.568	1.658	1.512	1.467	1.809	1.452	2.192	2.001	2.141	2.615	2.677	2.502	3.368	3.308	3.959	3.727	4.321	4.137	4.403	4.801	5.030	5.053	4.399	5.016	4.796	5.014	5.270	5.074	5.044	5.822	5.387	5.274	5.240	5.735	5.239	5.627	5.761	5.905
385.0	254.3	369.5	562.1	742.8	876.3	972.6	 1026	 1035	 1046	 1120	 1131	 1116	 1116	 1080	 1054	998.2	950.0	904.6	860.5	818.6	775.9	727.2	678.0	702.5	758.5	534.1	366.5	288.9	229.0	189.1	205.6	740.9	 3837	 5586	490.6	13.52	3.903	2.378	2.434	1.624	1.659	1.770	1.533	1.731	1.536	1.997	1.940	2.102	2.668	2.404	2.454	3.315	3.459	3.671	4.134	4.042	4.133	4.440	4.799	4.604	4.655	4.552	4.650	4.708	5.180	5.102	4.693	5.186	5.201	5.671	5.358	5.691	5.313	4.794	5.004	5.845	5.650
390.0	256.3	363.5	527.6	709.7	843.0	957.5	 1008	 1030	 1038	 1085	 1084	 1099	 1092	 1071	 1031	966.4	929.1	893.5	858.5	836.0	795.4	762.1	709.5	675.9	704.9	684.9	491.3	347.0	275.5	206.1	168.5	251.1	985.4	 3045	 4180	 1683	30.90	4.302	3.178	2.064	1.813	1.773	1.488	1.611	1.729	1.953	1.977	2.472	2.449	2.347	2.564	3.168	3.607	3.787	4.140	3.985	4.277	4.434	4.515	4.531	4.557	4.664	4.603	4.721	5.038	4.661	4.961	5.072	5.121	5.507	5.135	5.132	4.840	5.035	5.099	5.414	5.254
395.0	263.9	345.7	520.8	692.7	807.0	939.1	990.1	 1015	 1043	 1052	 1060	 1059	 1071	 1021	997.1	949.8	905.9	885.9	867.5	833.9	801.8	777.4	735.9	695.5	657.7	662.8	668.5	455.6	328.9	253.5	199.1	174.3	299.7	733.6	 1669	 4870	 2428	41.32	4.428	3.076	2.180	1.767	1.367	1.686	1.877	1.783	1.988	2.311	2.280	2.396	2.572	2.717	3.354	3.441	4.056	4.202	3.923	4.932	4.332	4.629	4.665	4.885	4.078	5.099	4.590	4.651	5.236	4.851	5.399	5.514	5.018	4.900	5.034	5.771	4.887	5.515	5.615
400.0	268.2	337.1	499.9	691.3	792.1	897.5	976.4	 1009	 1039	 1023	 1049	 1030	 1022	 1005	970.7	934.3	890.4	866.4	863.2	827.8	814.2	778.7	745.2	699.0	655.7	620.6	683.3	581.9	390.2	292.8	232.7	177.3	165.5	228.9	429.9	 2364	 5081	492.1	22.41	4.279	2.541	2.387	1.435	1.737	1.670	1.750	1.966	2.386	2.238	2.378	2.504	2.866	2.967	3.612	3.465	3.680	4.272	4.066	4.758	4.614	5.293	4.309	4.359	4.861	4.519	4.610	4.561	5.125	4.979	5.276	5.187	4.863	4.911	5.430	5.315	5.641	5.180
405.0	252.1	336.0	498.8	674.8	767.5	885.0	972.3	 1013	 1029	 1030	 1018	 1028	999.9	981.1	950.2	911.9	868.0	852.0	854.0	824.9	801.5	773.2	742.0	708.4	664.3	613.3	623.2	651.6	476.9	331.5	266.3	197.7	151.7	130.4	151.5	613.7	 3073	 3933	395.2	9.649	3.313	2.632	2.022	1.861	1.965	1.733	1.756	2.106	2.473	2.153	2.617	3.071	2.977	3.271	3.548	4.142	4.186	3.957	4.622	4.401	4.168	4.207	4.335	4.523	4.715	4.317	4.343	4.803	4.631	4.840	5.136	5.028	4.638	4.916	5.724	5.498	5.066
