Sample:	'1
File name:	Default_20230303_101827.FD3
Run date:	'10:12:06, 03/03/2023
Operator:	user
Comment:	'

Instrument
Model:	F-2700 FL Spectrophotometer
Serial number:	2190-003
ROM Version:	4J14000 07

Instrument parameters
Measurement type:	3-D scan
Data mode:	Fluorescence
EX  Start WL:	220.0 nm
EX  End WL:	600.0 nm
EX Sampling interval:	5.0 nm
EM  Start WL:	230.0 nm
EM  End WL:	650.0 nm
EM Sampling interval:	5.0 nm
Scan speed:	12000 nm/min
EX Slit:	5.0 nm
EM Slit:	5.0 nm
PMT Voltage:	700 V
Response:	Auto 
Corrected spectra:	Off
Contour interval:	50.000

Peak integration
Integration method:	Rectangular
Sensitivity:	1
Threshold:	1.000

Peaks
No.	ApexEX/EM(nm)	Height(Data)
1	230.0/335.0	-22.01
2	250.0/385.0	273.6
3	250.0/405.0	279.3
4	255.0/380.0	275.2
5	255.0/555.0	-93.14
6	260.0/285.0	267.7
7	260.0/565.0	-95.65
8	265.0/290.0	303.5
9	265.0/395.0	312.2
10	265.0/425.0	336.5
11	265.0/580.0	-75.19
12	270.0/295.0	504.1
13	270.0/410.0	323.8
14	270.0/445.0	349.7
15	270.0/590.0	-64.75
16	275.0/305.0	660.1
17	275.0/425.0	334.2
18	275.0/435.0	337.3
19	275.0/605.0	-57.18
20	280.0/310.0	683.6
21	280.0/330.0	464.2
22	280.0/615.0	-45.99
23	285.0/315.0	701.7
24	285.0/340.0	480.2
25	285.0/380.0	403.0
26	285.0/400.0	360.9
27	285.0/625.0	-31.13
28	290.0/320.0	685.0
29	290.0/405.0	364.0
30	290.0/640.0	-26.71
31	300.0/335.0	398.8
32	305.0/340.0	394.6
33	310.0/345.0	350.8
34	310.0/410.0	334.6
35	320.0/360.0	312.6
36	325.0/365.0	319.9
37	330.0/370.0	282.6
38	335.0/380.0	300.9
39	340.0/385.0	306.9
40	345.0/390.0	276.1
41	350.0/400.0	271.1
42	355.0/405.0	268.6
43	360.0/410.0	241.5
44	365.0/415.0	233.4
45	370.0/425.0	223.9
46	415.0/485.0	50.08
47	430.0/505.0	28.45
48	435.0/510.0	22.35
49	445.0/525.0	14.91
50	450.0/530.0	11.14
51	460.0/545.0	6.421
52	465.0/550.0	2.997
53	520.0/285.0	-6.393
54	545.0/300.0	-5.912
55	550.0/305.0	-6.180
56	560.0/310.0	-6.313
57	580.0/325.0	-6.372

Data points
	220.0	225.0	230.0	235.0	240.0	245.0	250.0	255.0	260.0	265.0	270.0	275.0	280.0	285.0	290.0	295.0	300.0	305.0	310.0	315.0	320.0	325.0	330.0	335.0	340.0	345.0	350.0	355.0	360.0	365.0	370.0	375.0	380.0	385.0	390.0	395.0	400.0	405.0	410.0	415.0	420.0	425.0	430.0	435.0	440.0	445.0	450.0	455.0	460.0	465.0	470.0	475.0	480.0	485.0	490.0	495.0	500.0	505.0	510.0	515.0	520.0	525.0	530.0	535.0	540.0	545.0	550.0	555.0	560.0	565.0	570.0	575.0	580.0	585.0	590.0	595.0	600.0
230.0	-875.0	-304.5	 2494	 1474	-242.7	-287.3	-241.5	-208.6	-186.8	-164.7	-141.6	-122.4	-103.3	-84.01	-68.11	-56.58	-47.36	-40.54	-35.28	-31.02	-28.26	-25.75	-23.58	-21.89	-20.49	-19.31	-18.52	-17.67	-17.25	-17.00	-16.32	-15.18	-14.08	-13.15	-12.38	-11.05	-10.96	-10.82	-10.50	-10.18	-9.880	-9.813	-9.581	-9.277	-9.187	-8.884	-7.543	-5.262	-1.840	-2.189	-4.835	-7.176	-7.294	-7.590	-7.395	-7.863	-7.924	-8.117	-7.903	-7.964	-8.039	-8.035	-8.126	-8.132	-8.096	-8.210	-8.266	-8.283	-8.367	-8.280	-8.386	-8.467	-8.539	-8.553	-8.761	-8.890	-9.115
235.0	-869.1	-605.5	508.0	 2405	 1461	-158.0	-237.7	-209.9	-188.0	-163.9	-144.8	-123.3	-103.6	-84.66	-68.52	-56.47	-46.73	-40.19	-35.01	-31.15	-27.90	-25.67	-23.61	-22.19	-20.67	-19.35	-18.71	-18.06	-17.50	-16.94	-16.38	-15.48	-14.08	-13.71	-12.45	-11.09	-11.01	-10.68	-10.53	-10.33	-9.844	-9.902	-9.663	-9.118	-9.024	-8.900	-7.887	-7.306	-5.524	-3.316	-1.004	-2.582	-5.187	-7.340	-7.441	-7.809	-7.851	-7.988	-8.074	-8.150	-8.156	-8.098	-7.893	-8.198	-8.122	-8.176	-8.236	-8.126	-8.534	-8.318	-8.358	-8.438	-8.495	-8.257	-8.842	-8.853	-9.082
240.0	-825.9	-607.1	-303.3	981.0	 3108	 1197	-185.5	-206.5	-185.8	-159.1	-142.4	-126.2	-101.5	-81.27	-68.53	-57.85	-47.91	-40.86	-35.48	-31.37	-28.18	-25.81	-23.85	-22.14	-20.76	-18.82	-18.66	-17.86	-17.64	-16.84	-16.20	-15.29	-13.94	-13.38	-12.34	-11.12	-11.07	-10.68	-10.61	-10.08	-9.687	-9.994	-9.856	-9.456	-8.975	-8.852	-7.780	-7.828	-6.858	-5.404	-3.500	-1.009	-0.544	-2.225	-6.135	-7.766	-7.889	-8.067	-8.177	-8.076	-8.049	-7.975	-8.025	-8.122	-8.152	-8.320	-8.247	-8.026	-8.491	-8.502	-8.436	-8.441	-8.454	-8.489	-8.685	-8.984	-9.104
245.0	-856.5	-628.8	-463.4	-62.42	 1655	 2973	894.0	-186.4	-186.0	-163.5	-142.5	-123.9	-102.8	-83.34	-67.92	-56.04	-47.11	-40.52	-35.56	-31.76	-28.36	-26.29	-24.25	-21.77	-20.08	-18.82	-18.59	-17.74	-17.54	-16.44	-16.09	-15.40	-14.27	-13.52	-12.49	-11.21	-10.97	-10.98	-10.34	-10.03	-9.872	-9.850	-9.580	-9.426	-9.205	-8.842	-7.783	-7.875	-7.151	-5.850	-5.625	-5.452	-3.594	0.800	0.219	-4.521	-7.277	-7.971	-8.153	-7.867	-7.882	-8.046	-8.095	-8.282	-8.058	-8.172	-8.399	-8.166	-8.320	-8.449	-8.413	-8.548	-8.415	-8.524	-8.593	-8.973	-9.362
250.0	-862.6	-687.8	-434.0	-276.2	165.8	 1635	 3511	 2204	102.6	-162.4	-139.8	-124.6	-101.9	-81.97	-67.56	-56.11	-46.97	-40.86	-35.37	-31.10	-27.62	-25.90	-23.72	-21.98	-20.26	-18.91	-18.22	-17.49	-17.12	-16.67	-16.11	-15.09	-14.23	-13.36	-12.49	-11.43	-10.93	-11.05	-10.39	-10.23	-9.949	-9.943	-9.737	-9.412	-8.978	-8.843	-7.752	-7.532	-6.874	-5.921	-5.974	-6.943	-6.429	-5.239	-3.116	-1.393	0.866	-1.041	-4.555	-7.254	-7.835	-7.988	-8.132	-8.175	-8.160	-8.274	-8.420	-8.201	-8.256	-8.475	-8.444	-8.531	-8.526	-8.567	-8.732	-8.986	-9.308
255.0	-877.2	-699.6	-497.8	-249.5	-114.9	155.9	 1169	 4738	 1828	187.6	-141.9	-120.2	-100.7	-80.81	-66.19	-54.69	-46.90	-40.35	-35.56	-30.53	-27.97	-26.25	-23.85	-21.86	-20.20	-19.28	-17.74	-17.06	-16.51	-16.49	-16.31	-15.12	-14.10	-13.65	-12.54	-11.45	-11.05	-11.02	-10.34	-10.36	-9.770	-10.10	-9.798	-9.233	-9.100	-8.826	-7.688	-7.550	-6.966	-5.857	-5.791	-7.071	-6.862	-7.149	-6.331	-6.223	-4.889	-0.237	5.292	4.009	-2.770	-7.311	-8.052	-7.943	-8.190	-8.299	-8.307	-8.217	-8.259	-8.382	-8.444	-8.541	-8.733	-8.421	-8.602	-8.906	-9.280
260.0	-897.2	-692.9	-549.0	-316.2	-105.1	-115.8	96.36	 2102	 5858	 1571	22.54	-118.6	-99.85	-83.17	-65.75	-55.13	-46.36	-39.36	-35.22	-31.09	-28.31	-25.95	-24.39	-21.95	-20.11	-19.31	-17.85	-17.18	-17.07	-16.86	-15.73	-15.10	-14.27	-13.61	-12.73	-11.51	-10.85	-11.38	-10.62	-10.54	-9.808	-9.951	-9.789	-9.367	-8.932	-8.839	-7.874	-7.785	-6.972	-6.069	-5.919	-6.940	-6.771	-7.265	-7.123	-7.346	-7.381	-5.862	-1.894	5.017	8.723	3.891	-5.516	-7.852	-8.113	-8.149	-8.352	-8.164	-8.166	-8.507	-8.563	-8.660	-8.465	-8.418	-8.641	-8.835	-9.223
265.0	-876.6	-697.8	-553.9	-396.3	-154.2	-35.19	-114.5	375.8	 3190	 7351	 1264	-67.19	-95.90	-79.06	-66.36	-54.55	-46.35	-39.34	-34.70	-31.17	-28.56	-26.10	-23.79	-21.72	-20.27	-18.85	-18.50	-17.52	-17.53	-16.90	-15.62	-15.33	-13.90	-13.57	-12.80	-11.39	-11.09	-10.93	-10.66	-10.22	-9.842	-9.965	-9.663	-9.387	-8.963	-8.885	-7.752	-7.989	-6.954	-6.098	-6.166	-7.226	-6.657	-6.950	-6.927	-7.691	-7.897	-7.491	-6.630	-3.906	2.505	11.42	11.35	0.290	-7.084	-8.104	-8.233	-8.139	-8.126	-8.461	-8.592	-8.505	-8.123	-8.297	-8.711	-8.844	-9.109
270.0	-879.2	-696.8	-546.9	-419.8	-284.1	-72.53	9.726	-19.91	650.8	 3384	 7001	 4690	251.6	-75.98	-64.76	-52.40	-46.12	-39.09	-34.13	-30.81	-27.68	-25.53	-23.53	-21.58	-20.16	-19.11	-17.81	-17.56	-17.65	-16.42	-15.50	-15.31	-13.83	-13.22	-12.70	-11.35	-10.90	-11.01	-10.87	-10.35	-9.936	-9.955	-9.755	-9.373	-8.981	-8.758	-7.630	-7.735	-6.997	-6.161	-6.100	-7.319	-7.019	-7.381	-6.881	-6.887	-7.325	-7.525	-7.720	-7.108	-5.467	-2.020	3.053	8.019	10.08	6.489	-1.898	-7.456	-8.275	-8.252	-8.410	-8.473	-8.289	-8.513	-8.602	-8.892	-9.115
275.0	-843.0	-663.2	-537.2	-401.2	-326.8	-214.9	-22.17	136.2	58.92	660.9	 2213	 8852	 7086	331.9	-60.46	-52.19	-43.32	-39.17	-34.12	-30.76	-27.21	-25.01	-23.39	-21.82	-20.41	-18.72	-17.86	-17.60	-17.18	-16.45	-15.65	-14.90	-14.10	-13.36	-12.46	-11.13	-10.90	-11.09	-10.42	-10.46	-9.793	-9.707	-9.658	-9.304	-9.256	-8.853	-7.760	-7.567	-6.998	-5.946	-6.127	-7.325	-6.933	-7.515	-7.252	-7.490	-7.535	-6.717	-7.329	-7.803	-7.348	-6.774	-5.607	-4.196	-0.767	9.158	21.75	14.92	-1.016	-7.942	-8.455	-8.433	-8.301	-8.502	-8.624	-8.789	-8.962
280.0	-829.0	-689.0	-530.7	-403.1	-341.6	-247.9	-146.6	149.0	151.2	67.93	437.4	 3410	9999.9	 5388	140.6	-49.16	-41.59	-38.41	-33.77	-30.13	-27.24	-25.28	-23.57	-21.24	-20.19	-18.74	-18.11	-17.68	-16.80	-16.37	-16.04	-15.12	-14.03	-12.75	-12.52	-10.97	-11.08	-10.85	-10.60	-10.28	-9.723	-9.800	-9.673	-9.270	-8.834	-8.780	-7.642	-7.688	-6.990	-5.887	-6.149	-7.380	-7.213	-7.487	-7.350	-7.530	-7.958	-7.246	-6.870	-7.153	-7.673	-7.807	-7.582	-7.107	-6.394	-3.570	4.259	17.95	24.52	9.644	-5.585	-8.431	-8.375	-8.471	-8.702	-8.739	-9.035
285.0	-836.6	-653.5	-507.5	-389.8	-320.4	-257.7	-213.4	-28.03	267.7	66.68	45.61	780.8	 4808	9999.9	 3666	12.68	-39.09	-35.74	-32.64	-29.64	-26.89	-25.00	-22.69	-21.27	-19.74	-18.76	-17.77	-17.32	-16.52	-16.42	-16.09	-15.22	-14.16	-12.59	-12.47	-10.81	-10.66	-10.79	-10.28	-10.16	-9.560	-9.831	-9.601	-9.292	-8.951	-8.579	-7.575	-7.911	-7.008	-6.084	-6.124	-7.276	-7.159	-7.704	-7.288	-7.738	-7.792	-7.621	-7.532	-6.528	-6.393	-7.530	-7.744	-7.782	-7.608	-7.115	-5.071	0.031	13.15	26.38	20.82	1.840	-7.409	-8.446	-8.510	-8.831	-9.150
290.0	-778.4	-575.5	-458.9	-360.2	-308.0	-248.3	-204.7	-122.8	88.88	303.5	158.2	196.6	 1167	 4560	 9562	 5297	176.1	-32.48	-30.17	-28.43	-26.77	-24.71	-22.21	-20.84	-19.63	-18.52	-17.96	-17.16	-16.78	-16.36	-15.56	-15.15	-13.81	-12.83	-12.23	-10.70	-10.80	-10.60	-10.27	-10.14	-9.552	-9.737	-9.714	-9.289	-8.934	-8.733	-7.322	-7.497	-6.898	-6.025	-6.114	-7.241	-7.123	-7.572	-7.295	-7.774	-7.779	-7.759	-7.761	-7.379	-6.880	-6.824	-6.974	-7.427	-7.542	-7.691	-7.134	-6.003	-3.139	2.661	11.11	18.79	19.54	11.53	-1.035	-7.820	-9.095
295.0	-720.6	-512.5	-390.0	-331.9	-278.3	-227.6	-189.7	-126.0	-39.86	138.1	504.1	278.6	344.7	 1096	 2812	 9304	 8239	243.4	-26.64	-27.89	-25.28	-23.47	-22.51	-20.70	-18.96	-18.87	-17.74	-17.16	-16.58	-16.42	-15.57	-14.82	-13.62	-12.75	-12.25	-10.57	-10.60	-10.28	-10.10	-10.09	-9.623	-9.566	-9.669	-8.966	-8.906	-8.540	-7.268	-7.366	-6.803	-5.977	-5.919	-7.276	-7.181	-7.569	-7.227	-7.669	-7.855	-7.750	-7.771	-7.633	-7.489	-7.602	-7.471	-6.668	-6.472	-7.137	-7.683	-7.237	-6.811	-5.517	-3.865	-1.658	2.687	16.93	31.05	20.49	-0.572
300.0	-666.5	-458.2	-289.1	-299.0	-231.3	-207.2	-157.4	-105.0	-48.48	35.33	390.0	586.0	281.1	361.7	708.9	 3443	9999.9	 3296	144.6	-23.96	-24.11	-23.30	-22.21	-19.91	-19.41	-18.68	-17.83	-16.83	-16.84	-16.22	-15.46	-14.84	-13.30	-12.86	-12.27	-10.79	-10.08	-10.23	-10.05	-10.14	-9.212	-9.737	-9.575	-8.868	-8.639	-8.432	-7.559	-7.095	-6.718	-5.874	-5.669	-7.152	-7.047	-7.427	-7.197	-7.478	-7.716	-7.522	-7.355	-7.695	-7.473	-7.755	-7.471	-7.050	-6.311	-5.912	-7.043	-7.540	-7.408	-7.412	-6.903	-6.735	-5.670	-1.276	11.61	30.41	34.61
305.0	-661.1	-439.2	-244.7	-236.2	-227.5	-183.6	-150.9	-80.54	-17.79	44.93	238.3	660.1	544.8	248.0	265.4	848.0	 4742	9999.9	 2539	43.85	-22.05	-20.96	-20.83	-18.35	-18.89	-18.36	-17.29	-16.73	-16.59	-16.10	-15.57	-14.42	-13.30	-12.31	-12.11	-10.81	-10.15	-10.40	-9.884	-9.951	-9.653	-9.488	-9.661	-8.938	-8.743	-8.327	-7.371	-7.330	-6.727	-5.599	-5.654	-6.897	-7.079	-7.385	-7.052	-7.541	-7.519	-7.395	-7.462	-7.614	-7.559	-7.817	-7.480	-7.174	-6.953	-6.659	-6.180	-6.757	-7.311	-7.635	-7.418	-7.695	-7.465	-6.611	-3.791	4.318	20.99
310.0	-609.1	-398.9	-227.8	-226.2	-205.1	-165.0	-122.7	-63.80	2.948	82.07	212.2	428.7	683.6	522.8	243.9	269.2	 1139	 4505	 8904	 5533	127.3	-16.82	-19.57	-18.85	-18.29	-17.99	-16.68	-16.45	-16.27	-16.16	-15.71	-14.31	-13.45	-12.61	-12.11	-10.89	-10.42	-10.26	-9.788	-9.863	-9.513	-9.521	-9.371	-8.956	-8.691	-8.406	-7.100	-7.306	-6.606	-5.786	-5.697	-7.049	-7.001	-7.414	-7.041	-7.591	-7.690	-7.672	-7.544	-7.402	-7.492	-7.535	-7.532	-7.351	-7.210	-7.056	-6.621	-6.623	-6.313	-6.829	-7.309	-7.727	-7.643	-7.533	-7.374	-5.537	-1.696
315.0	-616.2	-347.4	-227.0	-177.7	-161.5	-145.1	-92.77	-33.12	22.22	128.0	246.6	349.1	474.7	701.7	483.8	189.2	307.7	 1022	 2643	 9293	 7486	187.1	-16.26	-17.48	-16.96	-16.43	-16.42	-15.68	-16.39	-16.25	-15.58	-13.93	-13.81	-12.59	-11.90	-10.65	-10.50	-10.35	-10.06	-9.896	-9.158	-9.200	-9.402	-8.743	-8.438	-8.384	-7.225	-7.308	-6.740	-5.696	-5.942	-6.949	-7.020	-7.441	-6.805	-7.551	-7.762	-7.710	-7.239	-7.181	-7.580	-7.380	-7.470	-7.104	-7.166	-7.370	-6.821	-7.251	-6.861	-7.055	-6.429	-7.089	-7.533	-7.903	-7.899	-7.741	-7.313
320.0	-554.9	-310.8	-190.5	-155.6	-133.5	-118.0	-77.87	-30.96	56.37	149.1	266.2	352.7	432.8	551.5	685.0	278.4	137.7	257.8	605.6	 3515	9999.9	 2192	113.0	-15.61	-15.84	-16.19	-16.20	-16.34	-16.12	-15.36	-15.08	-13.62	-13.80	-12.85	-11.73	-10.51	-10.34	-10.12	-10.09	-10.26	-9.199	-9.546	-9.347	-8.685	-8.552	-8.256	-6.997	-6.941	-6.502	-5.745	-5.856	-7.050	-7.026	-7.344	-6.777	-7.567	-7.670	-7.567	-7.268	-7.448	-7.478	-7.350	-7.391	-7.153	-7.074	-7.184	-6.986	-7.302	-7.073	-7.428	-6.475	-6.601	-6.913	-7.516	-8.108	-7.978	-8.387
325.0	-529.8	-303.8	-147.7	-130.5	-140.9	-111.8	-70.01	-1.665	72.13	169.1	257.3	357.9	429.9	462.4	593.9	497.6	159.2	102.9	151.9	827.1	 4749	9999.9	 1853	52.71	-14.21	-14.94	-15.80	-16.09	-15.25	-15.32	-15.32	-13.78	-13.42	-12.43	-11.66	-10.27	-10.45	-10.22	-10.04	-9.843	-9.295	-9.644	-9.426	-8.401	-8.381	-8.133	-7.033	-6.642	-6.506	-5.721	-5.767	-7.132	-6.913	-7.357	-6.850	-7.290	-7.591	-7.447	-7.387	-7.330	-7.439	-7.068	-7.173	-7.361	-7.104	-7.179	-7.151	-7.376	-7.138	-7.085	-6.884	-6.859	-6.372	-6.955	-7.691	-8.368	-8.612
330.0	-548.1	-252.8	-68.19	-86.31	-105.5	-79.70	-49.47	36.28	103.9	199.0	294.6	389.2	464.2	452.9	444.1	478.4	354.8	126.4	70.94	204.8	 1123	 4408	 8049	 4967	100.3	-10.31	-14.05	-14.91	-15.18	-14.81	-14.74	-13.87	-12.96	-12.36	-11.58	-10.38	-10.11	-10.35	-9.858	-9.692	-9.614	-9.493	-9.257	-8.632	-8.267	-8.197	-7.104	-6.954	-6.473	-5.571	-5.638	-7.063	-6.880	-7.198	-6.842	-7.128	-7.460	-7.309	-7.306	-7.201	-7.329	-7.378	-7.363	-7.237	-7.085	-7.081	-7.133	-7.168	-7.154	-7.037	-7.127	-7.189	-7.195	-7.206	-6.857	-7.446	-8.328
335.0	-527.6	-209.7	-22.01	-44.61	-66.67	-37.84	2.758	52.26	115.3	223.4	315.9	419.9	463.9	465.5	411.1	351.4	398.8	321.6	102.2	86.99	275.2	996.8	 2508	 8935	 7126	150.0	-11.27	-12.99	-13.96	-14.68	-14.36	-13.37	-12.95	-12.65	-11.26	-9.989	-10.07	-10.31	-9.742	-9.602	-9.279	-9.032	-9.156	-8.569	-8.459	-7.951	-6.960	-7.026	-6.139	-5.346	-5.530	-7.057	-6.724	-7.003	-6.785	-7.044	-7.477	-7.179	-7.218	-7.110	-6.915	-7.153	-7.096	-7.141	-7.436	-6.962	-7.195	-7.232	-7.052	-6.920	-7.358	-7.539	-7.397	-7.391	-7.657	-7.479	-7.521
340.0	-496.2	-217.4	-60.64	4.540	-20.94	-14.42	31.40	78.32	152.0	206.7	319.1	430.5	459.7	480.2	410.2	321.8	285.2	394.6	222.7	77.77	95.23	244.9	581.3	 3517	9999.9	 5279	98.57	-11.37	-12.55	-14.14	-13.45	-13.17	-13.04	-11.91	-11.30	-9.813	-10.35	-9.942	-10.04	-9.675	-9.226	-9.192	-9.031	-8.518	-7.881	-7.595	-6.958	-6.755	-6.010	-5.504	-5.697	-6.706	-6.634	-7.094	-6.735	-6.692	-7.407	-7.163	-7.083	-7.157	-7.102	-7.161	-6.970	-6.830	-7.159	-6.915	-7.018	-7.138	-6.957	-7.007	-7.510	-7.317	-7.147	-7.236	-7.628	-7.827	-8.042
345.0	-475.1	-212.3	-34.16	6.780	13.34	15.66	75.51	106.8	170.4	218.6	319.8	394.7	452.3	463.9	401.6	314.6	246.3	300.3	350.8	136.4	71.05	87.74	153.2	833.4	 4935	9999.9	 1498	46.81	-10.97	-12.60	-13.59	-13.30	-12.18	-11.97	-11.16	-9.999	-10.48	-9.956	-9.865	-9.514	-9.259	-9.146	-9.245	-8.810	-7.882	-7.719	-6.946	-6.939	-5.864	-5.635	-5.653	-6.770	-6.492	-6.906	-6.652	-6.865	-7.342	-7.036	-7.196	-6.828	-7.225	-7.046	-6.921	-7.324	-7.119	-6.883	-7.025	-7.238	-7.087	-6.986	-7.375	-7.385	-7.403	-7.465	-7.503	-7.981	-8.148
350.0	-493.6	-208.6	-23.15	50.99	27.15	66.34	105.5	128.5	172.3	243.7	317.2	372.8	424.3	442.1	396.7	320.2	251.0	225.3	295.2	287.0	143.8	79.21	76.82	213.4	 1181	 4604	 7931	 4586	86.67	-9.550	-12.12	-11.74	-11.51	-11.66	-11.28	-10.07	-10.27	-9.714	-9.532	-9.488	-9.278	-9.406	-9.137	-8.802	-8.073	-7.853	-6.819	-6.843	-6.106	-5.563	-5.603	-6.614	-6.350	-6.893	-6.589	-6.963	-7.314	-7.022	-7.089	-7.100	-7.325	-7.028	-6.957	-7.213	-6.854	-6.945	-7.143	-7.132	-7.238	-6.888	-7.328	-7.203	-7.462	-7.471	-7.744	-7.750	-8.193
355.0	-519.1	-205.1	-29.86	47.55	84.54	112.7	152.3	170.7	196.4	235.0	321.9	360.2	411.5	432.0	397.4	344.7	274.4	233.8	223.9	271.4	290.1	131.3	79.28	96.28	294.0	 1049	 2650	 8749	 6400	124.4	-8.821	-10.99	-10.84	-11.12	-11.20	-10.15	-10.13	-9.512	-9.565	-9.333	-9.372	-9.250	-9.374	-8.481	-8.093	-7.861	-6.795	-6.729	-6.303	-5.385	-5.534	-6.516	-6.405	-6.805	-6.620	-6.766	-7.406	-6.965	-6.912	-6.945	-7.289	-7.013	-7.094	-6.922	-6.919	-7.176	-7.064	-7.091	-7.198	-6.937	-7.105	-7.066	-7.555	-7.329	-7.504	-7.883	-8.200
360.0	-475.1	-189.6	20.34	59.41	110.9	130.3	174.4	181.2	220.2	249.2	316.8	349.5	398.6	408.5	388.3	348.1	297.9	251.6	225.3	221.0	312.6	242.9	109.7	82.90	111.7	262.8	621.7	 3664	9999.9	 4630	79.88	-9.407	-9.874	-10.85	-10.81	-9.633	-9.378	-9.619	-9.558	-9.369	-9.217	-9.068	-9.442	-8.735	-8.065	-7.829	-6.960	-6.793	-6.389	-5.340	-5.263	-6.574	-6.389	-6.888	-6.707	-6.881	-7.253	-7.141	-7.285	-7.056	-6.639	-6.761	-7.328	-7.165	-6.830	-7.341	-7.158	-7.089	-7.104	-7.026	-7.215	-6.640	-7.320	-7.367	-7.551	-7.806	-8.117
365.0	-533.8	-216.1	-12.63	69.83	135.4	128.3	188.4	190.9	196.9	262.9	315.2	362.2	391.2	415.7	388.8	352.9	313.6	269.9	241.4	225.6	261.7	319.9	177.8	98.47	87.93	104.2	167.3	883.3	 5178	9999.9	 1308	35.41	-9.110	-10.60	-10.16	-9.827	-9.533	-9.709	-9.343	-9.600	-9.077	-9.096	-8.976	-8.555	-7.947	-7.731	-6.855	-6.660	-6.337	-5.258	-5.402	-6.698	-6.284	-6.597	-6.409	-6.642	-7.149	-7.031	-7.306	-7.104	-7.096	-6.854	-6.966	-6.777	-6.941	-7.128	-7.058	-7.230	-7.288	-7.398	-6.870	-7.159	-7.298	-7.371	-7.538	-7.813	-8.028
370.0	-555.3	-207.6	-23.66	90.55	138.4	193.3	219.6	224.2	224.6	280.2	308.7	352.8	383.9	389.7	386.2	350.8	321.6	296.7	270.7	246.4	239.3	274.5	282.6	177.6	105.1	88.05	82.96	227.3	 1253	 4822	 8036	 4296	65.78	-8.135	-9.026	-8.977	-9.504	-9.420	-9.270	-9.456	-9.027	-8.797	-9.047	-8.572	-8.337	-7.717	-6.836	-6.962	-6.189	-5.566	-5.351	-6.210	-6.228	-6.616	-6.302	-6.797	-6.975	-7.157	-7.086	-7.092	-7.009	-7.057	-6.850	-7.002	-7.092	-7.135	-7.180	-7.083	-7.016	-7.251	-6.847	-7.073	-7.334	-7.330	-7.592	-7.613	-8.178
375.0	-566.0	-264.3	-55.00	104.4	166.6	197.5	251.6	258.0	252.9	299.4	281.3	327.0	373.4	395.8	392.6	347.7	342.7	313.6	296.0	272.6	258.1	242.1	270.2	291.4	173.9	106.8	86.07	96.86	308.1	 1096	 2883	 9045	 5582	93.46	-7.498	-8.060	-9.019	-8.954	-8.555	-9.284	-8.596	-8.995	-9.028	-8.728	-7.935	-7.797	-6.984	-6.895	-6.173	-5.450	-5.422	-6.363	-6.361	-6.511	-6.284	-6.496	-6.986	-7.035	-7.112	-7.012	-6.985	-6.776	-7.070	-7.000	-7.168	-7.081	-7.485	-6.854	-7.028	-7.344	-6.842	-7.207	-7.363	-7.045	-7.632	-7.604	-7.668
380.0	-546.9	-309.2	-36.73	68.10	209.8	221.0	254.5	275.2	242.2	280.0	305.2	337.2	364.9	403.0	375.4	373.5	346.6	329.8	315.2	292.8	277.0	248.1	238.7	300.9	238.7	137.1	99.69	79.09	108.2	269.0	675.0	 4081	9999.9	 3740	53.50	-6.695	-8.411	-7.880	-8.800	-8.926	-8.688	-8.865	-8.939	-8.467	-8.441	-7.769	-6.987	-6.977	-6.120	-5.585	-5.329	-6.093	-6.129	-6.541	-6.401	-6.523	-7.002	-6.843	-6.707	-6.906	-7.142	-6.923	-7.131	-7.067	-7.188	-6.799	-7.313	-7.201	-7.383	-7.386	-7.316	-7.296	-7.264	-7.340	-7.172	-7.686	-7.624
385.0	-556.6	-256.3	-87.24	78.79	168.2	242.4	273.6	260.9	278.0	273.2	317.2	341.3	368.1	397.0	376.6	371.2	350.1	342.2	324.1	314.6	291.1	267.5	243.7	262.7	306.9	200.9	120.1	86.55	76.32	93.04	171.8	996.8	 5671	 9282	966.5	15.40	-6.757	-7.396	-8.202	-8.897	-8.483	-8.676	-8.766	-8.409	-8.154	-7.627	-6.942	-7.041	-6.356	-5.565	-5.246	-6.265	-6.072	-6.560	-6.480	-6.814	-6.919	-6.659	-7.065	-6.798	-7.133	-6.727	-7.027	-7.007	-6.801	-7.150	-7.253	-6.918	-7.273	-7.276	-7.232	-7.092	-7.118	-7.029	-7.212	-7.575	-7.849
390.0	-531.6	-275.1	-62.06	90.34	201.3	228.9	254.7	277.3	289.9	297.4	292.4	343.2	347.2	367.6	365.5	368.8	354.5	340.3	332.8	323.9	306.8	287.0	265.8	246.2	270.8	276.1	180.3	114.7	89.41	71.57	71.87	242.8	 1400	 4790	 6929	 3183	47.50	-6.346	-7.643	-8.394	-8.269	-8.383	-8.683	-8.190	-8.058	-7.670	-6.977	-6.778	-6.049	-5.334	-5.158	-6.354	-6.201	-6.536	-6.226	-6.518	-6.753	-6.703	-7.020	-6.883	-7.033	-7.010	-7.152	-7.090	-7.124	-7.085	-7.064	-7.051	-7.358	-7.394	-7.106	-7.156	-7.205	-7.147	-7.247	-7.567	-7.846
