Sample:	'1
File name:	g2025082007ÖÐ·úÂ· 2±¶.FD3
Run date:	'15:44:09, 08/20/2025
Operator:	Administrator
Comment:	'

Instrument
Model:	F-2700 FL Spectrophotometer
Serial number:	23B8-004
ROM Version:	4J14000 07

Instrument parameters
Measurement type:	3-D scan
Data mode:	Fluorescence
EX  Start WL:	220.0 nm
EX  End WL:	600.0 nm
EX Sampling interval:	5.0 nm
EM  Start WL:	230.0 nm
EM  End WL:	650.0 nm
EM Sampling interval:	5.0 nm
Scan speed:	12000 nm/min
EX Slit:	5.0 nm
EM Slit:	5.0 nm
PMT Voltage:	700 V
Response:	Auto 
Corrected spectra:	Off
Contour interval:	50.000

Peak integration
Integration method:	Rectangular
Sensitivity:	1
Threshold:	1.000

Peaks
No.	ApexEX/EM(nm)	Height(Data)
1	225.0/305.0	606.3
2	225.0/590.0	52.32
3	225.0/605.0	44.61
4	225.0/640.0	43.93
5	230.0/340.0	1889
6	230.0/500.0	232.2
7	230.0/555.0	45.24
8	230.0/625.0	34.26
9	235.0/510.0	203.8
10	240.0/265.0	433.1
11	240.0/525.0	190.9
12	245.0/535.0	173.7
13	250.0/550.0	148.2
14	255.0/280.0	673.9
15	255.0/565.0	133.3
16	260.0/575.0	127.2
17	265.0/590.0	116.8
18	270.0/300.0	1409
19	270.0/600.0	122.7
20	275.0/305.0	1458
21	275.0/610.0	100.1
22	280.0/625.0	82.05
23	285.0/645.0	80.69
24	300.0/340.0	2794
25	335.0/380.0	360.8
26	340.0/390.0	320.7
27	345.0/395.0	300.8
28	350.0/400.0	319.0
29	365.0/420.0	229.5
30	370.0/425.0	213.3
31	395.0/460.0	86.40
32	400.0/465.0	75.15
33	415.0/485.0	42.38
34	430.0/505.0	27.09
35	445.0/525.0	15.95
36	455.0/540.0	10.29
37	470.0/560.0	5.277
38	485.0/340.0	7.155
39	485.0/580.0	2.748
40	495.0/270.0	2.462
41	505.0/275.0	3.465
42	510.0/280.0	3.746
43	520.0/285.0	4.327
44	530.0/290.0	4.379
45	540.0/295.0	6.444
46	545.0/300.0	6.999
47	550.0/305.0	7.067
48	560.0/310.0	6.265

Data points
	220.0	225.0	230.0	235.0	240.0	245.0	250.0	255.0	260.0	265.0	270.0	275.0	280.0	285.0	290.0	295.0	300.0	305.0	310.0	315.0	320.0	325.0	330.0	335.0	340.0	345.0	350.0	355.0	360.0	365.0	370.0	375.0	380.0	385.0	390.0	395.0	400.0	405.0	410.0	415.0	420.0	425.0	430.0	435.0	440.0	445.0	450.0	455.0	460.0	465.0	470.0	475.0	480.0	485.0	490.0	495.0	500.0	505.0	510.0	515.0	520.0	525.0	530.0	535.0	540.0	545.0	550.0	555.0	560.0	565.0	570.0	575.0	580.0	585.0	590.0	595.0	600.0
230.0	32.68	961.6	2665	828.5	35.33	4.214	3.862	3.479	3.334	3.238	3.026	2.780	3.071	2.470	2.257	1.844	1.822	1.453	1.309	1.314	1.051	0.819	0.888	0.714	0.735	0.665	0.615	0.575	0.496	0.424	0.457	0.366	0.302	0.358	0.242	0.253	0.274	0.191	0.217	0.140	0.229	0.320	0.284	0.233	0.197	0.167	0.996	5.619	11.33	9.167	3.696	0.631	0.165	0.080	0.096	0.068	0.121	0.065	0.081	0.103	0.103	0.063	0.065	0.092	0.032	0.055	0.040	0.052	0.042	0.080	0.057	0.039	0.043	0.032	0.058	0.029	0.043
235.0	73.96	263.3	1724	3516	594.5	66.80	7.357	5.374	3.785	4.169	3.605	4.339	2.831	2.743	1.892	1.483	2.115	1.496	1.647	1.358	0.928	0.906	0.793	0.790	0.731	0.721	0.568	0.671	0.577	0.509	0.472	0.372	0.307	0.325	0.360	0.202	0.229	0.168	0.215	0.130	0.259	0.179	0.340	0.418	0.236	0.282	0.335	1.400	4.337	8.623	13.97	14.97	7.709	1.481	0.144	0.121	0.096	0.066	0.058	0.095	0.069	0.063	0.076	0.089	0.055	0.090	0.085	0.038	0.010	0.072	0.053	0.038	0.017	0.067	0.039	0.055	0.034
240.0	116.7	136.6	518.8	3172	3821	484.3	40.14	7.044	4.403	4.394	4.378	4.410	3.936	3.330	2.663	1.911	2.133	1.446	1.577	1.343	1.142	1.011	0.766	0.854	0.743	0.789	0.543	0.545	0.591	0.577	0.417	0.326	0.479	0.274	0.312	0.244	0.278	0.184	0.276	0.184	0.245	0.121	0.328	0.317	0.351	0.485	0.380	0.503	1.076	2.534	7.222	18.63	25.76	18.14	6.892	1.026	0.165	0.104	0.147	0.142	0.084	0.069	0.073	0.105	0.121	0.097	0.040	0.050	0.039	0.030	0.077	-0.010	-0.005	0.061	0.047	0.025	0.077
245.0	82.26	191.4	177.5	1065	4179	3816	383.0	18.89	7.273	4.927	5.269	4.705	3.877	3.383	2.624	2.501	2.004	2.030	1.389	1.269	1.026	0.982	0.867	0.963	0.805	0.781	0.552	0.679	0.501	0.496	0.442	0.380	0.519	0.231	0.372	0.324	0.270	0.180	0.255	0.220	0.188	0.177	0.298	0.172	0.247	0.537	0.624	0.649	0.522	0.746	1.767	5.920	15.96	28.64	28.37	17.45	5.070	0.485	0.138	0.192	0.088	0.150	0.062	0.132	0.164	0.072	0.050	0.142	0.107	0.034	0.044	0.051	0.119	0.108	0.075	0.070	0.084
250.0	34.08	143.0	257.4	342.5	1319	4077	5262	1475	94.62	8.529	6.561	6.457	4.282	3.902	3.109	2.577	2.616	2.289	1.628	1.630	1.251	1.060	1.085	0.904	0.756	1.018	0.723	0.638	0.550	0.496	0.537	0.417	0.460	0.289	0.390	0.326	0.316	0.282	0.292	0.255	0.212	0.232	0.230	0.199	0.231	0.334	0.466	0.736	0.944	0.851	0.804	1.591	3.846	8.926	16.85	27.50	32.64	34.67	14.78	5.608	0.568	0.149	0.156	0.135	0.188	0.088	0.087	0.132	0.091	0.062	0.074	0.095	0.127	0.088	0.105	0.009	0.096
255.0	18.43	44.40	178.6	381.5	397.6	1018	4228	9735	2100	115.7	12.43	8.048	6.379	4.947	3.755	2.996	3.000	2.188	1.774	1.775	1.217	1.052	1.044	1.026	0.926	0.891	0.815	0.739	0.789	0.545	0.654	0.505	0.310	0.401	0.361	0.332	0.331	0.359	0.397	0.206	0.328	0.252	0.275	0.195	0.224	0.199	0.297	0.372	0.507	0.856	1.462	1.580	1.440	2.291	4.007	6.559	11.33	29.89	55.10	61.38	23.65	6.910	0.466	0.253	0.180	0.091	0.162	0.094	0.087	0.121	0.125	0.083	0.125	0.086	0.155	0.073	0.083
260.0	17.24	22.29	72.07	322.1	381.2	292.2	1260	7771	9999.9	1650	66.00	11.76	8.406	6.004	4.614	3.721	3.667	2.258	2.050	1.885	1.498	1.409	1.077	1.019	1.034	0.971	0.615	0.803	0.823	0.644	0.578	0.523	0.555	0.454	0.492	0.281	0.277	0.382	0.382	0.232	0.307	0.246	0.220	0.264	0.242	0.203	0.243	0.277	0.278	0.417	0.891	1.854	2.033	1.410	1.173	1.618	2.828	7.639	22.15	52.03	73.20	32.77	19.82	3.730	0.316	0.194	0.159	0.189	0.084	0.107	0.172	0.145	0.156	0.114	0.154	0.054	0.181
265.0	20.89	18.06	33.45	142.9	433.1	285.2	328.7	2497	9999.9	9999.9	1183	29.19	11.50	7.202	5.517	4.347	3.774	2.947	2.386	2.229	1.912	1.371	1.215	1.285	1.074	1.016	0.903	0.967	0.998	0.766	0.635	0.529	0.604	0.510	0.506	0.437	0.318	0.331	0.288	0.237	0.290	0.282	0.306	0.352	0.275	0.258	0.229	0.252	0.098	0.213	0.403	0.959	1.968	2.339	1.761	0.888	0.822	1.911	5.335	14.36	35.93	67.76	93.04	30.57	14.72	1.460	0.258	0.215	0.194	0.158	0.119	0.150	0.172	0.130	0.211	0.067	0.179
270.0	43.47	39.58	36.03	53.41	204.2	425.0	328.8	625.6	3144	9999.9	9999.9	3762	74.70	12.24	8.623	6.352	5.060	3.710	2.742	2.712	2.069	1.655	1.700	1.400	1.301	1.068	1.039	0.950	0.956	0.779	0.754	0.629	0.590	0.555	0.506	0.479	0.391	0.449	0.366	0.325	0.283	0.344	0.407	0.384	0.368	0.304	0.283	0.259	0.242	0.233	0.278	0.368	0.676	1.180	1.927	2.462	2.000	1.364	1.597	3.525	8.522	18.69	40.77	59.20	82.85	67.75	48.06	10.03	1.425	0.257	0.254	0.255	0.224	0.181	0.174	0.089	0.211
275.0	109.4	109.8	95.45	58.49	72.73	194.8	563.0	414.6	773.0	2471	9093	9999.9	1387	81.58	13.12	9.410	7.370	5.211	3.722	3.072	2.592	2.086	1.597	1.642	1.389	1.215	1.035	1.075	0.979	0.911	0.817	0.746	0.730	0.757	0.663	0.611	0.536	0.468	0.539	0.419	0.333	0.396	0.444	0.441	0.575	0.424	0.476	0.394	0.410	0.381	0.353	0.310	0.441	0.442	0.694	1.192	2.280	3.465	2.761	1.552	2.302	4.659	9.415	14.08	22.50	43.55	102.6	122.0	30.92	12.99	1.030	0.367	0.248	0.223	0.199	0.208	0.175
280.0	179.2	187.7	151.2	90.79	57.00	83.69	358.8	673.9	369.4	657.0	2606	9999.9	9999.9	1046	48.69	11.36	9.419	6.868	4.368	3.977	3.035	2.620	2.017	1.927	1.431	1.217	1.228	1.177	0.955	0.935	0.785	0.706	0.940	0.792	0.777	0.728	0.665	0.625	0.529	0.421	0.474	0.617	0.473	0.507	0.550	0.741	0.690	0.666	0.599	0.515	0.468	0.431	0.376	0.400	0.429	0.515	0.985	2.417	3.746	3.538	2.056	1.704	2.708	3.810	5.702	10.79	31.96	79.77	120.9	116.3	26.36	6.472	0.551	0.338	0.263	0.343	0.169
285.0	251.3	282.7	229.6	134.7	74.54	68.45	161.0	607.0	624.7	333.8	759.6	3516	9999.9	9365	716.8	22.34	12.97	8.114	5.631	4.604	3.260	2.671	2.498	2.248	1.738	1.609	1.352	1.200	0.905	1.051	0.942	0.790	0.884	0.975	0.803	0.870	0.686	0.664	0.641	0.526	0.596	0.662	0.569	0.580	0.692	0.945	0.905	0.941	0.869	0.709	0.608	0.648	0.443	0.475	0.421	0.377	0.587	0.987	2.042	3.989	4.327	2.796	1.721	1.626	2.253	3.231	8.126	20.17	46.70	103.4	139.1	35.42	19.73	2.593	0.483	0.415	0.236
290.0	359.5	428.8	345.7	204.6	118.0	91.57	122.2	312.1	731.2	757.5	559.1	1114	3797	9999.9	9999.9	2536	47.10	12.52	8.026	6.386	4.183	3.301	3.053	2.667	1.913	1.808	1.540	1.474	1.203	1.228	0.981	1.040	0.984	1.066	1.102	0.978	0.903	0.852	0.805	0.620	0.642	0.617	0.725	0.741	0.911	1.165	1.178	1.304	1.234	1.088	0.834	0.829	0.624	0.522	0.585	0.572	0.588	0.783	1.114	1.848	2.988	3.926	4.379	3.515	2.586	2.288	3.437	6.074	11.92	26.28	49.80	67.63	101.0	81.77	67.15	13.60	3.037
295.0	449.6	549.7	455.8	276.5	163.4	124.0	149.4	243.2	453.9	991.8	1070	770.2	1233	2599	9498	9999.9	758.5	51.90	11.50	9.153	5.744	4.176	3.708	3.074	2.333	1.948	1.793	1.626	1.338	1.395	1.137	1.161	1.113	1.102	1.166	1.131	1.137	0.968	0.849	0.686	0.893	0.755	0.853	0.862	1.194	1.317	1.425	1.635	1.439	1.241	1.003	1.062	0.717	0.703	0.692	0.747	0.672	0.922	1.155	1.500	1.784	2.216	3.486	5.479	6.444	4.489	3.148	3.448	4.571	7.770	12.66	16.41	25.07	40.36	101.1	148.5	36.49
300.0	449.6	599.0	510.1	322.1	189.7	151.2	176.0	254.4	408.5	761.1	1409	1011	745.5	823.9	2650	9999.9	9999.9	618.6	29.31	11.84	7.716	5.502	4.488	3.543	2.697	2.261	2.090	1.751	1.594	1.522	1.502	1.057	1.196	1.370	1.287	1.157	1.088	0.956	0.971	0.581	0.799	0.924	0.827	0.940	1.235	1.437	1.633	1.780	1.582	1.316	1.181	1.116	0.956	0.818	0.749	0.811	0.918	0.992	1.088	1.338	1.836	1.888	2.480	3.641	5.837	6.999	6.158	4.021	3.530	4.091	4.582	5.066	6.531	9.969	28.15	75.36	126.1
305.0	478.1	606.3	524.7	337.6	209.2	179.2	205.8	290.6	425.6	651.1	1187	1458	784.5	470.9	727.9	3336	9999.9	9999.9	435.9	20.31	10.65	7.018	5.402	4.210	3.132	2.960	2.659	2.027	2.049	1.741	1.350	1.272	1.323	1.519	1.404	1.342	1.092	1.116	1.031	0.746	0.927	0.936	0.805	0.822	1.280	1.342	1.707	1.930	1.666	1.559	1.207	1.250	1.112	0.935	0.924	0.781	1.090	1.268	1.267	1.534	1.785	2.101	2.314	3.149	4.307	5.354	7.067	7.008	4.997	3.565	3.097	2.643	2.587	3.053	7.052	18.07	41.39
310.0	466.0	598.1	549.7	364.4	246.0	213.6	245.8	323.3	451.5	637.2	920.4	1306	1201	562.2	361.8	887.1	3776	9999.9	9999.9	1904	36.07	11.82	7.654	5.281	3.894	3.596	3.011	2.500	1.972	1.893	1.670	1.457	1.463	1.466	1.411	1.342	1.249	1.096	1.006	0.863	0.908	0.828	0.889	0.938	1.272	1.369	1.737	1.882	1.760	1.577	1.282	1.316	1.133	1.164	1.137	1.073	1.243	1.420	1.413	1.691	1.824	2.220	2.523	3.150	3.627	3.972	5.015	6.050	6.265	6.162	4.413	2.785	2.050	1.908	2.478	4.998	10.23
315.0	507.2	651.3	639.0	515.1	423.9	405.3	389.0	402.0	540.2	712.9	942.6	1120	1297	1159	650.4	653.3	1279	2739	9405	9999.9	2572	41.51	12.78	7.259	5.486	4.295	3.374	2.952	2.700	2.118	2.008	1.734	1.709	1.393	1.591	1.217	1.204	1.248	1.136	0.900	0.930	0.867	1.126	1.144	1.287	1.587	1.971	2.182	2.121	1.802	1.622	2.130	1.826	1.952	2.080	2.004	1.939	1.854	1.965	1.971	2.338	2.687	2.911	3.450	3.866	4.291	4.567	4.790	5.086	5.769	6.799	6.559	4.563	3.562	3.296	3.720	5.188
320.0	620.7	870.0	953.2	815.7	689.5	736.9	616.9	566.5	706.3	918.4	1145	1328	1429	1685	1132	980.1	1026	1269	3142	9999.9	9999.9	454.3	25.88	10.81	6.777	5.248	4.285	3.301	2.998	2.488	2.043	1.803	1.620	1.425	1.479	1.307	1.611	1.412	1.220	1.073	1.090	1.083	1.220	1.351	1.666	2.023	2.272	2.905	2.969	2.610	2.621	2.967	3.103	3.462	3.583	3.287	3.121	2.808	2.448	2.667	3.064	3.583	3.767	4.157	4.570	5.349	5.444	5.859	6.217	6.538	7.345	8.294	8.824	7.683	6.461	6.358	6.893
325.0	755.5	1145	1268	1102	1032	997.5	808.2	704.1	854.3	1076	1342	1549	1645	1827	1974	1643	1511	1351	1511	3984	9999.9	9999.9	340.2	16.16	9.203	6.332	4.962	4.153	3.038	2.783	2.606	1.944	1.867	1.717	1.604	1.376	1.684	1.479	1.250	1.337	1.361	1.350	1.385	1.481	1.956	2.590	2.878	3.894	4.214	3.574	3.583	3.924	4.239	4.544	4.263	4.290	4.236	3.780	3.134	3.317	3.578	4.275	4.795	4.920	5.476	5.951	6.419	6.729	7.058	7.453	8.049	8.503	9.896	11.38	10.41	9.479	9.060
330.0	840.6	1303	1518	1352	1272	1189	932.1	787.9	937.8	1179	1440	1668	1801	1932	2132	2207	1964	1575	1298	1621	3774	9999.9	9999.9	1511	25.66	9.660	6.545	5.286	4.082	3.428	2.872	2.248	2.030	1.902	1.708	1.597	1.664	1.482	1.448	1.450	1.358	1.424	1.549	1.595	2.126	2.590	3.196	4.201	4.751	4.375	4.300	5.015	5.210	5.384	5.410	4.804	4.959	4.089	3.552	3.914	4.023	4.511	5.160	5.537	6.041	6.433	7.148	7.069	7.849	8.085	8.726	9.167	10.08	11.51	12.16	12.63	12.24
335.0	959.6	1456	1752	1640	1613	1469	1126	915.3	1061	1321	1619	1857	2080	2253	2409	2548	2663	2046	1508	1278	1238	2501	9359	9999.9	439.0	28.48	9.294	7.075	4.771	3.721	3.243	2.695	2.326	1.915	1.932	1.753	1.713	1.655	1.515	1.553	1.707	1.580	1.660	1.808	2.470	2.857	3.267	4.607	5.209	5.410	5.178	5.969	6.571	6.526	6.484	6.036	6.095	4.743	4.217	4.424	4.639	5.160	5.883	6.293	6.447	7.176	7.838	8.393	8.945	9.319	9.894	10.93	11.99	12.81	12.86	14.00	15.27
340.0	1002	1558	1889	1767	1729	1585	1223	964.3	1116	1378	1675	1941	2168	2386	2555	2608	2794	2372	1644	1255	701.8	671.7	2646	9999.9	9999.9	384.7	17.39	8.852	6.529	4.828	3.794	3.148	2.520	2.031	1.982	1.929	1.761	1.774	1.587	1.434	1.611	1.615	1.716	1.947	2.288	3.105	3.529	4.766	5.494	5.589	5.525	6.848	6.977	7.155	6.808	6.313	6.473	5.069	4.681	4.558	4.818	5.284	6.038	6.512	6.962	7.469	8.151	8.741	9.259	9.759	10.53	11.38	12.50	13.44	13.81	14.48	15.02
345.0	939.3	1503	1821	1769	1702	1561	1205	949.0	1091	1314	1596	1846	2066	2305	2443	2481	2563	2362	1713	1203	565.3	268.4	650.8	3411	9999.9	9749	55.32	12.03	8.125	5.727	4.429	3.464	2.744	2.068	1.998	1.896	1.847	1.763	1.425	1.705	1.671	1.689	1.784	1.894	2.112	2.989	3.607	4.706	5.469	5.396	5.426	7.002	6.641	7.154	6.740	6.614	6.174	5.332	4.403	4.297	4.801	5.342	5.547	6.201	6.693	6.897	7.986	8.538	8.997	9.511	10.02	11.20	11.83	12.51	13.14	13.66	14.09
350.0	864.0	1320	1657	1667	1643	1507	1170	918.2	1036	1224	1470	1691	1905	2120	2268	2302	2315	2058	1707	1231	527.6	189.8	212.6	815.9	3376	9999.9	7936	1351	22.18	7.884	5.523	3.786	3.144	2.562	2.197	1.905	1.829	1.780	1.709	1.593	1.533	1.597	1.477	1.824	2.173	2.796	3.236	4.337	5.006	4.911	5.141	6.333	6.615	6.586	6.560	6.066	6.005	5.086	4.253	4.314	4.594	5.143	5.282	5.931	6.275	6.450	6.889	7.604	8.249	8.912	9.368	10.27	10.82	12.09	12.76	12.84	13.40
355.0	764.7	1188	1515	1585	1597	1448	1135	899.8	1001	1157	1361	1552	1746	1954	2094	2150	2130	1829	1494	1281	593.1	190.2	132.2	243.4	797.6	2419	7291	9999.9	411.1	23.53	7.679	5.325	3.660	2.905	2.576	2.194	1.820	1.760	1.584	1.666	1.551	1.453	1.544	1.624	2.101	2.524	2.743	3.919	4.678	4.706	4.931	6.048	6.328	6.524	6.589	6.012	5.682	5.023	4.395	4.268	4.275	4.820	5.104	5.771	5.634	6.286	6.370	6.749	7.571	8.243	8.491	9.084	10.12	10.80	11.56	12.23	12.09
360.0	673.3	1084	1354	1444	1481	1385	1095	874.4	962.7	1104	1249	1420	1600	1776	1904	1942	1933	1657	1315	1141	676.9	231.9	128.7	127.3	231.0	582.0	2059	9999.9	9999.9	359.3	14.51	7.041	4.849	3.513	2.761	2.203	1.892	1.758	1.752	1.721	1.572	1.504	1.679	1.460	1.862	2.303	2.677	3.582	4.102	4.209	4.570	5.464	5.868	6.078	6.158	5.811	5.132	4.578	4.123	4.283	4.438	4.400	4.872	5.553	5.311	6.003	5.981	6.222	6.869	7.291	8.210	8.618	9.422	10.31	10.55	10.87	11.34
365.0	632.4	966.2	1205	1313	1385	1295	1048	853.3	913.6	1030	1165	1302	1435	1589	1707	1734	1723	1479	1165	953.2	654.2	332.8	152.6	114.4	118.9	179.3	501.4	3242	9999.9	8326	50.98	10.16	6.367	4.281	3.232	2.557	1.857	2.045	1.798	1.630	1.552	1.529	1.721	1.459	1.833	2.132	2.347	3.194	3.771	3.666	4.055	4.990	5.562	5.707	5.560	4.955	5.117	4.334	4.000	3.759	4.233	4.247	4.802	4.936	4.936	5.328	5.553	6.189	6.153	6.486	7.270	7.700	8.135	8.977	9.481	9.898	10.08
370.0	556.3	863.9	1080	1187	1258	1197	972.2	821.7	855.0	956.7	1057	1155	1265	1386	1466	1494	1480	1284	1023	818.2	518.5	381.7	264.0	150.1	116.0	110.2	168.1	772.8	3250	9210	7239	1207	20.22	6.873	4.504	3.272	2.406	2.153	1.753	1.676	1.504	1.427	1.569	1.551	1.722	2.020	2.120	2.849	3.134	3.352	3.706	4.487	4.986	5.339	5.079	4.842	4.883	4.301	3.758	3.729	3.921	4.028	4.250	4.535	4.498	4.860	4.863	5.048	5.541	5.903	6.213	6.711	7.072	7.811	8.070	8.282	8.651
375.0	488.9	758.5	969.3	1101	1152	1132	929.3	787.6	807.5	882.8	973.3	1056	1164	1231	1269	1280	1275	1112	895.7	725.8	450.5	317.0	353.5	264.1	154.8	127.4	133.3	255.6	784.0	2262	6749	9999.9	359.5	23.63	6.324	3.987	2.959	2.399	1.847	1.937	1.644	1.316	1.523	1.476	1.630	1.819	2.046	2.730	2.760	3.151	3.249	4.209	4.704	5.064	4.693	4.387	4.316	3.922	3.552	3.607	3.926	3.898	3.906	4.157	4.250	4.631	4.966	4.691	4.880	5.298	5.995	5.844	6.157	7.008	7.096	7.206	7.910
380.0	459.6	688.7	885.8	1031	1088	1066	883.9	763.9	774.8	847.3	922.3	981.2	1094	1113	1125	1119	1122	985.1	807.1	665.4	429.4	294.7	316.3	360.8	221.3	156.6	155.7	167.5	256.1	581.6	1972	8840	8554	309.6	12.10	5.105	3.962	2.932	2.246	1.924	1.578	1.346	1.383	1.481	1.517	1.880	2.045	2.380	2.736	2.876	3.047	4.168	4.599	4.431	4.382	4.276	3.995	3.832	3.421	3.537	3.569	3.877	3.890	4.091	4.169	4.569	4.458	4.200	4.596	4.870	5.468	5.180	5.615	6.051	6.162	6.231	6.435
385.0	398.1	630.2	818.7	965.9	1026	1005	830.8	737.5	742.0	803.2	869.1	916.2	1023	1008	997.8	992.2	986.9	876.0	726.4	611.9	416.0	296.3	286.6	350.2	313.4	193.3	178.8	168.9	153.7	216.5	550.6	2829	9588	6669	42.42	7.830	4.838	3.569	2.772	2.050	1.750	1.461	1.488	1.490	1.543	1.654	1.927	2.127	2.529	2.708	2.865	3.826	4.077	4.216	4.253	4.198	3.977	3.760	3.472	3.243	3.414	3.409	3.586	3.658	3.821	4.247	4.278	3.904	4.593	4.858	5.010	4.748	5.045	5.253	5.433	5.702	5.773
390.0	385.0	558.3	758.7	849.1	927.3	896.4	772.9	696.5	694.3	736.2	783.8	810.9	895.8	873.9	855.8	847.4	842.1	758.5	642.2	553.6	393.4	299.4	274.5	286.2	320.7	274.2	201.0	166.2	130.0	132.2	214.0	716.9	2879	6870	5395	985.8	16.12	4.861	3.289	2.535	1.875	1.542	1.525	1.498	1.509	1.616	1.862	2.064	2.455	2.622	2.661	3.407	3.768	3.899	4.036	3.766	3.914	3.430	3.170	3.058	3.174	3.236	3.173	3.463	3.467	3.742	3.667	3.588	3.736	4.176	4.465	4.332	4.327	4.606	4.835	4.838	4.888
395.0	363.0	506.6	677.8	781.5	838.3	833.1	734.8	657.9	661.2	682.2	719.5	732.0	796.4	769.5	740.7	728.1	726.2	655.6	566.8	496.2	379.5	302.9	279.8	268.0	264.9	300.8	276.0	188.7	135.8	122.1	144.0	241.8	682.2	1653	4724	7740	302.7	17.17	4.538	3.359	2.381	1.926	1.716	1.652	1.608	1.624	1.678	2.219	2.496	2.315	2.528	3.222	3.411	3.749	3.899	3.272	3.523	3.383	3.212	2.967	3.115	2.972	2.900	3.065	3.303	3.112	3.453	3.069	3.404	3.686	3.944	3.683	3.740	3.962	4.049	4.298	4.400
400.0	340.6	484.4	633.5	731.1	783.3	793.5	692.4	635.4	635.0	646.5	684.5	693.8	743.2	705.7	666.6	653.3	646.1	598.4	521.8	465.4	367.3	308.4	285.6	274.7	254.0	272.4	319.0	239.0	152.8	133.8	143.9	148.4	197.9	394.2	1308	6200	6524	267.2	9.514	4.244	2.910	2.291	1.795	1.738	1.694	1.641	1.641	2.056	2.162	2.175	2.460	3.052	3.178	3.477	3.588	3.242	3.232	3.286	2.922	2.794	2.969	2.985	3.006	3.033	2.991	3.002	2.941	3.126	3.137	3.236	3.803	3.493	3.514	3.590	3.723	3.943	4.095
405.0	327.6	468.7	617.6	702.4	750.1	746.1	663.8	614.9	607.8	622.2	644.6	650.7	690.2	655.3	611.3	592.6	586.5	541.4	482.6	436.2	358.4	306.1	287.3	275.2	255.7	249.0	297.3	296.6	182.4	147.1	150.7	134.9	96.59	116.0	312.3	1862	6804	5180	38.31	5.853	3.432	2.619	2.051	1.773	1.677	1.457	1.488	2.000	2.044	2.097	2.298	2.855	3.110	3.382	3.185	3.100	3.020	3.172	2.933	2.910	2.999	2.825	2.747	3.089	2.970	3.133	2.798	2.814	2.928	3.127	3.492	3.120	3.060	3.248	3.459	3.351	3.528
410.0	303.8	440.8	557.6	637.7	684.4	678.0	619.2	583.4	584.7	591.6	599.7	590.5	616.7	585.0	543.8	527.2	514.4	482.2	436.6	398.9	339.9	297.6	284.2	269.8	253.2	237.2	246.5	274.8	235.6	165.0	143.8	121.6	74.64	59.31	91.52	433.5	1975	4967	4149	910.6	14.21	3.425	2.526	2.031	1.678	1.702	1.625	1.854	2.083	2.021	2.218	2.781	2.920	2.944	2.973	3.088	2.859	2.816	2.761	2.827	2.591	2.803	2.693	2.694	2.922	2.859	2.679	2.529	2.744	2.906	3.099	2.977	2.937	2.965	3.064	2.926	3.139
415.0	282.2	423.9	497.7	574.7	625.6	617.9	593.3	555.7	554.3	549.7	549.8	536.4	543.6	524.8	486.6	466.4	455.0	427.8	393.8	368.6	320.1	286.7	275.4	260.9	245.6	231.4	219.6	222.4	233.3	211.9	148.4	113.7	71.54	50.86	47.00	115.3	454.5	1177	3214	5498	280.2	15.98	3.517	2.235	2.213	1.898	1.625	1.791	1.998	1.880	2.003	2.619	2.690	2.614	2.647	2.731	2.707	2.668	2.753	2.644	2.534	2.486	2.648	2.604	2.577	2.547	2.472	2.436	2.570	2.612	2.686	2.605	2.500	2.659	2.526	2.574	2.716
