Sample:	'1
File name:	G2025070714上河西村 5倍.FD3
Run date:	'11:22:24, 07/08/2025
Operator:	Administrator
Comment:	'

Instrument
Model:	F-2700 FL Spectrophotometer
Serial number:	23B8-004
ROM Version:	4J14000 07

Instrument parameters
Measurement type:	3-D scan
Data mode:	Fluorescence
EX  Start WL:	220.0 nm
EX  End WL:	600.0 nm
EX Sampling interval:	5.0 nm
EM  Start WL:	230.0 nm
EM  End WL:	650.0 nm
EM Sampling interval:	5.0 nm
Scan speed:	12000 nm/min
EX Slit:	5.0 nm
EM Slit:	5.0 nm
PMT Voltage:	700 V
Response:	Auto 
Corrected spectra:	Off
Contour interval:	50.000

Peak integration
Integration method:	Rectangular
Sensitivity:	1
Threshold:	1.000

Peaks
No.	ApexEX/EM(nm)	Height(Data)
1	225.0/560.0	60.71
2	230.0/345.0	6238
3	230.0/500.0	271.5
4	230.0/550.0	55.63
5	235.0/515.0	215.2
6	240.0/265.0	448.8
7	240.0/525.0	183.1
8	245.0/270.0	466.9
9	245.0/540.0	160.4
10	250.0/275.0	598.4
11	250.0/550.0	133.6
12	255.0/285.0	642.7
13	255.0/565.0	118.8
14	260.0/290.0	575.9
15	260.0/575.0	101.6
16	265.0/295.0	715.8
17	265.0/585.0	88.92
18	270.0/300.0	941.4
19	270.0/600.0	87.95
20	275.0/305.0	930.4
21	275.0/610.0	71.53
22	280.0/345.0	1669
23	280.0/625.0	62.29
24	285.0/640.0	46.71
25	330.0/375.0	284.7
26	335.0/380.0	259.7
27	345.0/395.0	193.4
28	350.0/400.0	201.4
29	355.0/405.0	182.2
30	365.0/420.0	150.3
31	370.0/425.0	134.6
32	380.0/440.0	100.0
33	385.0/445.0	85.73
34	395.0/460.0	61.77
35	400.0/465.0	51.91
36	410.0/480.0	35.72
37	415.0/485.0	30.71
38	425.0/500.0	22.12
39	430.0/505.0	18.82
40	440.0/520.0	13.50
41	455.0/540.0	7.798
42	460.0/345.0	18.13
43	470.0/560.0	3.934
44	485.0/265.0	2.563
45	495.0/270.0	2.648
46	505.0/275.0	3.794
47	510.0/280.0	4.094
48	515.0/285.0	4.200
49	530.0/290.0	3.873
50	540.0/295.0	4.781
51	545.0/300.0	5.616
52	550.0/305.0	5.810
53	560.0/310.0	5.205
54	570.0/315.0	5.099
55	570.0/345.0	8.592

Data points
	220.0	225.0	230.0	235.0	240.0	245.0	250.0	255.0	260.0	265.0	270.0	275.0	280.0	285.0	290.0	295.0	300.0	305.0	310.0	315.0	320.0	325.0	330.0	335.0	340.0	345.0	350.0	355.0	360.0	365.0	370.0	375.0	380.0	385.0	390.0	395.0	400.0	405.0	410.0	415.0	420.0	425.0	430.0	435.0	440.0	445.0	450.0	455.0	460.0	465.0	470.0	475.0	480.0	485.0	490.0	495.0	500.0	505.0	510.0	515.0	520.0	525.0	530.0	535.0	540.0	545.0	550.0	555.0	560.0	565.0	570.0	575.0	580.0	585.0	590.0	595.0	600.0
230.0	97.26	1479	2832	640.0	29.20	7.692	5.675	4.911	3.797	3.658	3.652	3.357	2.893	2.386	2.202	1.787	1.578	1.355	1.169	1.123	0.964	0.972	0.829	0.795	0.697	0.726	0.680	0.673	0.657	0.686	0.610	0.566	0.524	0.495	0.502	0.549	0.439	0.411	0.457	0.491	0.556	0.690	0.725	0.532	0.393	0.407	2.047	7.185	10.97	7.163	2.456	0.558	0.337	0.309	0.310	0.290	0.359	0.299	0.299	0.311	0.302	0.317	0.302	0.294	0.306	0.314	0.285	0.286	0.308	0.282	0.298	0.317	0.326	0.288	0.266	0.313	0.339
235.0	174.5	425.5	1995	2729	493.3	32.30	7.969	5.190	4.815	4.224	4.090	3.291	3.040	2.369	2.323	1.699	1.503	1.461	1.051	1.202	1.056	0.920	0.880	0.686	0.790	0.700	0.646	0.774	0.639	0.545	0.620	0.560	0.561	0.465	0.503	0.488	0.482	0.461	0.419	0.437	0.454	0.518	0.721	0.707	0.732	0.486	0.739	1.984	4.712	7.822	10.93	10.15	4.012	0.985	0.334	0.270	0.364	0.351	0.267	0.320	0.339	0.317	0.324	0.377	0.314	0.364	0.310	0.268	0.264	0.345	0.275	0.256	0.306	0.266	0.275	0.367	0.316
240.0	240.5	205.2	639.1	2712	2723	359.4	16.72	6.312	5.296	4.841	4.493	3.707	3.245	2.579	2.220	1.632	1.559	1.365	1.169	1.222	1.250	1.172	0.856	0.790	0.774	0.728	0.724	0.934	0.651	0.560	0.590	0.561	0.629	0.454	0.520	0.433	0.479	0.474	0.416	0.476	0.446	0.404	0.494	0.620	0.901	0.850	0.714	0.743	1.328	2.557	6.484	14.29	16.17	10.30	3.326	0.669	0.362	0.409	0.334	0.304	0.301	0.336	0.357	0.294	0.318	0.342	0.345	0.302	0.333	0.302	0.304	0.256	0.305	0.247	0.265	0.306	0.299
245.0	191.6	272.7	216.4	1036	3576	2605	248.8	10.47	5.746	5.783	4.217	3.939	3.380	2.826	2.298	2.213	1.684	1.506	1.152	1.284	1.089	1.085	0.978	0.901	0.914	0.839	0.659	0.777	0.682	0.546	0.753	0.507	0.518	0.523	0.612	0.453	0.509	0.416	0.454	0.429	0.436	0.414	0.392	0.465	0.622	1.032	1.110	0.954	0.743	0.837	1.777	5.204	12.63	20.43	17.76	8.543	1.981	0.408	0.334	0.338	0.323	0.385	0.382	0.334	0.326	0.354	0.338	0.316	0.324	0.303	0.326	0.312	0.390	0.277	0.362	0.271	0.321
250.0	76.89	214.4	289.5	326.1	1277	3371	3419	880.2	40.28	7.275	5.177	4.769	3.732	3.055	2.703	2.232	1.859	1.626	1.327	1.278	1.184	1.012	0.936	0.899	0.892	0.845	0.796	0.771	0.714	0.710	0.714	0.541	0.635	0.557	0.516	0.456	0.513	0.474	0.462	0.474	0.482	0.414	0.405	0.484	0.464	0.569	0.754	1.034	1.257	1.002	0.902	1.536	3.311	7.070	12.50	17.90	21.73	16.98	9.092	2.265	0.456	0.372	0.349	0.355	0.327	0.336	0.356	0.345	0.339	0.332	0.316	0.349	0.382	0.300	0.371	0.277	0.351
255.0	38.20	77.30	247.7	371.8	366.8	943.0	3701	5283	278.7	38.00	7.841	6.355	5.076	3.808	2.763	2.529	1.903	2.011	1.392	1.531	1.293	1.133	0.990	0.847	0.898	0.848	0.825	0.765	0.673	0.650	0.742	0.673	0.570	0.552	0.533	0.465	0.435	0.498	0.510	0.508	0.522	0.434	0.413	0.467	0.469	0.460	0.459	0.623	0.781	1.296	1.604	1.629	1.342	1.925	3.150	4.697	9.484	21.97	35.84	27.03	13.52	2.437	0.387	0.337	0.319	0.395	0.403	0.322	0.361	0.373	0.323	0.317	0.345	0.277	0.384	0.334	0.330
260.0	38.05	36.84	107.1	359.5	336.5	274.8	1301	5509	5194	236.5	18.02	8.009	6.160	4.676	3.292	2.780	1.935	1.988	1.621	1.374	1.231	1.072	0.987	1.024	0.878	0.855	0.872	0.951	0.751	0.654	0.699	0.713	0.600	0.545	0.525	0.514	0.418	0.489	0.461	0.509	0.424	0.508	0.409	0.462	0.478	0.429	0.373	0.430	0.489	0.644	1.164	2.163	1.919	1.443	1.202	1.465	2.548	6.516	17.65	33.96	43.83	24.57	9.401	1.162	0.448	0.561	0.362	0.294	0.372	0.334	0.329	0.440	0.340	0.341	0.364	0.324	0.371
265.0	43.66	29.61	45.81	196.3	448.8	256.6	349.3	2195	7212	4851	173.0	12.39	7.617	4.897	3.625	2.991	2.494	1.795	1.773	1.597	1.309	1.250	1.092	1.115	0.983	0.989	0.775	0.973	0.839	0.673	0.764	0.789	0.589	0.614	0.584	0.687	0.399	0.483	0.546	0.497	0.537	0.436	0.427	0.464	0.452	0.436	0.440	0.416	0.440	0.458	0.541	1.291	2.320	2.563	1.619	0.980	1.121	1.947	4.526	11.12	27.26	45.42	32.88	20.61	5.011	0.802	0.373	0.411	0.389	0.319	0.393	0.428	0.398	0.452	0.380	0.337	0.406
270.0	53.69	43.02	41.53	85.49	269.5	466.9	307.9	570.2	2633	6551	5192	719.7	34.83	7.424	4.898	3.630	2.989	2.179	2.084	1.877	1.565	1.376	1.224	1.045	1.021	1.014	0.924	0.982	0.864	0.774	0.708	0.708	0.655	0.688	0.608	0.616	0.518	0.609	0.579	0.559	0.578	0.555	0.488	0.434	0.495	0.449	0.458	0.421	0.458	0.399	0.446	0.664	1.087	1.802	2.462	2.648	2.218	1.356	1.655	2.959	6.815	13.98	23.17	37.44	37.63	36.85	14.30	4.524	0.710	0.419	0.356	0.381	0.410	0.399	0.393	0.373	0.385
275.0	89.31	96.32	82.17	75.05	132.4	306.0	598.4	357.0	642.1	1772	5734	9062	952.7	27.11	7.107	4.745	3.312	2.827	2.507	2.063	1.487	1.411	1.332	1.076	1.092	1.028	1.101	1.124	0.837	0.893	0.751	0.752	0.829	0.767	0.815	0.826	0.642	0.846	0.596	0.602	0.609	0.514	0.496	0.534	0.506	0.525	0.525	0.637	0.637	0.465	0.462	0.542	0.728	0.935	1.123	1.757	3.178	3.794	2.609	1.482	1.986	3.650	5.641	9.028	13.30	31.66	57.64	59.11	21.97	4.547	0.529	0.444	0.417	0.343	0.410	0.313	0.367
280.0	180.5	177.6	149.8	110.2	109.2	176.1	469.5	610.7	276.4	462.0	1845	8655	7887	139.3	13.86	6.481	4.733	3.407	2.513	2.306	1.658	1.707	1.360	1.275	1.209	1.013	1.119	1.266	0.800	0.834	0.884	0.804	0.841	0.889	0.883	0.876	1.054	0.737	0.733	0.609	0.688	0.670	0.745	0.689	0.734	0.730	0.805	0.885	0.710	0.696	0.667	0.689	0.660	0.794	0.905	1.045	1.716	3.164	4.094	3.426	1.799	1.443	1.747	2.653	3.605	8.440	21.69	48.99	67.64	32.23	15.67	1.847	0.540	0.446	0.406	0.377	0.413
285.0	253.0	265.3	224.6	157.5	116.5	130.9	242.7	642.7	331.1	206.8	506.6	3016	9836	5603	101.4	9.405	6.031	3.911	3.103	2.611	2.113	1.885	1.557	1.384	1.254	1.106	1.173	1.358	0.843	0.787	0.897	0.745	0.979	0.999	1.125	0.934	0.918	0.845	0.834	0.647	0.722	0.673	0.806	0.823	0.916	1.002	0.889	0.996	0.999	0.769	0.799	0.782	0.706	0.710	0.784	0.906	1.101	1.503	2.404	4.200	4.156	2.190	1.176	1.245	1.374	2.528	5.553	13.67	31.22	55.06	65.94	27.30	8.871	0.722	0.507	0.494	0.484
290.0	323.8	351.2	312.2	210.9	148.8	129.5	150.5	308.1	575.9	475.1	267.0	805.1	3178	6862	6032	415.7	21.55	5.650	3.987	2.969	2.328	2.184	1.716	1.425	1.340	1.304	1.151	1.226	0.998	0.905	0.903	0.909	1.068	1.027	1.190	1.148	1.223	1.124	0.865	0.850	0.797	0.801	0.879	0.962	0.996	1.112	1.198	1.250	1.168	1.079	0.975	1.005	0.851	0.815	0.778	0.867	0.952	0.990	1.252	1.810	3.028	3.683	3.873	2.659	1.615	1.399	2.015	3.864	7.911	15.29	28.70	40.78	50.67	43.17	17.94	7.541	1.028
295.0	391.6	443.4	405.5	282.2	195.1	153.0	153.1	186.2	307.9	715.8	599.8	358.8	853.4	1776	5129	6363	579.6	16.14	5.817	4.390	2.855	2.382	1.964	1.623	1.319	1.303	1.104	1.426	1.190	0.875	1.091	1.042	0.867	1.282	1.416	1.218	1.362	1.263	0.995	0.924	1.017	1.022	0.961	0.984	1.191	1.316	1.387	1.488	1.524	1.256	1.154	1.188	1.100	0.991	0.903	0.933	1.056	0.968	1.093	1.297	1.549	1.806	2.698	4.557	4.781	3.294	1.871	2.107	2.884	4.406	7.220	9.871	14.28	26.73	53.84	65.71	27.95
300.0	447.5	484.4	451.9	339.6	240.7	193.3	183.2	192.7	251.6	502.1	941.4	505.1	390.4	526.5	1529	6507	5456	83.39	9.744	5.372	3.618	2.889	2.347	1.719	1.333	1.286	1.138	1.364	1.072	0.991	1.013	0.961	0.914	1.301	1.307	1.392	1.578	1.287	1.146	1.194	1.143	1.218	1.058	1.154	1.145	1.496	1.501	1.795	1.559	1.435	1.363	1.305	1.241	1.216	1.059	1.041	1.174	1.114	1.217	1.337	1.407	1.500	1.965	2.832	4.614	5.616	4.132	2.549	2.084	2.288	2.757	3.221	4.134	7.100	17.52	41.97	65.60
305.0	461.5	508.0	475.4	378.8	278.1	237.8	228.6	240.1	286.6	403.8	785.8	930.4	415.3	301.7	465.5	2170	8152	4125	63.14	7.150	4.651	3.345	2.650	2.222	1.741	1.773	1.338	1.707	1.155	1.022	1.023	0.981	1.005	1.229	1.359	1.588	1.529	1.386	1.276	1.216	1.223	1.175	1.165	1.250	1.393	1.495	1.454	1.727	1.516	1.457	1.384	1.614	1.343	1.393	1.303	1.269	1.322	1.401	1.478	1.581	1.659	1.870	1.852	2.138	2.934	4.276	5.810	4.948	3.348	2.103	1.971	1.822	1.939	2.582	4.887	10.93	25.22
310.0	471.2	534.6	495.9	396.6	312.4	276.4	266.2	279.9	329.1	406.2	552.5	855.1	818.2	403.2	282.6	596.7	2574	5273	4853	294.1	16.25	4.791	3.507	2.579	2.078	1.829	1.420	1.740	1.350	1.147	1.040	1.040	1.153	1.342	1.484	1.561	1.471	1.489	1.327	1.274	1.265	1.088	1.183	1.153	1.441	1.512	1.704	1.867	1.676	1.497	1.489	1.649	1.537	1.504	1.429	1.440	1.433	1.481	1.695	1.715	1.866	2.025	2.109	2.358	2.581	2.967	3.640	4.600	5.205	4.661	3.118	2.307	1.759	1.797	2.239	3.375	6.574
315.0	504.4	547.2	528.3	418.2	341.0	304.7	294.1	315.2	350.8	419.9	494.2	613.1	804.5	786.7	348.1	278.6	667.3	1318	3989	6141	432.2	14.27	4.819	3.032	2.592	2.116	1.714	1.732	1.478	1.261	1.130	1.203	1.131	1.222	1.412	1.691	1.517	1.495	1.412	1.217	1.175	1.113	1.160	1.290	1.520	1.660	1.776	1.939	1.948	1.672	1.610	1.834	1.599	1.644	1.444	1.476	1.824	1.597	1.716	1.693	1.855	2.000	2.440	2.350	2.710	2.947	2.986	3.316	3.336	4.017	5.099	4.803	3.129	2.035	1.811	1.829	2.550
320.0	673.0	769.7	706.1	568.1	407.3	340.7	329.9	335.5	378.6	453.4	537.6	612.3	671.7	894.0	604.5	269.4	277.8	370.8	1129	5214	4059	64.67	9.111	4.420	3.084	2.459	2.176	2.074	1.566	1.195	1.101	1.234	1.151	1.168	1.377	1.615	1.505	1.519	1.383	1.250	1.346	1.224	1.300	1.641	1.803	2.116	2.111	2.561	2.490	2.101	2.037	2.076	1.897	1.834	1.606	1.642	1.700	1.712	1.781	1.825	2.044	2.016	2.316	2.437	2.602	3.019	2.796	2.972	2.932	3.267	3.928	4.870	5.418	3.782	2.176	1.941	1.732
325.0	1182	1470	1167	1271	627.6	477.7	419.6	388.3	494.4	592.7	704.3	782.1	807.5	878.8	940.6	488.5	277.0	218.0	343.6	1655	5569	3359	54.31	6.908	4.119	3.025	2.272	2.567	1.804	1.512	1.278	1.409	1.205	1.624	1.684	1.398	1.673	1.696	1.483	1.420	1.522	1.662	1.834	2.299	2.973	3.443	4.000	4.976	5.316	4.469	4.291	4.041	3.304	2.612	2.301	2.201	2.153	2.010	2.319	2.328	2.587	2.695	2.959	2.920	3.316	3.706	3.551	3.760	3.894	3.895	4.125	4.588	5.402	5.701	4.248	3.219	2.338
330.0	2342	3432	3690	3007	1681	939.9	672.6	643.3	744.0	886.5	1056	1186	1237	1176	1143	972.3	585.1	346.0	284.7	521.6	1780	4146	4122	244.5	16.41	4.364	3.127	3.054	2.043	1.820	1.603	1.475	1.443	1.684	1.772	1.588	1.725	1.790	1.821	1.885	2.062	2.547	3.146	3.832	5.184	6.610	8.365	10.62	11.18	10.34	9.663	9.303	7.082	5.403	4.128	3.442	3.305	3.082	3.074	3.458	3.502	3.734	4.171	4.674	5.001	5.180	5.563	5.744	5.890	6.144	6.036	6.003	6.165	6.421	6.446	6.531	5.506
335.0	3085	4594	5260	4354	2527	1357	892.7	809.9	915.8	1081	1294	1451	1523	1443	1294	1120	966.4	568.5	363.1	331.7	563.2	1115	3253	5302	395.8	15.62	4.365	4.196	2.309	1.978	1.749	1.497	1.529	1.610	1.741	1.781	1.748	2.202	1.896	2.336	2.469	3.259	3.972	4.865	6.492	8.814	10.95	14.18	15.25	14.17	13.58	13.78	10.59	8.437	5.906	5.052	4.396	4.258	3.731	4.102	4.265	4.469	5.073	5.652	5.838	6.321	6.803	6.876	7.453	7.396	7.197	7.230	7.491	7.166	6.876	7.179	6.835
340.0	3448	5153	5978	4911	2884	1534	974.4	873.4	986.2	1163	1381	1548	1635	1548	1374	1125	987.1	758.9	433.2	310.8	310.1	404.8	945.4	4263	3466	317.0	8.352	4.897	3.121	2.349	2.111	1.751	1.565	1.564	1.760	1.734	2.026	2.069	2.113	2.198	2.768	3.254	4.138	5.297	7.324	10.16	12.14	15.56	16.80	16.05	14.85	15.56	12.03	9.594	6.720	5.460	4.910	4.427	4.052	4.366	4.846	4.825	5.210	5.925	6.329	6.538	6.997	7.547	7.969	8.428	8.018	8.192	8.045	7.653	7.358	6.746	6.681
345.0	3667	5483	6238	5164	3057	1616	1016	904.8	1014	1196	1417	1602	1669	1589	1413	1145	907.9	823.0	559.4	327.8	271.8	260.6	306.0	1291	4555	3095	49.63	7.497	3.572	2.740	2.285	1.993	1.720	1.613	1.877	1.855	1.878	2.117	2.039	2.325	2.742	3.377	4.409	5.557	7.770	10.55	12.60	16.45	18.13	16.80	15.82	16.68	12.76	10.16	7.410	5.674	4.934	4.514	4.157	4.088	4.624	4.855	5.126	6.140	6.213	6.771	7.349	7.680	8.268	8.557	8.592	8.309	8.068	8.158	7.785	6.856	6.619
350.0	3516	5086	5922	4985	3050	1602	999.5	876.1	959.2	1123	1341	1491	1562	1506	1347	1108	849.0	691.3	627.3	433.5	276.3	234.8	174.0	335.6	1346	3336	3542	1155	15.90	3.648	2.629	2.186	1.859	1.750	1.828	1.773	1.775	1.994	2.015	2.278	2.624	3.280	4.270	5.502	7.400	9.747	11.91	15.65	16.78	15.99	15.10	15.94	12.43	9.952	7.312	5.510	4.712	4.321	4.135	4.178	4.520	4.801	5.022	5.510	5.977	6.629	7.090	7.158	7.724	8.060	8.034	8.134	7.661	7.778	7.245	6.569	6.378
355.0	3063	4506	5250	4397	2792	1483	918.6	806.2	866.1	1011	1188	1318	1373	1330	1200	999.6	774.8	590.4	502.3	499.3	350.1	234.3	150.0	132.0	332.4	792.9	2401	6738	384.2	17.21	3.612	2.535	2.092	1.878	1.878	1.684	1.750	1.913	1.971	2.095	2.295	3.071	3.994	5.048	6.581	8.618	10.29	13.36	14.47	14.39	13.63	14.41	11.32	9.008	6.578	5.171	4.346	4.109	3.981	3.898	4.082	4.550	4.659	5.004	5.592	5.731	6.287	6.461	6.736	6.957	7.068	7.271	6.930	7.249	6.586	6.591	5.919
360.0	2715	4026	4707	3917	2487	1337	861.0	747.0	792.3	920.8	1076	1188	1237	1188	1087	913.3	710.8	544.5	436.7	421.7	421.7	268.9	150.7	94.86	114.3	205.8	629.9	4758	3246	325.9	8.840	3.168	2.303	2.121	1.953	1.807	1.793	1.956	1.894	2.084	2.239	2.833	3.554	4.363	5.796	7.687	9.275	11.72	12.99	12.50	12.27	12.86	10.18	8.066	6.435	4.657	4.107	3.677	3.845	3.479	3.873	4.161	4.521	4.875	4.801	5.227	5.528	5.769	6.124	6.291	6.212	6.382	6.256	6.238	5.957	6.103	5.592
365.0	2380	3513	4077	3519	2240	1232	795.2	703.0	751.0	844.7	964.3	1061	1106	1067	975.3	829.2	655.9	509.5	405.2	348.4	393.5	346.5	169.9	95.60	73.52	81.03	165.4	1336	3664	3038	49.21	5.040	3.006	2.416	1.948	1.749	1.768	1.707	1.791	1.816	2.015	2.778	3.076	4.002	5.125	6.734	8.299	10.35	11.65	10.97	10.56	11.55	9.217	7.398	5.714	4.260	3.888	3.422	3.318	3.438	3.436	3.720	4.146	4.471	4.557	5.007	5.207	5.175	5.469	5.598	6.002	5.937	5.814	5.601	5.502	5.159	5.057
370.0	1991	2836	3353	2901	1897	1079	701.8	625.7	661.7	747.8	836.9	910.2	943.8	909.6	836.6	717.9	585.4	464.4	376.4	316.2	304.9	343.1	255.3	126.4	80.29	64.95	71.21	324.5	1034	2889	3301	963.7	16.36	3.122	2.391	1.943	1.723	1.686	1.691	1.789	1.912	2.349	2.684	3.298	4.444	5.830	6.860	8.408	9.554	8.849	8.723	9.633	7.640	6.649	4.952	3.738	3.346	2.946	2.913	3.077	3.086	3.367	3.661	3.882	4.016	4.129	4.403	4.660	4.816	5.075	5.129	4.963	5.169	4.898	4.904	4.577	4.555
375.0	1660	2289	2706	2357	1573	928.6	625.2	551.3	581.9	657.8	726.2	779.0	801.0	767.0	708.8	618.6	513.4	419.5	347.5	299.7	268.5	264.8	284.7	214.0	106.9	75.61	62.28	107.9	254.7	678.9	1997	4264	344.0	18.36	2.875	2.504	2.085	1.912	1.934	1.776	1.824	2.111	2.367	2.872	3.854	4.564	5.541	7.091	7.513	7.145	7.076	7.830	6.217	5.499	4.508	3.328	3.068	2.818	2.786	2.884	2.743	3.079	3.245	3.407	3.454	3.778	4.114	3.879	4.111	4.284	4.295	4.162	4.266	4.296	4.371	4.049	4.067
380.0	1409	1943	2275	2010	1394	840.2	576.3	508.4	534.6	592.4	647.9	691.6	710.1	671.4	628.3	553.1	466.5	388.0	331.4	288.4	256.2	239.0	235.4	259.7	159.2	91.73	68.84	67.23	87.71	172.9	512.3	2780	3788	292.3	8.766	2.716	2.183	2.089	1.757	1.570	1.545	1.944	2.000	2.502	3.264	3.976	4.632	6.131	6.444	6.209	6.028	6.782	5.790	4.826	3.822	3.004	2.752	2.768	2.549	2.632	2.568	2.837	2.957	3.204	3.224	3.490	3.426	3.535	3.738	3.752	3.657	3.952	3.652	3.839	3.836	3.988	3.684
385.0	1207	1646	1950	1738	1200	770.9	540.9	480.2	493.6	540.0	594.2	620.9	634.6	601.9	562.3	498.0	425.3	361.2	317.8	279.1	250.7	230.6	206.3	229.5	221.7	121.2	79.34	64.17	56.53	65.24	133.4	756.5	3184	2572	220.4	4.329	2.504	2.060	1.667	1.632	1.480	1.675	1.925	2.355	2.825	3.507	4.266	5.387	5.918	5.353	5.303	5.838	4.840	4.610	3.586	2.814	2.745	2.501	2.309	2.319	2.353	2.625	2.785	2.972	3.050	3.072	3.015	3.140	3.337	3.523	3.502	3.668	3.537	3.714	3.474	3.681	3.349
390.0	982.6	1366	1591	1447	1035	679.6	495.4	446.0	455.5	485.0	531.7	555.3	557.5	531.8	493.6	444.4	383.7	335.3	297.7	270.0	244.4	226.1	202.1	185.8	211.8	188.7	112.7	75.28	58.63	49.69	54.85	186.8	858.8	2221	2619	800.9	14.18	2.664	1.956	1.689	1.538	1.673	1.915	2.152	2.486	3.115	3.686	4.559	4.794	4.428	4.472	5.177	4.343	3.958	3.153	2.783	2.514	2.221	2.371	2.321	2.257	2.349	2.568	2.594	2.731	2.699	2.854	2.758	3.197	3.186	3.170	3.224	2.959	3.369	3.134	3.138	2.882
395.0	825.1	1160	1323	1223	893.1	595.1	452.2	413.5	419.1	440.9	478.8	493.5	490.6	466.4	440.8	392.7	351.1	308.7	280.6	257.5	238.1	225.5	202.4	178.2	173.2	193.4	178.0	102.8	70.96	54.95	45.27	65.92	208.3	518.5	1492	3244	288.5	16.78	2.682	2.040	1.741	1.794	1.789	2.019	2.238	2.865	3.126	3.930	4.000	3.671	3.728	4.351	3.921	3.479	2.970	2.557	2.387	2.205	2.062	2.269	2.136	2.248	2.320	2.472	2.687	2.581	2.665	2.639	2.725	2.613	2.820	2.901	2.756	2.977	2.801	2.685	2.616
400.0	775.0	1021	1180	1048	802.0	555.7	432.2	389.9	394.2	406.4	442.2	455.0	448.3	425.5	403.2	364.1	327.3	291.9	265.8	249.8	234.0	219.0	203.1	176.8	162.2	164.7	201.4	144.8	84.85	62.54	48.43	42.69	66.40	130.6	378.8	2037	2887	256.7	8.440	2.426	1.883	1.815	1.827	1.932	2.096	2.743	2.855	3.596	3.490	3.310	3.448	3.856	3.319	3.000	2.687	2.309	2.319	2.134	1.949	2.230	2.195	2.079	2.216	2.212	2.345	2.346	2.420	2.470	2.467	2.396	2.565	2.626	2.673	2.672	2.554	2.507	2.373
405.0	665.8	899.5	1049	955.4	740.1	520.6	417.2	377.4	381.2	392.8	415.0	428.2	420.8	398.6	368.8	339.1	306.5	277.8	257.8	239.5	227.3	217.2	199.7	178.8	162.6	152.9	174.8	182.2	110.3	72.00	55.20	41.21	37.68	45.61	96.99	550.6	2361	2200	194.1	3.995	2.243	1.882	1.792	1.843	2.194	2.452	2.572	3.010	3.284	3.087	3.089	3.506	3.021	2.901	2.435	2.163	2.056	1.989	2.092	1.923	2.128	1.861	2.101	2.180	2.202	2.389	2.331	2.390	2.325	2.240	2.449	2.252	2.502	2.518	2.353	2.500	2.373
410.0	602.2	816.9	915.3	846.5	654.4	483.9	398.0	359.9	356.2	366.7	386.1	393.1	384.5	368.4	341.9	310.9	282.2	257.4	242.2	227.6	216.5	208.2	195.1	178.2	164.3	151.8	146.5	164.2	156.1	98.10	64.68	47.76	37.45	31.31	37.01	134.1	631.3	1780	2127	738.1	12.66	2.237	1.934	1.904	2.031	2.276	2.409	2.695	2.818	2.849	2.676	2.989	2.922	2.756	2.276	2.063	1.973	1.868	2.076	1.949	1.959	2.006	2.015	2.104	1.918	2.155	2.124	2.222	2.060	2.174	2.282	2.203	2.276	2.211	2.281	2.410	2.234
415.0	552.1	710.5	796.7	742.4	608.6	448.9	376.2	335.5	338.3	345.1	366.6	363.1	351.9	336.7	308.5	286.4	256.8	237.8	223.1	213.2	203.7	197.8	187.4	175.2	162.2	150.2	136.2	134.4	150.0	144.1	83.72	54.47	41.86	31.93	26.85	43.47	150.4	413.0	1156	2687	261.6	14.92	2.398	2.049	2.017	2.005	2.174	2.544	2.688	2.561	2.513	2.722	2.603	2.399	2.198	1.937	1.948	1.808	1.858	1.806	1.827	2.082	1.868	1.915	1.898	2.091	1.928	2.014	1.980	2.010	1.848	2.145	2.218	2.181	2.082	2.219	2.285
