Sample:	'1
File name:	t2025022701¶þ²ã³Ø  2Íò±¶.FD3
Run date:	'09:55:43, 02/28/2025
Operator:	Administrator
Comment:	'

Instrument
Model:	F-2700 FL Spectrophotometer
Serial number:	23B8-004
ROM Version:	4J14000 07

Instrument parameters
Measurement type:	3-D scan
Data mode:	Fluorescence
EX  Start WL:	220.0 nm
EX  End WL:	600.0 nm
EX Sampling interval:	5.0 nm
EM  Start WL:	230.0 nm
EM  End WL:	650.0 nm
EM Sampling interval:	5.0 nm
Scan speed:	12000 nm/min
EX Slit:	5.0 nm
EM Slit:	5.0 nm
PMT Voltage:	700 V
Response:	Auto 
Corrected spectra:	Off
Contour interval:	50.000

Peak integration
Integration method:	Rectangular
Sensitivity:	1
Threshold:	1.000

Peaks
No.	ApexEX/EM(nm)	Height(Data)
1	225.0/490.0	180.8
2	225.0/535.0	11.09
3	230.0/500.0	163.8
4	235.0/515.0	142.2
5	240.0/265.0	475.1
6	240.0/525.0	121.8
7	245.0/270.0	453.2
8	245.0/540.0	119.3
9	250.0/275.0	595.4
10	250.0/550.0	106.6
11	255.0/465.0	11.08
12	255.0/565.0	151.6
13	265.0/585.0	340.0
14	270.0/300.0	4453
15	270.0/595.0	337.7
16	295.0/330.0	326.7
17	300.0/335.0	306.9
18	305.0/345.0	259.9
19	310.0/350.0	201.2
20	315.0/355.0	187.0
21	320.0/360.0	169.7
22	325.0/370.0	131.7
23	330.0/375.0	121.6
24	335.0/380.0	133.3
25	340.0/385.0	109.2
26	350.0/400.0	90.61
27	355.0/405.0	82.48
28	360.0/410.0	60.61
29	365.0/420.0	65.41
30	370.0/425.0	60.54
31	375.0/430.0	45.76
32	380.0/440.0	42.92
33	385.0/300.0	10.55
34	385.0/445.0	39.85
35	390.0/450.0	30.15
36	395.0/455.0	26.97
37	400.0/465.0	25.47
38	405.0/470.0	18.91
39	410.0/480.0	16.85
40	415.0/485.0	15.24
41	420.0/490.0	11.95
42	425.0/500.0	11.66
43	430.0/300.0	6.723
44	430.0/505.0	10.64
45	435.0/510.0	7.836
46	440.0/305.0	6.462
47	440.0/520.0	7.975
48	445.0/525.0	6.627
49	455.0/540.0	4.839
50	460.0/545.0	4.185
51	465.0/555.0	2.889
52	470.0/560.0	2.478
53	480.0/575.0	1.498
54	485.0/265.0	2.155
55	485.0/580.0	1.380
56	495.0/270.0	2.068
57	540.0/295.0	20.67
58	545.0/300.0	21.14
59	550.0/305.0	18.70
60	585.0/325.0	3.471

Data points
	220.0	225.0	230.0	235.0	240.0	245.0	250.0	255.0	260.0	265.0	270.0	275.0	280.0	285.0	290.0	295.0	300.0	305.0	310.0	315.0	320.0	325.0	330.0	335.0	340.0	345.0	350.0	355.0	360.0	365.0	370.0	375.0	380.0	385.0	390.0	395.0	400.0	405.0	410.0	415.0	420.0	425.0	430.0	435.0	440.0	445.0	450.0	455.0	460.0	465.0	470.0	475.0	480.0	485.0	490.0	495.0	500.0	505.0	510.0	515.0	520.0	525.0	530.0	535.0	540.0	545.0	550.0	555.0	560.0	565.0	570.0	575.0	580.0	585.0	590.0	595.0	600.0
230.0	83.39	1382	3267	800.7	27.90	3.658	2.737	2.588	2.027	2.329	2.388	2.087	1.252	0.992	0.892	0.629	0.595	0.474	0.432	0.357	0.394	0.291	0.320	0.291	0.214	0.198	0.184	0.168	0.154	0.151	0.176	0.145	0.159	0.121	0.128	0.112	0.130	0.119	0.123	0.119	0.307	0.673	0.684	0.315	0.127	0.137	1.343	6.392	9.654	5.868	1.626	0.244	0.072	0.053	0.067	0.038	0.057	0.055	0.045	0.045	0.061	0.058	0.049	0.039	0.035	0.041	0.035	0.057	0.055	0.049	0.034	0.036	0.034	0.039	0.039	0.045	0.042
235.0	247.5	386.3	1950	2911	534.5	35.55	4.089	3.626	3.162	2.343	2.317	2.097	1.319	1.295	0.908	0.739	0.444	0.463	0.363	0.448	0.387	0.325	0.288	0.259	0.250	0.178	0.161	0.207	0.169	0.124	0.283	0.122	0.183	0.130	0.134	0.134	0.126	0.133	0.115	0.107	0.127	0.266	0.520	0.806	0.520	0.270	0.396	1.647	3.652	6.188	8.661	7.688	2.811	0.564	0.073	0.046	0.051	0.056	0.072	0.040	0.056	0.066	0.055	0.070	0.039	0.027	0.058	0.082	0.068	0.053	0.052	0.036	0.038	0.036	0.021	0.031	0.049
240.0	316.4	244.2	581.8	2518	2839	385.0	15.65	4.079	3.733	3.182	3.106	2.659	1.747	1.247	0.792	0.713	0.674	0.472	0.509	0.461	0.343	0.350	0.262	0.284	0.218	0.188	0.115	0.194	0.195	0.173	0.221	0.271	0.191	0.183	0.117	0.142	0.095	0.103	0.098	0.082	0.085	0.165	0.201	0.423	0.812	0.878	0.458	0.500	0.925	1.864	5.227	11.85	12.61	7.659	2.038	0.187	0.080	0.086	0.058	0.034	0.069	0.082	0.066	0.061	0.064	0.047	0.063	0.067	0.051	0.066	0.052	0.040	0.051	0.019	0.036	0.035	0.040
245.0	214.2	384.1	226.8	859.8	3276	2714	266.2	6.895	4.440	3.293	3.473	2.516	2.011	1.254	0.927	0.844	0.743	0.493	0.506	0.476	0.366	0.353	0.279	0.286	0.189	0.206	0.161	0.207	0.196	0.134	0.223	0.172	0.156	0.133	0.127	0.126	0.092	0.079	0.160	0.072	0.109	0.134	0.114	0.182	0.488	0.812	0.994	0.715	0.395	0.505	1.337	4.186	10.34	16.33	14.71	5.845	1.030	0.135	0.053	0.100	0.083	0.088	0.076	0.049	0.057	0.067	0.078	0.057	0.068	0.071	0.046	0.053	0.042	0.016	0.051	0.046	0.030
250.0	76.44	252.8	345.3	312.9	1082	3033	3421	956.1	41.50	6.021	4.712	3.301	2.478	1.549	1.167	0.967	0.777	0.553	0.458	0.492	0.395	0.386	0.380	0.317	0.196	0.274	0.216	0.208	0.192	0.180	0.199	0.192	0.149	0.148	0.180	0.137	0.102	0.118	0.135	0.120	0.146	0.150	0.137	0.148	0.219	0.285	0.517	0.970	1.007	0.808	0.625	1.091	2.599	5.727	10.42	14.30	16.28	12.79	5.942	1.265	0.136	0.082	0.083	0.071	0.079	0.082	0.061	0.074	0.087	0.072	0.057	0.061	0.068	0.021	0.048	0.054	0.052
255.0	29.67	75.48	234.8	422.3	342.7	790.3	3095	5178	1224	34.34	6.461	4.038	2.845	2.024	1.222	1.139	1.138	0.800	0.581	0.505	0.469	0.401	0.389	0.353	0.211	0.304	0.198	0.246	0.221	0.232	0.222	0.211	0.243	0.165	0.156	0.105	0.065	0.126	0.133	0.118	0.154	0.159	0.131	0.109	0.128	0.129	0.189	0.322	0.467	0.971	1.558	1.304	0.892	1.398	2.536	3.577	7.252	16.60	26.19	21.76	8.561	1.335	0.125	0.113	0.093	0.099	0.090	0.074	0.070	0.064	0.070	0.086	0.049	0.048	0.049	0.059	0.029
260.0	24.47	29.32	85.71	355.0	375.0	233.7	964.0	4758	5182	238.6	15.97	5.570	3.611	2.513	1.557	1.719	1.153	0.888	0.707	0.593	0.490	0.479	0.433	0.472	0.269	0.261	0.254	0.292	0.193	0.226	0.207	0.215	0.156	0.206	0.201	0.182	0.112	0.159	0.140	0.093	0.168	0.194	0.122	0.174	0.142	0.115	0.109	0.145	0.192	0.418	0.906	1.967	1.692	0.967	0.763	0.941	1.798	4.745	13.73	27.49	29.98	19.25	6.020	0.519	0.140	0.098	0.096	0.100	0.088	0.079	0.056	0.072	0.066	0.061	0.060	0.054	0.042
265.0	24.65	20.21	28.32	161.2	475.1	266.0	249.1	1706	6274	4469	173.2	9.398	5.036	3.090	2.382	1.726	1.362	1.043	0.829	0.756	0.746	0.570	0.290	0.463	0.275	0.262	0.285	0.307	0.237	0.287	0.254	0.250	0.192	0.257	0.181	0.183	0.138	0.180	0.198	0.096	0.156	0.129	0.167	0.116	0.140	0.126	0.124	0.112	0.085	0.153	0.312	0.987	1.888	2.155	1.093	0.515	0.542	1.239	3.424	8.863	20.46	35.10	29.04	15.83	3.023	0.200	0.157	0.105	0.102	0.088	0.050	0.096	0.087	0.070	0.070	0.055	0.063
270.0	41.30	26.64	17.26	50.56	220.9	453.2	287.3	436.1	2115	5384	4737	699.0	30.56	5.397	3.247	2.268	1.767	1.184	0.965	0.725	0.799	0.669	0.475	0.425	0.406	0.345	0.405	0.296	0.272	0.285	0.225	0.268	0.225	0.295	0.259	0.254	0.192	0.200	0.241	0.146	0.188	0.178	0.167	0.165	0.159	0.175	0.131	0.133	0.098	0.093	0.166	0.311	0.674	1.217	1.839	2.068	1.698	0.848	0.994	2.197	4.969	11.00	18.88	29.55	29.61	26.29	11.47	2.814	0.304	0.139	0.126	0.105	0.084	0.076	0.080	0.061	0.075
275.0	206.0	116.8	48.51	37.95	76.86	224.8	595.4	367.2	624.0	1558	4969	7701	924.4	25.18	5.022	3.539	2.117	1.412	1.248	0.959	0.862	0.751	0.725	0.511	0.528	0.397	0.470	0.340	0.387	0.329	0.282	0.356	0.628	0.871	0.644	0.643	0.454	0.392	0.562	0.416	0.481	0.395	0.507	0.524	0.452	0.445	0.308	0.260	0.212	0.177	0.164	0.229	0.288	0.420	0.645	1.119	2.548	3.054	2.097	1.271	1.757	3.251	5.144	7.888	11.17	24.71	41.63	29.87	17.11	3.309	0.308	0.149	0.169	0.090	0.139	0.096	0.116
280.0	724.0	394.0	184.0	106.8	95.57	154.1	498.8	895.0	712.0	1019	2193	7490	6652	135.6	10.90	5.064	2.643	1.844	1.589	1.211	1.125	0.802	0.708	0.529	0.609	0.453	0.474	0.444	0.440	0.357	0.396	1.008	1.728	2.259	2.001	1.472	1.245	1.151	1.161	1.232	1.281	1.519	1.514	1.395	1.469	1.194	0.900	0.621	0.448	0.420	0.413	0.398	0.361	0.407	0.572	0.703	1.418	2.918	4.567	3.973	2.820	3.054	4.006	4.877	6.007	9.461	19.09	33.95	46.91	28.58	12.14	1.373	0.269	0.199	0.208	0.122	0.190
285.0	1481	844.0	412.8	254.5	174.0	203.6	441.1	1171	1510	1593	1944	3605	8243	4883	92.09	7.441	3.878	2.363	2.410	1.488	1.217	0.864	0.861	0.630	0.700	0.591	0.518	0.527	0.428	0.431	0.605	1.560	3.380	4.409	4.070	3.000	2.557	2.386	2.024	2.261	2.573	2.665	2.895	2.778	2.720	2.448	1.934	1.439	1.021	0.871	0.715	0.815	0.654	0.621	0.682	0.876	1.355	2.083	4.041	6.423	6.922	6.279	6.621	7.589	8.667	8.573	10.26	14.65	25.00	41.00	47.95	22.78	6.011	0.609	0.297	0.241	0.262
290.0	2645	1517	773.7	479.2	328.9	333.1	572.0	1216	2284	2822	2904	2769	3321	5855	4744	391.9	16.88	4.146	2.868	2.083	1.642	1.245	1.090	0.890	0.729	0.582	0.546	0.576	0.502	0.491	0.829	2.532	5.522	7.817	6.894	5.228	4.215	3.908	4.062	4.121	4.408	4.633	4.845	4.868	4.632	4.425	3.169	2.711	1.870	1.513	1.361	1.338	1.183	1.137	1.112	1.405	1.971	2.717	4.258	6.078	8.478	11.47	12.80	13.74	13.99	12.93	12.49	12.62	11.89	13.89	21.63	27.57	28.94	29.06	15.56	5.470	0.872
295.0	3354	2017	1041	676.6	440.2	422.3	709.3	1364	2382	3743	4038	3039	1731	1661	4144	5695	525.6	11.23	3.957	2.817	2.051	1.595	1.393	1.129	0.974	0.647	0.715	0.617	0.568	0.666	0.975	3.153	7.081	9.656	9.251	6.939	5.452	5.402	5.185	5.116	5.537	6.122	6.084	6.208	5.964	5.873	4.144	3.307	2.610	2.005	1.928	1.958	1.579	1.543	1.536	1.679	2.521	3.444	4.918	6.522	9.009	11.53	14.52	18.97	20.67	17.80	15.25	14.18	10.68	7.405	7.038	7.538	8.960	17.44	35.24	34.20	23.43
300.0	3536	2166	1127	735.8	470.1	454.9	731.2	1377	2348	3566	4453	3324	1427	636.0	1279	5257	4622	76.72	6.345	3.665	2.688	1.778	1.600	1.162	1.141	0.806	0.682	0.689	0.592	0.633	1.057	3.319	7.160	10.55	9.680	7.376	6.303	5.788	5.461	5.758	5.792	6.464	6.723	6.401	6.143	6.026	4.174	3.448	2.973	2.488	1.938	2.073	1.789	1.656	1.663	2.130	2.569	3.584	5.045	6.536	8.801	11.34	13.63	16.67	19.92	21.14	17.71	14.96	10.97	6.177	3.990	3.076	3.144	4.760	11.24	24.72	41.73
305.0	3323	2066	1156	724.6	465.6	436.3	697.0	1295	2212	3223	4002	3589	1397	426.3	376.1	1794	5857	3318	55.91	4.440	3.003	1.979	1.831	1.452	1.141	1.022	0.891	0.655	0.742	0.745	1.153	3.143	7.303	10.34	9.648	7.255	5.985	5.580	5.195	5.249	5.592	5.788	6.363	6.390	6.462	5.861	4.240	3.618	3.027	2.460	2.018	2.189	1.789	1.509	1.624	1.960	2.560	3.132	4.912	6.213	8.136	10.57	12.73	14.64	17.12	18.26	18.70	16.78	11.36	5.916	3.582	2.269	1.863	1.939	3.148	6.548	15.92
310.0	2800	1777	1004	635.8	423.9	370.0	583.4	1064	1834	2643	3124	2952	1616	462.9	178.4	445.6	1880	4000	3363	265.4	11.36	3.076	2.496	1.659	1.222	1.133	0.922	0.722	0.741	0.751	1.030	2.708	6.153	8.441	8.299	6.626	5.223	4.869	4.519	4.465	4.764	5.134	5.250	5.505	5.338	4.811	3.807	3.306	2.620	2.069	1.831	1.915	1.497	1.330	1.405	1.611	2.208	2.915	3.931	5.238	6.772	8.730	10.54	12.58	13.84	13.71	13.75	13.96	11.08	7.391	4.498	2.357	1.464	1.236	1.286	1.971	3.988
315.0	2217	1382	820.5	510.7	339.2	288.6	445.0	816.6	1377	2003	2314	2067	1302	765.7	186.4	140.2	443.8	990.0	3057	4016	379.4	7.316	3.305	2.165	1.417	1.265	1.053	0.760	0.683	0.676	0.868	2.153	4.728	6.975	6.571	5.458	4.362	3.960	3.630	3.619	3.703	4.126	4.069	4.288	4.183	3.771	3.160	2.682	2.167	1.716	1.492	1.511	1.251	1.127	1.100	1.238	1.751	2.162	2.939	4.037	5.272	6.477	8.068	9.575	10.51	9.912	9.894	9.554	7.358	5.789	5.396	4.450	2.379	1.277	0.847	0.868	1.293
320.0	1730	1161	666.1	421.3	283.4	234.7	352.5	635.7	1083	1552	1807	1587	902.6	731.9	374.5	81.99	122.9	237.7	882.8	3680	3482	57.88	5.222	2.598	1.835	1.385	1.007	0.962	0.795	0.694	0.866	1.824	4.081	5.627	5.531	4.450	3.630	3.246	3.259	2.970	2.943	3.181	3.373	3.305	3.499	3.211	2.435	2.045	1.751	1.352	1.258	1.200	1.029	0.917	0.938	1.049	1.446	1.631	2.142	3.362	3.902	4.921	6.118	7.453	8.375	7.748	7.519	7.225	5.907	4.076	3.537	3.972	3.999	2.645	1.067	0.791	0.658
325.0	1350	981.0	560.4	358.2	226.8	189.9	280.7	498.9	839.3	1213	1401	1236	678.0	453.3	521.3	115.2	51.57	68.58	213.2	1198	4231	2672	45.20	3.709	2.153	1.651	0.990	0.978	0.763	0.852	0.834	1.739	3.304	4.593	4.838	3.867	2.924	2.615	2.607	2.573	2.380	2.599	2.608	2.673	2.807	2.501	1.946	1.644	1.433	1.120	0.983	1.075	0.894	0.785	0.849	0.884	1.216	1.459	1.871	2.419	3.219	3.818	4.728	5.638	6.268	6.117	5.855	5.922	4.812	3.411	2.382	2.274	2.964	3.471	2.807	1.523	0.557
330.0	1014	730.3	428.6	279.6	182.1	146.2	203.6	361.1	595.1	872.8	1010	898.5	504.6	267.4	295.4	326.7	133.5	33.90	59.56	281.2	1310	3015	3062	222.3	9.652	2.259	1.572	1.177	0.882	0.957	0.756	1.464	2.470	3.412	3.478	2.996	2.481	2.133	2.080	1.894	1.963	1.992	2.001	2.074	1.996	1.976	1.579	1.389	1.185	0.885	0.839	0.918	0.773	0.690	0.638	0.679	0.873	1.044	1.423	1.742	2.374	2.839	3.402	4.085	4.607	4.408	4.438	4.400	3.344	2.378	1.720	1.345	1.400	1.705	2.277	2.442	2.041
335.0	782.3	530.4	323.1	215.0	142.4	110.7	145.3	250.7	412.9	594.5	692.7	630.1	373.0	184.5	131.8	192.2	306.9	77.51	25.46	72.87	302.1	728.0	2440	3300	323.7	7.390	2.110	1.395	1.233	1.122	0.791	1.167	1.715	2.628	2.601	2.232	1.857	1.514	1.579	1.498	1.483	1.472	1.518	1.523	1.555	1.620	1.228	1.032	0.958	0.806	0.720	0.674	0.748	0.508	0.477	0.512	0.710	0.806	0.983	1.183	1.680	2.100	2.526	2.723	3.163	3.219	3.066	2.987	2.304	1.623	1.370	1.013	0.886	0.854	0.896	1.070	1.747
340.0	608.7	412.2	270.4	180.5	116.2	93.31	118.4	189.1	306.6	442.7	514.0	472.4	288.2	149.7	84.48	83.89	237.5	237.8	42.82	25.86	76.72	172.4	670.4	2804	2551	50.81	3.675	1.663	1.349	1.126	0.887	1.166	1.505	2.143	2.039	1.837	1.451	1.229	1.226	1.189	1.166	1.157	1.119	1.137	1.225	1.207	1.054	0.996	0.783	0.646	0.615	0.536	0.484	0.434	0.436	0.422	0.562	0.677	0.841	0.899	1.374	1.563	1.791	2.146	2.422	2.430	2.226	2.263	1.892	1.279	1.139	0.944	0.650	0.595	0.508	0.532	0.808
345.0	459.8	333.7	232.8	154.5	96.33	82.17	94.58	151.6	233.7	333.8	392.2	368.1	227.0	125.4	67.46	49.42	104.0	259.9	141.8	21.19	25.40	47.66	160.3	862.9	2776	2037	41.27	2.546	1.654	1.270	1.115	1.096	1.529	1.793	1.817	1.396	1.295	1.212	1.037	0.956	0.933	0.977	0.925	0.921	0.950	0.878	0.860	0.863	0.709	0.566	0.522	0.484	0.505	0.364	0.357	0.416	0.448	0.502	0.696	0.688	1.035	1.225	1.440	1.646	1.854	1.904	1.780	1.613	1.391	1.117	0.891	0.719	0.580	0.590	0.455	0.456	0.431
350.0	347.3	269.0	193.3	122.2	82.75	63.79	73.44	108.7	168.6	237.5	282.5	267.8	176.0	101.7	57.33	36.31	43.76	113.9	201.2	107.6	23.34	19.17	44.08	201.7	827.9	2000	1882	197.3	9.476	1.826	1.258	1.065	1.116	1.426	1.433	1.151	1.108	1.028	0.854	0.802	0.742	0.752	0.719	0.731	0.751	0.752	0.674	0.655	0.607	0.466	0.435	0.417	0.403	0.356	0.316	0.352	0.346	0.423	0.495	0.549	0.761	0.934	1.102	1.242	1.322	1.354	1.287	1.227	1.068	0.910	0.755	0.606	0.521	0.480	0.434	0.320	0.325
355.0	277.6	216.8	150.3	95.08	66.24	49.32	54.81	81.66	121.9	169.7	197.2	190.9	133.6	81.07	47.80	31.26	26.68	41.45	87.93	187.0	67.24	17.15	17.48	52.24	191.2	473.8	1329	2215	309.1	9.655	1.753	1.200	1.213	1.289	1.093	1.101	0.942	0.852	0.769	0.717	0.614	0.583	0.587	0.550	0.643	0.587	0.564	0.544	0.493	0.384	0.326	0.364	0.340	0.289	0.336	0.285	0.308	0.340	0.379	0.382	0.615	0.647	0.836	0.849	0.896	0.904	0.881	0.893	0.890	0.639	0.592	0.482	0.392	0.428	0.341	0.386	0.271
360.0	230.7	183.9	131.3	85.50	61.85	43.50	49.20	66.06	96.15	125.3	149.7	151.1	107.1	70.57	42.51	29.91	23.25	23.06	36.50	115.2	169.7	48.35	13.21	18.58	49.39	112.0	352.3	1653	2059	49.75	4.031	1.439	1.270	1.304	1.054	1.008	0.896	0.734	0.628	0.601	0.488	0.554	0.527	0.530	0.554	0.459	0.483	0.467	0.399	0.434	0.304	0.332	0.324	0.301	0.240	0.220	0.265	0.412	0.294	0.330	0.556	0.559	0.660	0.651	0.730	0.815	0.751	0.814	0.670	0.618	0.488	0.411	0.376	0.426	0.286	0.275	0.268
365.0	201.9	157.8	112.2	84.79	55.13	39.43	44.20	59.08	74.87	101.3	120.8	122.2	91.63	60.44	40.18	28.69	21.95	20.05	21.78	47.96	151.9	130.1	25.19	11.50	17.17	30.69	84.77	475.4	1950	2121	42.99	2.343	1.550	1.182	1.079	0.983	0.865	0.625	0.608	0.491	0.455	0.466	0.573	0.499	0.398	0.402	0.485	0.435	0.368	0.361	0.288	0.345	0.287	0.306	0.258	0.214	0.204	0.297	0.286	0.361	0.461	0.456	0.498	0.540	0.573	0.621	0.616	0.777	0.598	0.596	0.402	0.407	0.275	0.327	0.306	0.245	0.247
370.0	152.5	138.5	102.3	71.47	49.01	39.17	39.68	46.89	58.70	78.41	94.09	95.21	74.81	52.52	36.86	27.89	22.42	19.73	19.07	24.44	62.05	131.7	95.97	25.33	10.04	12.26	23.95	111.3	549.5	1822	1799	186.7	11.57	1.384	1.140	0.973	0.852	0.606	0.597	0.486	0.354	0.443	0.498	0.395	0.388	0.417	0.393	0.432	0.324	0.328	0.251	0.312	0.225	0.233	0.257	0.189	0.217	0.256	0.260	0.330	0.344	0.306	0.425	0.448	0.461	0.501	0.504	0.560	0.448	0.455	0.362	0.363	0.345	0.310	0.282	0.227	0.263
375.0	137.3	117.5	92.67	65.06	45.65	36.21	35.20	38.56	47.91	61.24	70.94	72.48	59.81	44.51	33.35	27.76	23.69	21.71	19.17	19.50	26.45	53.75	121.6	96.29	17.61	7.672	9.648	29.05	126.5	422.6	1092	1747	294.8	9.616	1.246	1.070	0.757	0.720	0.653	0.500	0.375	0.454	0.378	0.361	0.343	0.429	0.379	0.344	0.295	0.308	0.293	0.291	0.222	0.206	0.284	0.216	0.222	0.230	0.224	0.287	0.333	0.290	0.343	0.335	0.388	0.403	0.384	0.489	0.403	0.291	0.298	0.289	0.300	0.266	0.310	0.216	0.260
380.0	120.1	104.0	86.93	60.42	43.05	30.73	32.74	34.08	39.68	50.85	60.03	61.20	51.65	40.36	31.25	25.85	24.01	22.35	19.67	19.25	18.04	25.47	67.67	133.3	49.67	9.495	6.732	10.40	31.89	98.63	279.4	1181	1704	212.6	3.483	1.118	0.984	0.727	0.580	0.545	0.385	0.425	0.454	0.302	0.307	0.370	0.361	0.246	0.354	0.278	0.266	0.264	0.270	0.207	0.224	0.187	0.213	0.179	0.267	0.204	0.227	0.213	0.269	0.268	0.356	0.374	0.436	0.373	0.350	0.361	0.346	0.383	0.323	0.209	0.236	0.260	0.234
385.0	114.3	93.75	83.47	52.36	43.01	34.76	31.80	30.99	36.53	44.44	51.57	55.19	46.91	36.82	30.68	25.94	24.33	24.51	21.11	19.64	17.10	18.16	29.50	95.30	109.2	27.47	5.970	5.987	10.65	25.51	66.75	326.3	1412	1232	35.79	1.749	0.968	0.752	0.660	0.512	0.432	0.445	0.415	0.419	0.314	0.300	0.328	0.289	0.312	0.216	0.273	0.264	0.301	0.250	0.207	0.200	0.226	0.180	0.240	0.205	0.215	0.229	0.233	0.274	0.301	0.290	0.355	0.301	0.327	0.318	0.316	0.352	0.362	0.269	0.239	0.300	0.284
390.0	104.9	87.44	73.53	50.25	41.38	33.74	30.46	29.19	31.65	36.45	42.69	45.25	39.69	32.19	28.60	25.41	22.88	23.44	21.98	19.47	17.26	16.12	17.42	37.09	87.11	76.33	24.56	5.217	5.435	8.954	18.05	76.07	378.4	896.0	1030	149.0	9.762	1.050	0.745	0.575	0.468	0.397	0.377	0.350	0.305	0.353	0.328	0.332	0.310	0.227	0.225	0.260	0.207	0.228	0.190	0.194	0.211	0.215	0.192	0.207	0.219	0.219	0.189	0.215	0.253	0.254	0.308	0.261	0.246	0.279	0.297	0.317	0.268	0.306	0.279	0.307	0.259
395.0	90.27	77.81	64.00	54.37	39.75	34.39	26.89	26.36	28.03	32.84	36.09	37.89	34.00	29.08	25.72	24.23	22.89	22.73	21.38	19.49	17.91	15.84	14.02	17.20	31.90	75.57	77.78	16.77	4.173	4.677	6.736	19.57	86.74	207.1	567.4	1130	236.6	10.55	0.902	0.555	0.542	0.376	0.435	0.354	0.310	0.267	0.312	0.296	0.247	0.224	0.257	0.207	0.214	0.205	0.181	0.184	0.218	0.198	0.171	0.237	0.187	0.186	0.147	0.202	0.250	0.250	0.256	0.241	0.296	0.312	0.224	0.260	0.225	0.277	0.175	0.334	0.371
400.0	89.41	73.64	70.93	49.10	39.72	31.24	26.30	23.93	24.92	28.90	33.79	33.57	29.57	26.90	25.64	23.86	22.09	22.25	21.38	19.43	18.05	15.56	13.13	11.96	14.67	38.44	90.61	46.87	7.672	3.348	4.064	7.052	21.67	48.61	142.5	698.9	1022	188.5	5.364	0.810	0.621	0.377	0.448	0.280	0.302	0.282	0.295	0.309	0.307	0.187	0.271	0.250	0.226	0.221	0.180	0.151	0.182	0.178	0.153	0.170	0.173	0.146	0.144	0.221	0.239	0.217	0.241	0.290	0.251	0.256	0.188	0.238	0.261	0.197	0.225	0.305	0.355
405.0	91.68	75.78	65.66	49.00	37.63	27.89	26.41	20.44	21.97	26.83	29.96	30.01	27.43	25.15	22.63	23.36	21.49	20.81	20.96	18.69	16.70	15.03	12.72	10.38	9.591	16.75	56.53	82.48	25.37	3.648	3.087	3.766	7.322	13.03	34.33	187.0	786.4	867.4	33.88	1.463	0.623	0.486	0.427	0.346	0.277	0.333	0.239	0.276	0.270	0.191	0.180	0.264	0.201	0.198	0.178	0.164	0.153	0.167	0.150	0.171	0.205	0.159	0.179	0.210	0.190	0.269	0.241	0.198	0.199	0.274	0.201	0.207	0.258	0.246	0.240	0.248	0.267
410.0	75.94	70.22	54.05	44.29	33.11	26.09	24.61	19.63	20.39	23.06	25.89	26.44	24.36	23.10	21.28	21.01	20.75	20.60	19.74	18.07	16.21	14.02	12.46	9.947	7.941	9.164	20.69	55.60	60.61	22.80	3.875	2.532	3.671	5.023	9.675	43.97	207.7	580.8	832.0	137.1	8.106	0.561	0.434	0.385	0.327	0.306	0.284	0.262	0.247	0.208	0.179	0.208	0.204	0.187	0.201	0.185	0.160	0.178	0.156	0.150	0.160	0.159	0.167	0.174	0.186	0.147	0.209	0.173	0.163	0.180	0.187	0.181	0.242	0.189	0.197	0.229	0.235
