Sample:	'1
File name:	L2025090908Óý²ÅÂ·ÇÅ.FD3
Run date:	'15:03:27, 09/09/2025
Operator:	Administrator
Comment:	'

Instrument
Model:	F-2700 FL Spectrophotometer
Serial number:	3064-004
ROM Version:	4J14000 07

Instrument parameters
Measurement type:	3-D scan
Data mode:	Fluorescence
EX  Start WL:	220.0 nm
EX  End WL:	600.0 nm
EX Sampling interval:	5.0 nm
EM  Start WL:	230.0 nm
EM  End WL:	650.0 nm
EM Sampling interval:	5.0 nm
Scan speed:	12000 nm/min
EX Slit:	5.0 nm
EM Slit:	5.0 nm
PMT Voltage:	700 V
Response:	Auto 
Corrected spectra:	Off
Contour interval:	50.000

Peak integration
Integration method:	Rectangular
Sensitivity:	1
Threshold:	1.000

Peaks
No.	ApexEX/EM(nm)	Height(Data)
1	225.0/610.0	29.78
2	230.0/575.0	46.88
3	230.0/585.0	43.35
4	235.0/345.0	994.0
5	235.0/615.0	28.27
6	235.0/625.0	27.79
7	240.0/520.0	249.3
8	240.0/610.0	28.85
9	245.0/530.0	230.1
10	245.0/630.0	25.18
11	250.0/270.0	423.1
12	250.0/545.0	224.2
13	255.0/280.0	672.8
14	255.0/555.0	190.4
15	260.0/285.0	883.3
16	260.0/570.0	177.5
17	265.0/290.0	 1004
18	265.0/580.0	185.2
19	270.0/295.0	 1445
20	270.0/380.0	 1371
21	270.0/590.0	157.4
22	275.0/305.0	 1763
23	275.0/375.0	 1376
24	275.0/605.0	161.6
25	280.0/310.0	 1786
26	280.0/340.0	 1462
27	280.0/615.0	144.3
28	285.0/315.0	 1740
29	285.0/365.0	 1411
30	285.0/630.0	106.2
31	290.0/320.0	 1640
32	290.0/640.0	89.68
33	305.0/340.0	 1059
34	310.0/345.0	933.3
35	315.0/355.0	835.2
36	320.0/360.0	891.4
37	325.0/245.0	7.604
38	325.0/365.0	865.6
39	330.0/375.0	804.8
40	335.0/380.0	842.6
41	340.0/385.0	820.2
42	350.0/400.0	725.4
43	355.0/405.0	703.7
44	430.0/505.0	83.23
45	435.0/510.0	67.92
46	445.0/525.0	49.59
47	450.0/530.0	39.93
48	460.0/340.0	3.963
49	460.0/545.0	27.27
50	475.0/565.0	12.24
51	505.0/275.0	3.081
52	510.0/280.0	3.941
53	520.0/285.0	4.473
54	530.0/290.0	4.157
55	540.0/295.0	5.940
56	545.0/300.0	6.718
57	550.0/305.0	7.794
58	560.0/310.0	7.897
59	570.0/315.0	7.990
60	575.0/320.0	8.256
61	585.0/325.0	7.979
62	590.0/330.0	6.718

Data points
	220.0	225.0	230.0	235.0	240.0	245.0	250.0	255.0	260.0	265.0	270.0	275.0	280.0	285.0	290.0	295.0	300.0	305.0	310.0	315.0	320.0	325.0	330.0	335.0	340.0	345.0	350.0	355.0	360.0	365.0	370.0	375.0	380.0	385.0	390.0	395.0	400.0	405.0	410.0	415.0	420.0	425.0	430.0	435.0	440.0	445.0	450.0	455.0	460.0	465.0	470.0	475.0	480.0	485.0	490.0	495.0	500.0	505.0	510.0	515.0	520.0	525.0	530.0	535.0	540.0	545.0	550.0	555.0	560.0	565.0	570.0	575.0	580.0	585.0	590.0	595.0	600.0
230.0	18.28	902.6	 4748	 2663	120.8	7.942	7.142	3.415	3.589	2.942	3.326	3.341	2.764	3.056	2.133	2.526	1.922	1.477	1.599	1.477	1.248	2.587	1.120	0.785	1.110	0.882	0.735	0.625	0.571	0.759	0.603	0.597	0.556	0.365	0.463	0.497	0.689	0.481	0.332	0.413	0.382	0.552	0.537	0.265	0.450	0.342	1.595	6.648	10.66	7.379	2.803	0.566	0.207	0.200	0.166	0.142	0.113	0.170	0.068	0.057	0.104	0.030	-0.021	0.025	0.027	0.008	-0.016	0.008	0.060	-0.032	-0.007	-0.012	-0.051	-0.049	-0.065	-0.015	-0.048
235.0	50.21	227.4	 2046	 5618	 3018	254.6	9.347	3.608	4.911	2.840	2.769	4.126	4.425	3.481	2.641	2.155	2.034	1.813	1.434	1.643	1.138	6.144	1.020	1.237	1.094	0.701	0.562	0.585	0.848	0.654	0.731	0.590	0.552	0.774	0.542	0.381	0.673	0.610	0.504	0.317	0.391	0.391	0.492	0.484	0.795	0.394	0.720	1.847	3.747	7.643	10.85	8.952	4.351	0.679	0.119	0.229	0.162	0.116	0.145	0.037	0.048	0.064	0.018	0.124	0.215	0.046	-0.001	-0.026	0.028	0.103	0.046	-0.104	-0.093	-0.110	-0.070	-0.073	-0.087
240.0	51.90	116.9	520.4	 3346	 7374	 3191	131.4	5.309	4.832	4.365	5.318	4.118	3.635	3.638	3.080	2.176	2.707	2.065	1.560	1.545	1.247	7.420	1.361	1.235	1.404	0.890	0.800	0.703	0.769	0.649	0.652	0.536	0.633	0.650	0.510	0.274	0.635	0.537	0.523	0.480	0.352	0.275	0.437	0.531	0.796	0.553	0.627	0.658	0.962	2.299	6.103	11.71	13.91	9.445	2.445	0.497	0.274	0.161	0.215	0.102	0.054	0.042	-0.016	0.004	0.113	0.142	-0.045	0.005	0.046	-0.006	0.056	0.016	-0.007	-0.072	-0.043	-0.129	-0.105
245.0	34.42	123.8	175.0	898.1	 5285	 8251	840.3	35.65	6.725	5.300	7.104	5.532	3.727	2.827	3.716	3.399	2.729	1.869	1.659	1.700	1.134	7.604	1.093	1.002	0.793	1.135	0.825	0.478	0.787	0.772	0.694	0.581	0.654	0.324	0.428	0.443	0.490	0.402	0.395	0.328	0.360	0.370	0.337	0.351	0.733	0.582	0.802	0.912	0.495	0.889	1.630	4.031	11.05	18.10	16.64	8.811	1.694	0.235	0.328	0.142	0.061	0.007	-0.015	0.056	0.097	0.088	0.150	-0.014	-0.003	0.069	-0.008	-0.069	0.033	0.089	0.011	-0.111	-0.089
250.0	16.15	64.10	167.5	308.4	 1373	 5313	 7992	 2720	228.0	9.882	9.032	7.273	5.560	4.271	4.502	3.650	3.067	1.715	1.964	1.608	1.543	5.017	1.266	1.200	1.057	1.194	0.870	0.669	0.878	0.629	0.701	0.846	0.514	0.396	0.330	0.469	0.679	0.342	0.388	0.427	0.403	0.507	0.337	0.251	0.544	0.489	0.468	0.771	0.816	0.915	0.768	1.191	2.928	6.238	10.98	17.32	19.43	15.68	7.921	2.020	0.259	0.113	0.026	0.020	0.112	0.056	0.036	0.064	0.063	0.040	0.040	0.004	0.026	0.048	-0.006	-0.075	-0.063
255.0	12.89	32.17	80.96	270.9	456.2	 1243	 3961	 7216	 4480	290.8	11.90	11.02	8.872	4.738	5.147	4.291	2.987	1.921	1.715	1.824	1.329	2.494	1.507	1.039	1.188	0.977	0.737	0.825	1.089	0.834	0.627	0.610	0.509	0.464	0.427	0.443	0.772	0.373	0.377	0.425	0.468	0.504	0.459	0.409	0.533	0.436	0.418	0.358	0.629	0.936	1.205	1.135	1.257	1.750	2.836	4.385	8.340	19.69	33.74	28.97	12.21	1.592	0.088	0.210	0.109	0.108	0.060	0.178	0.204	-0.059	-0.021	0.110	0.018	0.027	0.026	-0.041	0.048
260.0	18.29	21.04	30.83	160.5	393.1	392.2	992.3	 3721	9999.9	 3762	154.8	15.20	10.17	6.232	7.009	4.622	3.610	2.615	1.743	2.336	1.654	1.812	1.689	1.280	0.960	0.922	1.373	1.045	1.156	0.673	0.694	0.798	0.800	0.738	0.617	0.458	0.336	0.309	0.213	0.414	0.512	0.335	0.402	0.441	0.551	0.374	0.335	0.338	0.440	0.472	0.911	1.763	1.597	1.049	0.889	1.183	2.370	5.689	16.75	33.25	42.44	27.91	7.177	0.718	0.175	0.119	0.150	0.180	0.198	-0.021	-0.089	0.212	0.054	0.058	-0.074	-0.054	-0.036
265.0	29.47	28.99	21.09	68.35	293.2	395.7	293.2	996.8	 6581	9999.9	 2747	65.76	12.71	9.812	8.633	5.600	3.719	3.238	2.266	2.364	1.951	2.184	2.116	1.223	1.213	1.147	1.045	1.048	1.301	1.243	0.873	0.912	0.906	0.684	0.622	0.540	0.697	0.314	0.373	0.386	0.438	0.439	0.290	0.447	0.555	0.301	0.395	0.309	0.357	0.336	0.511	0.865	1.519	2.044	1.296	0.822	0.763	1.521	4.162	11.08	27.25	47.74	46.00	23.30	3.361	0.258	0.272	0.138	0.147	0.070	0.065	0.114	0.169	0.090	-0.040	-0.055	0.099
270.0	33.06	36.25	31.39	32.05	107.7	353.9	423.1	318.3	 1716	 6027	9999.9	 7015	174.8	17.03	10.44	6.620	5.293	3.961	3.022	2.224	2.520	2.005	2.111	1.723	1.803	1.307	1.290	1.124	1.230	1.294	1.052	0.801	0.997	0.774	0.528	0.506	0.887	0.429	0.557	0.425	0.465	0.401	0.409	0.459	0.751	0.273	0.491	0.297	0.426	0.286	0.443	0.405	0.614	1.172	1.771	1.952	1.653	1.135	1.250	2.717	6.847	15.21	28.47	44.12	46.18	46.41	17.04	3.230	0.323	0.325	0.192	0.091	0.459	0.121	0.028	0.007	0.077
275.0	56.55	65.40	69.02	49.88	55.06	135.7	420.8	559.7	484.9	 1446	 4025	9999.9	9999.9	210.9	18.30	10.34	7.009	6.511	4.286	3.118	2.765	2.253	2.427	1.740	2.029	1.799	1.226	1.109	1.205	1.408	0.622	0.643	1.066	0.571	0.809	0.659	0.787	0.619	0.694	0.554	0.571	0.534	0.385	0.654	0.512	0.415	0.606	0.464	0.595	0.353	0.394	0.329	0.346	0.596	0.683	1.106	2.152	3.081	1.910	1.225	1.917	3.741	6.851	10.94	18.57	50.17	74.24	48.36	21.98	2.927	0.133	0.093	0.395	0.029	0.102	0.118	0.051
280.0	103.1	141.6	104.2	85.93	63.35	84.28	220.0	672.8	519.8	462.6	 1102	 5592	9999.9	 2569	128.6	14.89	10.16	7.608	4.275	3.773	3.253	2.491	2.039	1.822	2.291	1.711	1.235	1.060	1.880	1.118	0.984	0.766	1.198	0.739	0.622	0.935	1.169	0.833	0.748	0.759	0.618	0.504	0.765	0.830	0.908	0.897	0.719	0.876	0.758	0.623	0.463	0.561	0.378	0.442	0.513	0.612	0.889	2.551	3.941	3.211	1.628	1.466	2.042	3.142	5.225	13.84	32.90	65.28	90.15	43.32	11.15	0.610	0.253	0.047	0.109	0.263	-0.024
285.0	134.7	173.3	175.7	120.9	84.38	88.91	128.2	399.5	883.3	461.2	490.8	 1620	 7326	9999.9	 1950	51.59	12.41	8.147	5.622	4.441	2.839	2.959	2.286	1.595	2.769	1.608	1.332	1.315	2.103	0.886	0.936	0.871	1.172	0.958	0.705	1.010	1.424	1.121	0.925	0.753	0.975	0.797	1.180	1.053	1.297	1.140	1.081	0.972	0.929	0.821	0.617	0.641	0.503	0.392	0.397	0.535	0.764	1.335	2.238	3.865	4.473	2.291	1.280	1.631	2.432	4.269	8.790	20.14	51.47	87.02	55.67	30.73	4.166	0.391	0.236	0.191	0.050
290.0	187.8	259.1	275.5	187.1	130.3	134.4	150.4	237.6	601.6	 1004	734.7	795.9	 2121	 6654	9999.9	 6513	104.2	13.45	7.932	6.013	3.720	3.582	3.080	2.991	2.716	1.842	1.662	1.562	1.521	1.380	1.040	1.049	1.103	0.945	0.839	0.853	1.585	1.238	1.237	1.211	1.200	1.178	1.206	1.152	1.620	1.349	1.303	1.205	1.246	1.035	0.942	0.842	0.764	0.586	0.592	0.740	0.745	0.890	1.193	1.919	3.037	3.802	4.157	3.460	2.559	2.763	3.653	6.192	13.20	26.14	38.72	64.19	61.89	73.11	20.70	4.603	0.369
295.0	215.4	314.2	341.9	270.3	203.6	202.6	210.5	257.4	407.8	765.1	 1445	940.5	986.0	 1840	 3793	9999.9	9999.9	136.1	12.56	7.623	5.809	4.369	3.358	3.312	3.605	2.137	1.912	1.968	2.018	1.460	1.013	1.295	1.277	1.310	1.069	0.934	1.976	1.775	1.338	1.429	1.382	1.374	1.249	1.342	1.717	1.950	1.436	1.832	1.528	1.391	1.042	1.000	0.978	1.021	0.800	0.926	1.031	1.113	1.212	1.627	1.727	2.348	3.700	5.748	5.940	3.974	3.241	3.754	4.808	7.464	9.837	15.90	21.47	69.41	97.99	56.56	29.36
300.0	249.7	364.9	403.3	304.0	235.9	245.0	271.3	283.8	403.4	617.4	 1303	 1582	928.7	871.7	 1159	 4240	9999.9	 7062	87.94	10.82	8.109	5.963	3.632	3.478	3.704	3.189	1.957	2.081	2.111	1.417	1.264	1.270	1.001	1.461	1.047	1.150	1.894	1.400	1.833	1.534	1.418	1.331	1.453	1.550	1.720	1.725	1.932	1.822	1.838	1.502	1.186	1.061	1.083	1.222	0.974	1.258	1.313	1.306	1.391	1.797	1.693	1.961	2.721	3.891	5.852	6.718	6.008	3.694	3.538	4.118	3.805	4.890	5.756	17.88	36.93	76.68	109.5
305.0	262.4	379.5	425.7	364.2	267.9	284.0	325.7	355.6	456.6	654.8	 1019	 1763	 1423	782.2	637.0	 1198	 6210	9999.9	 1239	49.05	10.02	7.369	5.228	4.317	4.148	3.224	2.192	2.121	2.004	1.591	1.299	1.260	1.336	1.264	1.018	0.897	1.952	1.379	1.951	1.518	1.411	1.522	1.257	1.674	1.953	1.703	1.884	2.175	1.907	1.640	1.293	1.137	1.391	1.433	1.055	1.328	1.313	1.340	1.304	1.740	1.925	2.188	2.773	3.343	4.246	6.419	7.794	7.234	5.042	3.712	3.125	2.823	3.013	5.207	9.392	21.37	54.56
310.0	280.2	405.6	472.2	409.5	312.1	343.9	362.9	420.7	551.6	713.6	968.6	 1345	 1786	 1302	686.5	577.3	 1638	 5426	9999.9	 4965	75.49	11.31	6.761	5.554	5.161	3.670	2.336	2.335	2.296	1.924	1.538	1.375	1.531	1.052	1.129	0.889	1.970	1.325	1.642	1.569	1.574	1.441	1.298	1.442	1.876	1.910	1.891	2.091	2.074	1.713	1.545	1.398	1.501	1.395	1.116	1.370	1.510	1.585	1.844	1.868	2.176	2.641	2.864	3.243	4.037	4.770	5.401	7.082	7.897	6.486	4.789	3.523	3.006	3.032	3.459	5.827	13.57
315.0	291.2	431.3	512.1	444.8	351.0	367.7	414.9	472.1	600.3	798.8	 1010	 1220	 1426	 1740	 1153	560.8	623.9	 1385	 3080	9999.9	 7214	101.2	11.94	7.666	6.929	4.984	2.962	2.220	2.919	2.500	1.933	1.282	1.465	1.130	1.082	0.945	1.652	1.153	1.574	1.621	1.652	1.759	1.645	1.524	2.067	2.250	1.808	2.017	2.116	1.489	1.357	1.583	1.431	1.322	1.226	1.563	1.798	1.700	2.022	2.131	2.337	2.906	3.060	3.674	3.913	4.427	4.559	5.085	5.275	6.892	7.990	6.174	4.074	3.151	2.414	2.771	4.192
320.0	326.2	478.0	613.8	501.8	379.2	409.0	440.9	531.2	646.7	857.7	 1057	 1245	 1337	 1519	 1640	782.9	471.3	530.9	832.3	 3886	9999.9	 5639	67.03	10.09	9.155	5.398	3.606	2.806	2.709	2.444	1.774	1.175	1.649	1.378	1.244	1.258	1.956	1.460	1.474	1.641	1.676	1.559	1.643	1.820	2.273	2.497	2.111	2.522	2.361	1.875	1.710	1.877	1.589	1.628	1.607	1.635	2.006	1.778	2.051	2.461	2.809	3.684	3.069	3.921	3.805	5.096	4.557	5.144	5.319	6.230	6.738	8.256	6.852	4.690	2.766	2.631	2.485
325.0	343.0	563.1	745.5	655.5	450.9	444.3	456.4	542.4	700.4	894.2	 1115	 1299	 1410	 1408	 1565	 1246	558.9	398.7	368.1	 1013	 5406	9999.9	920.2	39.67	11.56	6.335	4.300	3.088	3.220	2.641	1.875	1.582	1.909	1.547	1.123	1.295	2.051	1.432	1.592	1.522	1.649	1.504	1.645	1.980	2.130	2.510	2.352	2.768	2.867	2.652	2.078	1.887	1.818	1.860	1.745	1.952	2.035	1.934	2.498	2.361	2.653	3.572	3.613	4.379	4.184	4.784	4.889	5.265	5.537	6.026	5.464	6.216	7.637	7.979	4.887	2.864	2.518
330.0	365.5	618.1	861.4	813.4	560.3	509.0	513.9	585.5	745.3	940.7	 1164	 1350	 1448	 1397	 1328	 1304	989.6	502.6	326.7	397.0	 1369	 5091	 9784	 3872	62.62	10.17	5.886	4.904	4.105	2.843	2.250	1.993	2.042	1.637	1.392	1.416	2.135	1.439	1.330	1.842	1.734	1.737	1.601	1.922	2.547	2.637	3.022	3.137	3.458	3.017	2.681	2.479	1.806	2.135	1.773	1.864	2.081	2.093	2.469	2.769	3.151	3.417	3.796	4.681	4.634	4.858	5.207	5.593	6.092	5.990	5.704	5.384	5.965	6.676	6.718	6.310	4.693
335.0	402.5	627.2	915.0	888.9	652.3	570.9	562.0	626.5	781.8	944.4	 1185	 1358	 1452	 1429	 1283	 1093	 1101	884.3	416.1	321.4	475.8	 1255	 3012	9999.9	 6169	80.67	10.74	6.605	4.649	3.466	2.605	2.416	2.274	1.594	1.805	1.264	2.255	1.442	1.631	1.688	1.938	1.700	1.692	1.875	2.609	2.869	3.159	3.516	3.884	3.730	2.771	2.789	2.326	2.099	2.238	2.335	2.084	2.444	2.696	2.824	3.250	3.790	4.215	4.113	4.978	4.960	5.552	5.613	6.121	6.217	5.362	5.000	5.475	5.650	5.052	4.929	6.762
340.0	407.5	646.7	941.9	976.9	765.6	673.1	620.7	673.1	805.0	975.1	 1184	 1356	 1462	 1434	 1313	 1071	950.1	 1059	657.5	358.9	311.2	432.7	790.8	 4147	9999.9	 4515	55.83	8.635	6.197	4.966	3.127	2.543	2.475	1.878	1.695	1.341	2.568	1.801	1.454	1.474	1.536	1.695	1.776	2.026	2.626	2.545	3.018	3.547	3.963	3.660	2.837	2.952	2.637	2.290	2.200	2.414	2.170	2.514	2.746	2.903	3.385	3.716	3.907	4.132	4.977	5.470	5.512	5.594	6.302	5.843	5.793	5.808	5.957	5.480	5.100	4.464	5.326
345.0	412.3	618.4	938.5	994.0	813.1	719.1	695.2	689.5	826.1	 1011	 1184	 1339	 1454	 1448	 1309	 1088	890.5	911.7	933.3	482.1	322.8	295.8	316.3	 1065	 6355	9999.9	760.4	35.06	8.179	6.083	3.582	2.859	2.773	1.694	1.781	1.520	2.218	1.593	1.671	1.328	1.736	1.550	1.627	2.007	2.650	2.656	2.864	3.595	3.851	3.402	3.483	2.889	3.197	2.795	2.113	2.603	2.839	2.676	2.794	3.123	3.180	3.524	4.368	4.274	4.855	4.892	5.506	5.438	5.566	5.830	5.628	5.919	6.012	5.801	5.132	4.784	4.762
350.0	364.1	584.3	892.4	967.9	890.0	812.8	783.6	782.0	896.9	 1028	 1191	 1337	 1425	 1427	 1309	 1109	922.2	816.2	872.5	801.1	477.4	333.7	278.0	396.4	 1609	 5198	 8633	 3236	53.47	8.924	5.009	3.684	3.130	2.205	1.896	1.754	2.464	1.723	1.693	1.512	1.728	1.624	1.530	1.852	2.647	2.319	3.124	3.339	3.444	3.290	3.474	3.278	3.194	2.951	2.969	2.809	2.936	3.069	2.779	3.439	3.535	3.626	4.192	4.396	4.692	5.108	5.142	5.179	5.629	5.817	5.543	5.766	5.790	5.527	5.375	4.932	4.523
355.0	361.0	548.3	843.6	935.8	944.0	897.6	895.9	893.5	 1029	 1113	 1254	 1346	 1413	 1406	 1317	 1156	977.5	850.1	774.0	835.2	797.2	471.7	343.5	310.3	519.4	 1276	 2899	 9794	 5155	71.69	7.858	5.490	4.140	2.503	2.137	1.468	2.836	1.648	1.645	1.436	1.828	1.661	1.843	1.824	2.567	2.187	2.685	2.976	3.832	3.121	3.149	3.673	3.611	3.383	3.376	2.961	3.317	3.077	3.336	3.839	4.070	4.142	4.308	4.772	4.694	4.947	5.055	5.223	5.644	5.632	5.548	5.816	5.768	5.292	5.657	5.208	4.793
360.0	327.6	515.8	786.2	949.5	956.2	981.8	989.8	 1004	 1102	 1210	 1301	 1356	 1397	 1401	 1337	 1191	 1019	898.7	792.7	766.0	891.4	685.9	415.5	342.4	320.7	433.3	764.2	 4175	9999.9	 3902	47.47	7.431	5.503	3.331	2.377	1.618	2.913	1.706	1.674	1.308	1.511	1.736	1.711	1.727	2.579	2.182	2.474	3.022	3.379	3.162	3.257	3.751	3.563	3.408	3.553	3.924	4.047	3.616	3.877	4.058	4.052	4.608	4.752	5.475	5.217	5.193	5.514	5.378	5.686	5.981	5.628	6.160	5.944	5.226	5.788	5.712	5.467
365.0	330.3	503.2	793.0	932.2	990.0	 1029	 1060	 1073	 1150	 1233	 1360	 1383	 1398	 1411	 1328	 1195	 1047	938.3	838.2	766.8	812.7	865.6	567.2	403.9	324.5	279.0	298.2	 1070	 6003	9999.9	679.0	27.37	7.264	3.873	3.340	1.961	3.389	1.771	2.095	1.363	1.676	1.545	1.758	1.773	2.521	2.191	2.513	2.925	3.109	3.110	3.178	3.317	3.683	3.696	3.683	4.057	4.460	3.874	4.342	4.909	4.010	4.403	4.830	5.070	5.111	4.748	5.633	5.053	5.885	5.815	5.898	5.914	5.783	5.836	5.713	5.456	5.597
370.0	344.9	488.7	733.0	892.0	988.7	 1093	 1119	 1150	 1238	 1284	 1356	 1369	 1385	 1395	 1316	 1201	 1082	991.7	908.5	828.1	783.9	824.7	798.5	555.6	394.8	312.1	249.1	368.4	 1515	 5246	 8011	 2808	43.99	6.763	4.181	2.697	3.992	2.044	2.195	1.770	1.920	1.681	1.738	1.827	2.354	2.304	2.259	2.819	2.857	3.050	3.179	3.530	3.594	4.037	3.938	3.863	4.334	3.926	4.753	4.882	4.293	4.901	5.065	5.213	4.870	5.209	5.388	5.298	5.638	5.972	5.719	5.954	5.825	5.482	5.799	5.405	5.459
375.0	347.5	470.0	723.7	853.6	995.7	 1113	 1188	 1210	 1282	 1280	 1355	 1376	 1364	 1356	 1299	 1191	 1094	 1030	954.1	889.1	825.6	784.1	804.8	793.4	527.3	392.2	297.4	264.8	461.7	 1258	 2920	 9151	 4316	55.98	6.346	3.735	5.104	2.710	2.014	2.221	2.147	1.735	1.718	2.036	2.585	2.137	2.076	2.694	3.033	2.856	3.169	3.545	3.827	4.109	3.857	4.345	4.352	4.180	4.333	4.742	4.198	4.841	4.887	5.252	5.005	5.050	5.326	5.086	5.643	5.486	5.405	5.392	5.853	5.463	5.870	5.436	5.551
380.0	357.5	463.3	685.5	849.0	983.3	 1135	 1198	 1249	 1303	 1293	 1371	 1370	 1357	 1328	 1291	 1202	 1113	 1043	980.3	922.4	852.2	808.9	764.7	842.6	698.0	464.7	351.3	281.0	260.1	391.2	744.9	 4188	9999.9	 2941	34.92	5.569	6.484	2.897	2.715	2.331	2.225	2.287	1.712	1.789	2.621	2.012	2.116	2.313	2.693	2.830	3.409	3.444	3.620	4.066	3.945	4.235	4.856	4.165	4.399	4.607	4.830	4.565	5.132	4.996	5.091	4.885	5.217	5.014	5.599	5.294	5.667	5.408	5.744	5.771	5.736	5.817	5.834
385.0	322.2	459.1	649.3	844.9	972.7	 1121	 1170	 1233	 1275	 1308	 1343	 1319	 1326	 1304	 1264	 1173	 1104	 1054	991.1	938.9	878.6	837.2	770.3	780.9	820.2	579.7	408.0	322.7	249.9	225.3	260.3	 1065	 6993	 8996	527.5	18.13	7.911	3.383	2.760	2.446	2.280	1.828	1.861	2.114	2.678	1.936	2.091	2.419	2.729	2.760	3.066	3.248	3.491	4.313	3.716	3.944	4.249	4.541	4.635	4.641	4.916	4.809	5.159	5.002	5.081	4.572	5.550	5.100	5.425	5.115	5.466	5.464	5.372	5.708	6.118	5.714	5.448
390.0	288.0	426.2	620.7	807.0	981.7	 1107	 1165	 1211	 1254	 1279	 1295	 1278	 1284	 1247	 1210	 1139	 1083	 1049	996.8	954.1	909.1	858.7	795.7	751.1	770.2	738.0	528.5	386.4	292.5	231.8	187.5	326.7	 1752	 4769	 6602	 2081	37.12	5.571	4.016	2.998	2.962	2.086	1.992	1.982	2.450	2.195	2.031	2.549	2.482	2.702	2.957	3.306	3.704	3.845	3.916	4.017	4.462	4.385	4.623	4.665	4.819	4.786	4.857	5.119	4.548	5.096	4.855	5.027	5.212	5.227	5.263	5.275	5.324	5.239	5.449	5.597	5.773
395.0	279.9	421.9	591.9	769.4	966.4	 1071	 1145	 1205	 1220	 1221	 1261	 1234	 1239	 1207	 1159	 1102	 1052	 1023	992.0	952.6	922.0	875.5	820.9	771.9	729.7	723.2	709.7	492.9	350.7	275.0	209.1	193.0	474.2	 1122	 2537	 6820	 3866	45.40	6.453	3.958	4.070	2.504	2.194	1.951	2.899	2.114	2.131	2.659	3.064	2.636	2.596	3.373	3.641	3.770	3.688	4.417	4.404	4.429	4.502	4.843	4.721	4.872	4.093	5.272	4.290	4.882	4.906	5.123	5.146	5.081	4.794	4.807	5.104	5.302	5.997	5.717	5.558
400.0	282.2	416.1	564.8	727.1	949.6	 1048	 1131	 1176	 1192	 1190	 1220	 1223	 1195	 1164	 1121	 1067	 1032	 1001	969.1	947.2	919.5	888.8	831.1	783.8	726.2	685.7	725.4	621.1	413.4	323.0	241.7	189.5	208.6	318.0	631.7	 3331	9999.9	 2306	28.60	5.763	4.421	2.382	2.276	1.965	2.661	2.193	2.484	2.598	2.667	2.437	2.717	3.189	3.672	3.859	4.039	4.402	4.210	4.482	4.348	4.273	4.485	4.868	4.022	4.757	4.354	4.641	4.661	4.717	4.946	5.373	4.766	4.371	5.099	5.125	5.203	5.247	5.196
405.0	247.8	391.6	575.6	767.5	875.9	 1009	 1101	 1161	 1180	 1192	 1211	 1187	 1163	 1123	 1094	 1036	993.1	981.2	950.9	932.6	903.7	874.4	834.6	787.1	734.1	684.2	670.7	703.7	516.7	366.0	280.1	209.5	167.0	151.6	195.9	849.6	 9447	 6863	443.4	14.73	5.501	3.269	2.769	2.199	3.515	2.142	1.973	2.673	2.325	2.509	2.423	3.339	3.635	3.499	3.694	4.225	4.226	4.384	4.279	4.082	4.795	4.675	4.568	4.374	4.586	4.220	4.156	4.545	4.934	5.193	4.645	4.755	5.300	5.068	5.231	5.290	4.881
410.0	276.4	366.1	558.5	709.6	859.6	966.8	 1067	 1138	 1158	 1156	 1163	 1133	 1116	 1081	 1051	996.9	955.7	946.0	918.1	907.5	880.8	861.7	826.1	792.1	745.2	700.5	644.5	644.9	623.8	461.6	327.3	247.7	188.4	143.0	117.3	242.7	 2381	 3647	 4672	 1848	28.99	4.531	3.117	2.775	3.982	2.431	1.964	2.376	2.431	2.580	2.481	3.098	3.226	3.561	3.861	3.837	4.153	4.323	4.096	4.247	4.667	4.650	4.634	4.439	4.524	4.326	4.331	4.502	4.506	4.773	4.478	4.703	4.839	4.807	4.905	5.032	4.924
