Sample:	'1
File name:	¹Þ³µ300±¶.FD3
Run date:	'16:04:00, 01/12/2024
Operator:	Administrator
Comment:	'

Instrument
Model:	F-2700 FL Spectrophotometer
Serial number:	23B8-004
ROM Version:	4J14000 07

Instrument parameters
Measurement type:	3-D scan
Data mode:	Fluorescence
EX  Start WL:	220.0 nm
EX  End WL:	600.0 nm
EX Sampling interval:	5.0 nm
EM  Start WL:	230.0 nm
EM  End WL:	650.0 nm
EM Sampling interval:	5.0 nm
Scan speed:	12000 nm/min
EX Slit:	5.0 nm
EM Slit:	5.0 nm
PMT Voltage:	700 V
Response:	Auto 
Corrected spectra:	Off
Contour interval:	50.000

Peak integration
Integration method:	Rectangular
Sensitivity:	1
Threshold:	1.000

Peaks
No.	ApexEX/EM(nm)	Height(Data)
1	225.0/540.0	20.54
2	225.0/585.0	23.95
3	230.0/500.0	104.3
4	235.0/255.0	215.9
5	235.0/365.0	3221
6	235.0/515.0	100.3
7	240.0/265.0	327.2
8	240.0/525.0	102.5
9	245.0/270.0	376.1
10	245.0/535.0	106.3
11	250.0/275.0	534.8
12	250.0/550.0	103.4
13	255.0/280.0	698.5
14	255.0/560.0	117.3
15	260.0/575.0	112.7
16	265.0/310.0	4678
17	270.0/605.0	304.1
18	290.0/325.0	1412
19	300.0/365.0	5815
20	350.0/400.0	241.9
21	355.0/405.0	216.8
22	365.0/420.0	173.4
23	370.0/425.0	155.4
24	380.0/440.0	109.7
25	385.0/445.0	92.86
26	395.0/460.0	62.70
27	400.0/465.0	54.26
28	410.0/480.0	35.03
29	415.0/310.0	3.638
30	415.0/485.0	30.41
31	425.0/500.0	22.60
32	430.0/505.0	19.87
33	440.0/520.0	15.31
34	445.0/525.0	13.01
35	455.0/540.0	9.251
36	470.0/560.0	4.306
37	475.0/365.0	13.06
38	480.0/575.0	2.645
39	485.0/265.0	1.940
40	485.0/580.0	2.250
41	495.0/270.0	2.066
42	495.0/595.0	1.768
43	505.0/275.0	3.194
44	505.0/610.0	1.509
45	510.0/280.0	3.513
46	520.0/285.0	4.240
47	530.0/310.0	19.62
48	580.0/320.0	8.220
49	585.0/325.0	6.835

Data points
	220.0	225.0	230.0	235.0	240.0	245.0	250.0	255.0	260.0	265.0	270.0	275.0	280.0	285.0	290.0	295.0	300.0	305.0	310.0	315.0	320.0	325.0	330.0	335.0	340.0	345.0	350.0	355.0	360.0	365.0	370.0	375.0	380.0	385.0	390.0	395.0	400.0	405.0	410.0	415.0	420.0	425.0	430.0	435.0	440.0	445.0	450.0	455.0	460.0	465.0	470.0	475.0	480.0	485.0	490.0	495.0	500.0	505.0	510.0	515.0	520.0	525.0	530.0	535.0	540.0	545.0	550.0	555.0	560.0	565.0	570.0	575.0	580.0	585.0	590.0	595.0	600.0
230.0	16.62	268.9	842.3	307.4	13.48	3.732	3.413	3.509	2.909	2.980	2.652	2.826	2.574	2.161	1.904	2.111	1.980	1.748	1.458	1.423	1.059	0.896	0.653	0.468	0.407	0.435	0.437	0.401	0.359	0.375	0.315	0.259	0.255	0.323	0.248	0.283	0.282	0.278	0.225	0.214	0.297	0.440	0.382	0.303	0.192	0.216	0.431	2.068	3.819	2.996	1.212	0.324	0.149	0.182	0.132	0.158	0.165	0.121	0.151	0.151	0.145	0.138	0.149	0.128	0.173	0.140	0.143	0.147	0.126	0.133	0.127	0.106	0.125	0.121	0.136	0.159	0.111
235.0	45.32	76.13	463.5	959.4	393.6	22.86	3.683	3.300	3.041	2.765	3.663	2.307	2.583	2.080	2.150	2.192	2.082	1.801	1.536	1.398	1.005	0.877	0.730	0.523	0.369	0.410	0.393	0.390	0.426	0.365	0.262	0.273	0.219	0.282	0.278	0.266	0.284	0.338	0.271	0.223	0.291	0.277	0.376	0.392	0.387	0.222	0.236	0.678	1.302	2.311	3.554	3.989	2.048	0.732	0.165	0.134	0.161	0.137	0.180	0.151	0.132	0.211	0.146	0.178	0.166	0.153	0.137	0.135	0.149	0.108	0.132	0.107	0.157	0.114	0.148	0.137	0.154
240.0	69.45	64.94	137.5	764.1	1226	391.9	14.10	4.060	3.402	3.666	2.911	3.026	2.490	2.156	2.491	2.522	1.987	1.841	1.730	1.477	1.310	1.004	0.636	0.647	0.346	0.446	0.401	0.424	0.423	0.373	0.327	0.287	0.285	0.342	0.313	0.238	0.237	0.309	0.224	0.223	0.255	0.220	0.266	0.341	0.453	0.438	0.297	0.345	0.441	0.719	1.811	4.431	5.898	4.785	2.112	0.425	0.182	0.140	0.203	0.172	0.163	0.152	0.124	0.142	0.192	0.189	0.123	0.158	0.178	0.117	0.120	0.126	0.110	0.142	0.144	0.135	0.110
245.0	53.35	122.9	69.57	256.4	1209	1625	301.0	8.608	4.098	3.271	2.579	2.742	2.365	2.347	2.893	2.426	2.151	2.085	1.617	1.495	1.160	0.854	0.692	0.578	0.425	0.484	0.351	0.467	0.360	0.377	0.289	0.353	0.262	0.350	0.249	0.238	0.292	0.242	0.174	0.226	0.259	0.237	0.249	0.299	0.280	0.401	0.626	0.605	0.401	0.302	0.556	1.472	3.712	7.018	8.384	4.973	1.301	0.211	0.171	0.153	0.164	0.147	0.162	0.100	0.164	0.193	0.149	0.189	0.166	0.133	0.130	0.102	0.126	0.137	0.157	0.162	0.103
250.0	20.30	83.26	144.3	114.6	381.0	1451	2095	834.1	50.88	5.027	4.191	3.445	3.640	2.497	2.461	2.340	2.169	2.301	1.792	1.603	1.211	0.919	0.688	0.560	0.450	0.523	0.477	0.419	0.333	0.315	0.318	0.335	0.297	0.336	0.276	0.241	0.320	0.270	0.216	0.211	0.268	0.278	0.238	0.246	0.210	0.248	0.357	0.645	0.705	0.629	0.481	0.512	1.002	2.201	4.539	7.356	9.500	8.162	4.968	1.485	0.269	0.166	0.172	0.166	0.158	0.159	0.153	0.153	0.140	0.171	0.139	0.109	0.150	0.139	0.158	0.150	0.110
255.0	13.79	26.34	102.6	215.9	153.8	369.5	1424	3372	434.4	37.47	6.422	4.924	4.094	3.149	2.759	2.752	2.521	2.433	2.106	1.831	1.488	1.048	0.727	0.493	0.470	0.400	0.402	0.464	0.477	0.386	0.406	0.326	0.308	0.458	0.303	0.344	0.237	0.254	0.264	0.198	0.256	0.267	0.245	0.204	0.224	0.234	0.228	0.291	0.372	0.621	1.101	1.009	0.788	0.667	1.188	1.886	3.470	7.366	14.05	15.00	7.329	1.536	0.271	0.164	0.219	0.167	0.146	0.166	0.153	0.176	0.141	0.126	0.164	0.155	0.130	0.137	0.167
260.0	13.32	14.11	39.80	195.7	240.3	132.2	416.8	2618	3347	345.6	22.73	6.161	4.770	3.442	3.030	2.843	2.485	2.514	2.104	2.050	1.232	1.137	0.871	0.594	0.492	0.517	0.469	0.483	0.490	0.417	0.348	0.356	0.350	0.491	0.233	0.277	0.226	0.208	0.269	0.274	0.258	0.249	0.213	0.307	0.286	0.254	0.236	0.219	0.236	0.289	0.684	1.535	1.467	0.803	0.562	0.581	1.047	2.098	5.803	12.97	17.54	14.01	6.363	0.640	0.175	0.189	0.160	0.165	0.158	0.145	0.169	0.107	0.129	0.152	0.149	0.127	0.205
265.0	17.70	12.33	18.80	88.00	327.2	211.8	133.2	857.4	3595	2864	281.1	9.887	6.091	3.612	3.762	3.733	2.500	2.257	2.203	1.880	1.402	1.087	0.818	0.513	0.500	0.565	0.550	0.492	0.509	0.488	0.350	0.360	0.457	0.389	0.253	0.308	0.313	0.250	0.267	0.255	0.345	0.345	0.229	0.300	0.213	0.190	0.209	0.206	0.191	0.203	0.314	0.755	1.462	1.940	1.312	0.536	0.476	0.738	1.615	3.899	8.966	17.67	25.19	11.74	2.573	0.266	0.216	0.160	0.136	0.124	0.199	0.141	0.150	0.182	0.192	0.173	0.146
270.0	34.20	19.61	18.96	33.31	157.4	376.1	284.3	268.7	1127	3287	4367	967.9	39.23	5.280	5.162	3.961	3.321	2.832	2.405	2.259	1.605	1.213	0.888	0.649	0.689	0.574	0.681	0.546	0.443	0.538	0.409	0.444	0.488	0.599	0.492	0.452	0.402	0.415	0.417	0.471	0.438	0.389	0.390	0.397	0.261	0.322	0.249	0.229	0.242	0.186	0.195	0.350	0.566	1.040	1.608	2.066	1.799	0.993	0.786	1.224	2.401	5.247	12.14	14.99	18.10	15.90	8.643	2.018	0.287	0.174	0.191	0.209	0.169	0.153	0.175	0.209	0.150
275.0	79.50	48.67	36.18	28.25	60.62	179.3	534.8	371.7	359.6	884.2	3229	6042	1284	26.41	6.359	5.262	4.220	3.315	2.868	2.349	1.703	1.310	0.985	0.755	0.867	0.599	0.674	0.562	0.496	0.524	0.313	0.517	0.643	1.045	0.737	0.635	0.665	0.606	0.689	0.668	0.733	0.528	0.584	0.459	0.393	0.402	0.314	0.297	0.301	0.226	0.209	0.219	0.377	0.424	0.608	1.205	2.460	3.194	2.044	1.104	1.062	1.688	3.179	3.947	5.788	11.88	24.49	24.71	11.21	1.961	0.203	0.212	0.169	0.180	0.220	0.211	0.164
280.0	114.5	86.31	55.34	32.72	38.65	88.42	360.1	698.5	325.7	336.8	978.4	4663	6809	216.6	14.78	6.153	4.893	4.147	2.858	2.646	1.809	1.322	1.147	0.797	0.741	0.647	0.563	0.595	0.535	0.486	0.381	0.684	0.643	0.976	0.771	0.751	0.891	0.760	0.837	0.887	0.852	0.729	0.741	0.607	0.480	0.502	0.394	0.448	0.393	0.291	0.263	0.298	0.324	0.328	0.326	0.528	1.133	2.371	3.513	3.239	1.734	1.059	1.308	1.499	2.008	3.423	8.985	18.74	27.45	22.14	8.338	0.927	0.321	0.145	0.247	0.185	0.159
285.0	143.9	120.7	81.00	45.32	41.92	65.59	181.1	645.7	672.3	293.4	392.3	1488	7234	3868	156.5	9.783	5.916	5.180	3.351	3.143	2.214	1.680	1.082	0.922	0.665	0.653	0.669	0.754	0.584	0.671	0.501	0.473	0.668	1.169	1.087	0.924	0.947	0.920	0.926	0.880	1.010	0.894	0.789	0.822	0.503	0.648	0.550	0.488	0.549	0.316	0.356	0.349	0.270	0.341	0.310	0.417	0.660	1.021	1.952	3.883	4.240	2.623	1.231	1.116	1.208	1.449	2.629	5.304	12.49	24.74	32.92	15.48	5.669	0.469	0.234	0.323	0.210
290.0	180.2	156.4	115.8	72.19	62.09	83.96	145.8	345.9	767.9	711.1	376.5	548.7	2170	3778	3654	620.3	30.86	6.901	4.285	3.828	2.446	1.950	1.308	1.114	0.859	0.795	0.668	0.688	0.579	0.696	0.489	0.526	0.789	1.204	1.190	1.073	1.057	1.116	0.951	1.016	1.066	0.933	1.009	0.818	0.806	0.757	0.680	0.701	0.581	0.417	0.406	0.421	0.351	0.392	0.417	0.487	0.665	0.867	1.125	1.882	2.976	4.015	4.143	3.333	1.950	1.409	1.593	2.027	3.688	6.891	14.01	17.39	25.96	19.13	12.18	3.438	0.540
295.0	251.9	219.7	158.7	131.4	161.8	266.0	416.9	510.8	947.7	1431	1353	783.8	733.8	1129	3181	6537	807.3	31.82	6.370	5.381	3.033	2.205	1.763	1.054	1.054	0.938	0.861	0.720	0.676	0.714	0.493	0.685	0.749	1.247	1.347	1.218	1.302	1.393	1.172	1.203	1.279	1.183	1.142	1.189	1.025	0.993	0.900	0.971	0.702	0.636	0.624	0.694	0.811	0.991	1.029	1.300	1.826	2.084	2.590	3.037	3.488	4.201	5.059	7.070	7.035	4.609	3.349	2.648	2.755	3.148	4.245	5.113	7.643	11.38	25.70	28.04	16.18
300.0	459.0	351.6	270.4	287.5	470.0	701.7	1437	2107	2717	2972	2931	2227	1290	1092	1542	5804	4759	136.0	14.19	6.812	3.761	2.435	2.216	1.531	1.492	1.176	0.973	1.054	0.789	0.810	0.664	0.715	0.896	1.485	1.670	1.825	2.011	2.190	2.288	2.449	2.467	2.134	1.964	1.966	1.872	1.842	1.470	1.465	1.131	0.929	0.969	1.311	1.798	2.257	2.927	4.194	5.510	6.886	8.692	9.396	9.828	11.80	12.36	13.25	13.30	13.28	11.12	8.668	6.123	4.718	4.160	4.864	5.024	5.636	10.22	20.25	33.43
305.0	611.8	452.2	338.9	387.5	687.1	1262	2212	3279	4206	4599	4422	3921	2031	1458	1416	2730	5184	4631	97.86	9.931	4.737	3.466	2.717	2.093	1.450	1.455	1.039	1.320	0.903	0.896	0.962	0.872	1.008	1.590	1.903	2.243	2.575	3.079	3.433	3.426	3.343	3.196	2.658	2.302	2.333	2.356	1.628	1.581	1.509	1.052	1.275	1.827	2.362	3.557	4.439	6.014	8.385	10.69	13.03	14.26	15.74	18.57	19.21	18.86	17.86	17.76	17.20	15.41	10.80	7.143	5.476	6.491	6.637	6.032	6.291	9.768	17.59
310.0	605.7	444.6	337.7	380.1	700.1	1297	2270	3354	4254	4678	4256	3768	2500	1599	1332	1637	2176	4454	2891	449.3	19.11	4.423	2.999	2.268	1.944	1.555	1.469	1.241	0.848	1.061	0.893	0.868	1.019	1.579	2.021	2.345	2.868	2.986	3.595	3.638	3.401	3.045	2.807	2.275	2.286	2.043	1.588	1.562	1.488	1.181	1.223	1.967	2.521	3.584	4.852	6.463	8.912	10.98	13.27	14.96	16.46	19.17	19.62	19.33	17.08	16.51	15.50	14.61	12.77	9.595	6.856	6.678	6.869	5.819	5.416	6.653	9.725
315.0	535.0	409.4	302.9	352.6	660.4	1206	2090	3053	3900	4256	3858	3182	2210	1889	1306	1283	1188	1152	2460	6560	593.5	14.91	4.628	2.876	1.801	1.741	1.722	1.471	1.165	1.033	0.948	1.099	0.925	1.442	1.934	2.046	2.467	2.741	3.168	3.138	3.091	2.908	2.508	2.210	2.171	1.928	1.453	1.477	1.270	1.108	1.131	2.144	2.499	3.365	4.767	5.621	8.410	9.844	12.12	13.46	15.94	17.33	17.54	17.13	15.42	14.42	13.39	12.52	10.48	8.593	8.242	8.566	7.306	5.524	4.810	5.889	6.963
320.0	468.8	365.8	285.0	320.4	568.4	1026	1767	2561	3283	3559	3217	2632	1702	1684	1405	1089	866.7	386.2	690.7	5115	3909	95.57	10.64	3.832	2.681	1.992	1.638	1.647	1.266	0.988	1.160	0.889	0.836	1.377	1.461	1.830	2.066	2.484	2.895	2.724	2.809	2.264	2.107	1.932	2.111	1.767	1.436	1.459	1.233	1.088	1.141	1.801	2.125	2.955	4.058	4.996	7.187	8.020	10.29	11.70	13.08	14.44	15.03	14.76	13.38	12.11	11.31	10.05	8.083	6.158	5.535	7.474	8.220	6.294	4.653	5.057	5.837
325.0	396.1	346.7	281.6	312.5	487.3	829.2	1412	2053	2610	2819	2571	2142	1353	1239	1412	1088	743.1	259.3	255.3	1542	3863	2912	79.81	8.081	3.705	2.468	1.788	1.672	1.337	1.153	1.118	0.900	1.021	1.086	1.208	1.641	1.886	2.158	2.298	2.428	2.237	2.126	1.883	1.678	1.794	1.717	1.289	1.411	1.270	1.077	1.084	1.681	1.958	2.444	3.309	4.203	5.631	6.521	8.231	8.698	10.29	11.59	11.75	11.64	11.17	10.14	9.117	8.009	6.602	5.153	4.060	5.476	6.357	6.835	5.125	4.591	5.034
330.0	381.2	392.5	399.3	463.9	548.9	684.1	1035	1490	1926	2130	2005	1748	1255	1143	1280	1436	1052	582.6	477.9	678.0	1330	2866	3565	354.5	21.56	4.169	2.729	1.857	1.654	1.250	1.174	0.912	0.953	1.236	1.208	1.633	1.867	1.783	1.930	2.037	1.969	1.681	1.629	1.497	1.495	1.562	1.371	1.702	1.515	1.468	1.603	2.249	2.299	2.594	2.736	3.257	4.055	5.036	6.024	6.718	7.698	8.506	8.639	8.916	8.569	8.001	7.145	6.554	5.980	4.813	4.487	4.824	5.361	5.777	5.907	6.623	7.214
335.0	420.9	541.2	745.8	874.2	824.4	662.6	773.1	1067	1409	1636	1688	1668	1507	1551	1652	1868	1988	1469	1021	955.7	912.5	1035	2627	3544	535.3	17.01	4.455	2.763	1.992	1.806	1.401	1.152	1.135	1.629	1.685	1.809	1.932	1.886	1.835	1.714	1.612	1.543	1.566	1.669	1.605	1.830	1.987	2.535	2.623	2.785	3.095	3.804	3.826	3.278	2.652	2.537	3.287	3.926	4.467	4.799	5.931	6.501	6.836	6.756	7.033	6.568	6.378	6.290	6.464	5.661	5.758	6.845	7.034	7.292	7.655	8.340	9.904
340.0	491.2	734.7	1063	1318	1170	724.9	644.3	849.2	1139	1427	1605	1779	1865	2041	2282	2461	2635	2465	1906	1533	1153	813.4	951.1	2692	3317	83.46	9.205	3.989	2.877	2.161	1.707	1.416	1.279	1.690	1.803	2.123	2.308	2.157	1.946	1.786	1.660	1.575	1.561	1.577	2.020	2.291	2.368	3.308	3.739	3.699	4.575	5.490	5.307	4.272	3.185	2.444	2.770	3.062	3.414	3.922	4.886	5.253	5.346	6.038	6.108	6.425	6.172	7.016	7.080	7.240	7.923	8.486	9.248	10.20	10.55	10.15	11.88
345.0	536.5	927.9	1426	1743	1510	807.9	568.6	726.9	1022	1313	1640	1979	2266	2624	2966	3177	3282	3278	2801	2136	1550	931.3	592.8	903.4	3222	2933	72.21	4.880	3.466	2.680	1.980	1.732	1.310	2.054	1.894	2.428	2.617	2.392	2.060	1.852	1.660	1.616	1.513	1.609	2.349	2.677	3.091	4.123	4.810	5.224	5.820	7.207	6.783	5.471	3.709	2.549	2.358	2.678	3.017	3.410	4.123	4.681	5.254	5.970	6.180	6.674	7.062	7.637	8.163	9.240	10.06	10.85	11.85	12.82	13.42	13.71	14.72
350.0	670.1	1174	1868	2317	1937	961.3	533.1	641.2	941.2	1305	1768	2287	2804	3344	3807	4116	4225	4112	3782	3018	2126	1302	658.7	401.5	984.4	2747	3304	319.5	19.53	3.617	2.590	1.949	1.730	2.475	2.566	2.934	2.989	2.699	2.520	2.015	2.033	1.645	1.620	1.855	2.561	3.047	3.925	5.399	6.229	7.033	7.583	9.372	9.130	6.856	4.562	2.722	2.534	2.175	2.447	3.114	3.595	4.344	4.979	5.737	6.427	7.219	8.062	8.944	10.12	11.15	12.31	13.44	15.17	15.93	16.90	17.95	19.48
355.0	776.9	1411	2264	2802	2339	1091	521.4	595.5	903.7	1335	1895	2587	3274	3975	4577	4951	5104	4928	4466	3795	2743	1633	799.3	344.4	314.3	680.1	2163	3609	519.0	16.84	3.290	2.733	2.136	3.049	2.941	3.341	3.563	3.073	2.876	2.159	2.032	1.803	1.970	2.140	2.686	3.561	4.491	6.459	7.533	8.208	9.195	11.52	10.69	7.956	5.008	3.355	2.667	2.205	2.334	3.039	3.457	4.277	4.964	5.556	6.590	7.597	8.552	10.28	11.86	12.79	14.48	16.23	17.23	19.19	19.99	22.36	23.38
360.0	818.3	1530	2493	3092	2577	1178	529.5	571.4	889.5	1334	1961	2754	3545	4323	4978	5410	5580	5418	4872	4083	3124	1883	892.9	362.0	179.2	204.5	580.0	2661	3831	398.8	6.966	3.202	2.502	3.385	3.330	3.670	3.959	3.476	2.996	2.479	2.313	2.106	2.193	2.414	3.033	3.865	4.711	6.873	8.137	9.054	10.08	12.76	11.34	9.004	5.700	3.287	2.590	2.417	2.257	2.913	3.233	4.118	4.882	6.142	6.688	7.763	8.929	10.96	12.28	13.95	15.88	17.38	19.44	20.53	22.01	24.40	25.67
365.0	855.0	1594	2594	3221	2681	1230	531.5	561.4	872.8	1332	2009	2809	3676	4504	5173	5633	5815	5662	5098	4193	3239	2091	974.7	390.7	167.0	107.1	167.2	776.6	3518	3122	66.02	4.574	2.906	3.613	3.397	3.817	4.067	3.656	3.196	2.405	2.239	1.862	2.017	2.504	3.307	3.954	4.834	7.372	8.676	9.087	10.56	13.06	12.19	9.184	5.697	3.644	2.532	2.160	2.292	2.707	3.225	3.873	5.003	5.864	6.609	8.065	9.526	11.32	12.23	14.35	15.61	17.91	19.73	21.63	22.73	25.45	26.47
370.0	853.2	1594	2548	3201	2691	1219	527.6	546.7	834.9	1304	1966	2769	3623	4464	5133	5617	5812	5675	5103	4194	3156	2111	1115	444.8	185.9	102.4	90.46	211.2	992.8	2657	2300	289.7	18.85	4.771	3.774	4.303	3.927	3.805	3.235	2.569	2.293	2.130	2.114	2.568	3.125	4.092	5.057	7.214	8.620	9.088	10.62	12.87	11.95	9.334	5.909	3.486	2.418	2.065	2.230	2.577	3.127	3.973	4.848	5.897	6.913	7.860	9.284	10.63	12.19	14.43	15.80	18.01	20.18	22.32	22.89	25.62	25.90
375.0	816.5	1495	2447	3062	2592	1181	522.6	523.2	787.9	1243	1868	2636	3443	4253	4869	5367	5550	5425	4906	4028	3000	1963	1133	555.1	223.8	123.2	92.10	102.3	265.2	648.7	1428	3142	438.8	20.07	4.805	4.674	4.284	3.640	2.962	2.555	2.131	2.152	2.038	2.474	3.043	3.917	4.852	6.767	8.247	8.832	9.939	12.65	11.27	9.259	5.610	3.462	2.383	2.055	2.317	2.334	2.973	3.700	4.371	5.636	6.170	7.500	8.471	9.841	11.37	13.66	15.17	16.85	18.58	20.43	21.81	23.57	24.50
380.0	766.7	1452	2361	2893	2445	1138	506.8	494.1	742.0	1172	1753	2477	3204	3991	4596	5032	5204	5121	4629	3795	2832	1846	1027	597.2	291.5	142.2	101.2	88.14	111.7	189.6	398.7	2266	2311	367.4	8.771	4.916	4.630	3.518	3.385	2.595	2.120	2.061	1.663	2.136	2.950	3.643	4.703	6.339	7.894	8.508	9.618	12.22	10.83	8.879	5.676	3.250	2.430	1.880	2.144	2.416	2.788	3.135	4.171	5.106	5.790	6.964	8.471	9.560	10.93	12.96	14.41	15.61	18.18	19.48	20.41	22.38	22.79
385.0	734.5	1363	2177	2668	2257	1079	483.0	485.4	694.6	1102	1617	2284	2982	3678	4233	4647	4792	4716	4282	3518	2637	1713	928.1	533.1	363.1	178.9	111.8	90.78	86.60	92.36	128.1	658.3	1996	2914	56.78	6.044	5.013	3.647	3.151	2.345	2.190	1.826	1.832	2.229	2.504	3.556	4.451	5.977	6.944	7.451	8.986	11.15	10.41	7.605	5.143	2.870	2.323	1.959	2.006	2.208	2.581	3.193	4.055	4.921	5.430	6.759	7.434	8.897	10.22	11.90	13.36	15.10	16.71	18.49	19.38	20.03	22.21
390.0	646.1	1169	1890	2344	1996	970.7	446.2	434.4	613.1	953.5	1413	2001	2607	3218	3688	4060	4200	4127	3756	3100	2334	1520	829.3	436.9	328.9	258.9	148.3	100.4	87.35	76.20	72.51	175.6	565.8	2401	1763	700.7	18.35	3.914	3.285	2.408	2.086	1.900	1.827	1.918	2.503	3.149	3.908	5.337	6.246	6.691	7.626	9.633	8.697	6.989	4.527	2.557	2.074	1.792	1.735	2.075	2.262	2.871	3.688	4.147	4.770	5.646	6.794	7.606	8.857	10.16	11.60	13.28	14.64	16.17	16.73	17.96	19.09
395.0	579.6	993.6	1613	1999	1697	846.3	405.4	384.8	536.1	825.4	1221	1704	2202	2743	3121	3434	3558	3499	3181	2642	1993	1321	734.0	383.5	252.9	253.6	225.3	125.8	92.57	80.04	65.90	72.89	146.8	568.5	1058	2971	387.5	14.63	3.503	2.373	2.256	1.821	1.520	1.878	2.149	2.864	3.216	4.525	5.556	5.570	6.602	8.362	7.796	5.918	4.070	2.481	1.832	1.760	1.673	1.916	2.019	2.441	3.194	3.810	4.096	4.845	5.715	6.424	7.494	8.878	9.665	10.68	11.95	13.83	14.05	15.27	15.95
400.0	497.2	874.5	1387	1727	1477	755.4	377.0	359.5	490.9	724.6	1060	1494	1925	2371	2717	2979	3083	3041	2761	2305	1750	1161	654.2	355.7	223.9	200.2	241.9	172.7	102.2	85.49	68.34	53.98	56.74	144.7	282.8	2052	2185	270.5	7.049	2.734	2.332	1.724	1.820	1.832	1.899	2.659	3.083	4.187	4.680	5.145	5.800	7.265	6.797	5.319	3.567	2.267	1.826	1.720	1.648	1.707	1.922	2.282	2.725	3.199	3.635	4.265	5.102	5.950	6.463	7.847	8.517	9.518	10.65	11.46	12.07	13.22	14.07
405.0	424.2	760.6	1208	1511	1294	672.4	352.0	331.7	448.2	650.6	945.6	1303	1692	2062	2376	2596	2685	2643	2412	2010	1533	1021	591.6	326.4	213.4	172.2	199.3	216.8	130.4	88.05	70.35	52.93	41.07	52.74	77.92	584.7	1864	1526	49.58	3.650	2.445	1.773	1.612	1.831	1.667	2.330	2.789	3.750	4.276	4.520	5.209	6.246	5.856	4.638	3.175	1.951	1.658	1.577	1.610	1.560	1.738	2.126	2.258	2.896	3.201	3.718	4.289	5.165	5.931	6.860	7.402	8.535	9.297	10.61	10.80	11.46	12.21
410.0	361.2	644.8	1014	1248	1084	591.8	313.0	298.6	380.5	550.5	795.8	1092	1401	1693	1950	2124	2204	2178	1977	1666	1277	862.0	508.5	290.1	195.8	156.8	152.4	185.8	183.1	114.0	76.09	55.46	41.71	36.18	34.42	143.7	519.7	1208	1319	211.5	14.88	2.154	1.616	1.588	1.632	1.956	2.356	3.117	3.530	3.667	4.381	5.385	4.725	3.831	2.604	1.719	1.464	1.321	1.344	1.546	1.588	1.828	2.337	2.329	2.766	3.244	3.737	4.558	5.088	5.426	6.275	7.227	7.877	8.381	8.758	9.396	9.903
415.0	306.2	528.8	811.6	993.7	897.2	504.5	272.4	258.3	330.6	456.7	662.3	894.4	1145	1360	1555	1696	1758	1742	1587	1348	1034	706.8	427.1	258.2	179.7	147.0	131.6	133.9	172.0	166.3	91.59	59.99	44.70	35.14	27.78	46.45	126.4	286.7	789.4	1413	352.9	11.66	1.942	1.723	1.536	1.774	1.896	2.410	2.921	3.084	3.467	4.366	3.882	3.204	2.381	1.589	1.476	1.302	1.259	1.311	1.290	1.587	1.890	2.148	2.258	2.646	2.988	3.713	4.033	4.336	4.893	5.743	6.185	6.727	7.379	7.875	8.201
