Sample:	'1
File name:	Default_20230321_122357.FD3
Run date:	'12:17:36, 03/21/2023
Operator:	dsjg
Comment:	'

Instrument
Model:	F-2700 FL Spectrophotometer
Serial number:	2198-001
ROM Version:	4J14000 07

Instrument parameters
Measurement type:	3-D scan
Data mode:	Fluorescence
EX  Start WL:	220.0 nm
EX  End WL:	600.0 nm
EX Sampling interval:	5.0 nm
EM  Start WL:	230.0 nm
EM  End WL:	650.0 nm
EM Sampling interval:	5.0 nm
Scan speed:	12000 nm/min
EX Slit:	5.0 nm
EM Slit:	5.0 nm
PMT Voltage:	700 V
Response:	Auto 
Corrected spectra:	Off
Contour interval:	50.000

Peak integration
Integration method:	Rectangular
Sensitivity:	1
Threshold:	1.000

Peaks
No.	ApexEX/EM(nm)	Height(Data)
1	225.0/345.0	 2055
2	225.0/575.0	73.58
3	225.0/590.0	72.73
4	225.0/600.0	72.32
5	225.0/620.0	70.03
6	265.0/585.0	65.50
7	270.0/595.0	76.29
8	275.0/340.0	 2353
9	275.0/610.0	80.95
10	275.0/640.0	73.96
11	280.0/625.0	76.18
12	455.0/340.0	7.373
13	555.0/345.0	12.09

Data points
	220.0	225.0	230.0	235.0	240.0	245.0	250.0	255.0	260.0	265.0	270.0	275.0	280.0	285.0	290.0	295.0	300.0	305.0	310.0	315.0	320.0	325.0	330.0	335.0	340.0	345.0	350.0	355.0	360.0	365.0	370.0	375.0	380.0	385.0	390.0	395.0	400.0	405.0	410.0	415.0	420.0	425.0	430.0	435.0	440.0	445.0	450.0	455.0	460.0	465.0	470.0	475.0	480.0	485.0	490.0	495.0	500.0	505.0	510.0	515.0	520.0	525.0	530.0	535.0	540.0	545.0	550.0	555.0	560.0	565.0	570.0	575.0	580.0	585.0	590.0	595.0	600.0
230.0	221.7	 4111	 6904	 1611	36.83	8.263	6.660	5.848	4.991	4.843	4.605	4.196	3.642	3.156	2.648	2.457	2.242	2.201	2.028	1.911	1.990	1.797	1.818	1.694	1.754	1.730	1.595	1.506	1.505	1.347	1.349	1.373	1.307	1.221	1.072	1.144	1.064	0.966	0.925	0.860	0.797	0.908	0.819	0.753	0.644	0.632	2.021	12.21	29.35	27.37	10.97	2.116	0.530	0.417	0.383	0.383	0.383	0.340	0.316	0.277	0.273	0.236	0.234	0.262	0.208	0.219	0.176	0.173	0.155	0.158	0.118	0.137	0.091	0.084	0.091	0.070	0.084
235.0	102.6	 1188	 5106	 7059	 1919	54.51	9.491	7.507	5.800	6.043	5.388	5.097	4.265	3.405	3.263	2.626	2.423	2.322	2.197	2.055	2.064	1.820	2.036	1.759	1.732	1.750	1.682	1.624	1.462	1.234	1.341	1.229	1.231	1.108	1.121	1.092	1.047	0.987	0.907	0.854	0.759	0.864	0.852	0.835	0.983	0.846	0.937	3.347	9.296	17.45	26.86	21.14	14.92	3.463	0.533	0.402	0.364	0.421	0.360	0.287	0.308	0.289	0.251	0.234	0.193	0.212	0.239	0.211	0.155	0.157	0.138	0.134	0.114	0.106	0.072	0.079	0.067
240.0	102.6	304.9	 1730	 6914	 7617	375.0	27.69	10.25	8.106	6.727	6.164	5.870	4.675	4.031	3.508	2.589	2.509	2.589	2.276	2.193	2.047	2.039	1.828	1.890	1.751	1.650	1.688	1.608	1.577	1.293	1.356	1.374	1.241	1.289	1.064	1.136	1.042	0.996	0.885	0.888	0.750	0.846	0.795	0.755	0.907	0.817	0.801	1.249	2.551	4.912	12.05	30.00	48.18	22.13	11.67	1.610	0.434	0.426	0.402	0.310	0.313	0.265	0.260	0.253	0.227	0.222	0.205	0.249	0.140	0.154	0.128	0.099	0.106	0.121	0.084	0.074	0.092
245.0	80.12	147.3	423.8	 2780	 9276	 7349	286.5	17.52	10.51	9.129	7.223	6.482	5.028	4.613	3.638	2.985	2.851	2.554	2.409	2.219	2.078	2.146	1.978	2.021	1.876	1.873	1.794	1.706	1.662	1.513	1.561	1.443	1.415	1.219	1.107	1.034	1.070	1.069	0.993	0.903	0.811	0.796	0.791	0.695	0.733	0.775	0.847	0.920	1.098	1.545	3.229	9.916	28.23	48.63	56.24	19.96	7.844	0.687	0.428	0.385	0.319	0.324	0.315	0.233	0.240	0.251	0.223	0.218	0.105	0.191	0.137	0.115	0.109	0.093	0.099	0.099	0.122
250.0	42.33	97.16	176.3	681.7	 3417	 8880	 9576	 3072	78.12	13.83	10.38	8.602	6.603	5.770	4.404	3.807	3.125	2.918	2.688	2.350	2.331	2.158	2.136	2.080	2.138	1.999	1.867	1.964	1.832	1.642	1.621	1.578	1.325	1.135	1.183	1.055	1.099	1.003	0.959	0.952	0.922	0.784	0.809	0.761	0.727	0.722	0.696	0.886	0.931	0.991	1.257	2.688	7.075	15.69	31.59	45.35	62.16	49.70	13.83	6.496	0.847	0.351	0.339	0.324	0.290	0.294	0.234	0.228	0.167	0.193	0.176	0.147	0.169	0.131	0.127	0.106	0.105
255.0	26.04	42.70	108.8	251.7	799.8	 2439	 8815	9999.9	 1752	97.95	15.33	12.17	9.336	7.619	5.766	4.511	3.717	3.570	3.103	2.847	2.560	2.541	2.242	2.022	2.265	1.926	2.055	1.932	1.957	1.818	1.678	1.604	1.350	1.214	1.079	1.034	1.026	0.981	0.895	0.926	0.894	0.869	0.844	0.866	0.723	0.734	0.716	0.759	0.711	0.808	1.069	1.446	2.162	3.951	7.462	11.16	23.53	51.48	88.33	90.36	21.96	8.238	0.598	0.407	0.360	0.352	0.254	0.218	0.199	0.183	0.171	0.184	0.151	0.122	0.087	0.134	0.094
260.0	23.95	27.66	53.42	148.0	259.8	578.7	 2933	9999.9	9999.9	 1430	64.50	16.80	11.66	9.006	7.294	5.318	4.396	3.761	3.699	3.182	2.803	2.671	2.531	2.280	2.373	2.153	2.102	2.032	2.060	1.706	1.652	1.667	1.447	1.241	1.149	1.059	0.983	0.883	0.995	0.928	0.835	0.852	0.779	0.883	0.805	0.733	0.667	0.687	0.622	0.626	0.781	1.057	1.411	1.507	2.137	2.962	5.814	14.40	40.53	86.24	114.9	87.70	17.84	3.814	0.483	0.404	0.384	0.300	0.272	0.228	0.198	0.199	0.159	0.186	0.125	0.101	0.119
265.0	27.35	26.72	31.37	74.24	164.4	197.6	698.1	 4136	9999.9	9999.9	 1130	34.32	16.06	10.92	8.503	6.714	5.394	4.422	4.252	3.462	3.191	2.757	2.632	2.582	2.503	2.398	2.412	2.135	1.970	1.851	1.818	1.667	1.626	1.283	1.367	1.009	1.055	0.927	1.007	0.913	0.818	0.812	0.793	0.908	0.869	0.775	0.688	0.727	0.658	0.666	0.600	0.738	1.025	1.179	1.239	1.212	1.843	3.812	9.841	26.24	66.57	117.6	124.9	25.87	12.42	1.215	0.514	0.327	0.277	0.230	0.287	0.281	0.184	0.193	0.155	0.181	0.143
270.0	69.45	66.74	50.63	41.44	87.86	154.5	242.0	991.2	 4109	9999.9	9999.9	 4436	70.07	17.80	12.16	9.205	7.009	5.555	4.964	4.151	3.758	3.416	3.112	2.828	2.768	2.518	2.370	2.258	2.291	2.030	1.927	1.754	1.857	1.498	1.408	1.232	1.223	1.086	1.116	0.967	1.008	0.938	0.949	0.987	1.047	0.999	0.865	0.893	0.836	0.741	0.618	0.645	0.671	0.788	1.066	1.191	1.282	1.515	2.749	6.317	16.16	35.21	63.45	87.24	113.1	83.95	59.61	8.877	1.522	0.381	0.382	0.272	0.237	0.213	0.177	0.216	0.202
275.0	186.2	175.6	116.7	51.43	42.89	90.64	192.0	329.1	971.9	 2704	9999.9	9999.9	 6980	84.63	19.19	13.78	10.32	7.804	5.936	4.956	4.340	3.957	3.576	3.318	2.947	2.784	2.797	2.411	2.247	2.217	1.980	2.017	1.865	1.621	1.676	1.494	1.434	1.131	1.231	1.201	1.108	1.077	1.261	1.200	1.279	1.428	1.370	1.270	1.087	0.929	0.700	0.709	0.666	0.675	0.630	0.820	1.211	1.575	1.693	2.134	4.144	8.366	14.72	20.89	37.60	74.15	144.2	153.8	26.06	11.46	0.743	0.428	0.350	0.292	0.326	0.264	0.265
280.0	303.8	288.6	185.4	73.67	39.57	56.24	138.1	244.0	328.4	693.1	 3148	9999.9	9999.9	 5368	60.73	18.26	13.06	9.804	7.460	6.035	5.072	4.289	4.007	3.690	3.371	3.102	2.931	2.680	2.542	2.346	2.248	2.182	1.925	1.821	1.876	1.746	1.786	1.445	1.261	1.420	1.323	1.380	1.332	1.470	1.633	1.653	1.727	1.640	1.397	1.167	0.949	0.760	0.698	0.712	0.660	0.721	0.886	1.219	1.605	1.729	1.860	2.650	3.992	5.451	9.178	20.18	55.71	118.8	164.8	149.1	21.59	5.453	0.517	0.416	0.388	0.315	0.345
285.0	424.6	423.0	260.1	108.0	49.75	54.81	98.91	212.2	279.0	307.1	869.7	 3965	9999.9	9999.9	738.7	40.39	17.80	12.48	9.771	7.726	5.748	5.118	4.436	4.062	3.579	3.428	3.236	2.850	2.810	2.570	2.383	2.235	2.044	2.009	2.120	2.004	1.995	1.800	1.508	1.424	1.594	1.601	1.584	1.771	1.997	2.051	2.251	2.002	1.868	1.495	1.117	0.925	0.794	0.713	0.759	0.755	0.911	0.983	1.212	1.532	2.058	2.072	1.966	2.110	3.061	5.555	13.88	34.22	79.54	157.7	182.6	120.5	14.88	1.377	0.469	0.392	0.420
290.0	618.7	618.0	412.4	188.1	94.91	80.86	113.7	193.0	338.4	438.6	548.5	 1258	 3934	9999.9	9999.9	 9685	50.67	19.25	13.46	10.05	7.599	6.570	5.470	5.033	4.105	3.954	3.622	3.083	3.084	2.798	2.573	2.361	2.146	2.139	2.332	2.474	2.381	2.229	1.996	1.835	1.838	1.969	1.998	2.181	2.442	2.614	2.652	2.783	2.417	1.953	1.344	1.190	0.930	0.853	0.789	0.880	0.995	1.043	1.181	1.412	1.869	2.393	2.788	2.669	2.664	3.237	5.083	9.628	20.37	44.95	80.00	125.6	148.2	111.6	81.64	9.846	1.495
295.0	805.7	826.7	604.0	296.3	154.0	132.6	163.1	242.3	388.6	602.9	774.6	890.8	 1383	 2820	 8458	9999.9	9999.9	60.53	20.96	14.92	10.82	8.407	7.183	6.218	4.985	4.729	4.163	3.551	3.555	3.215	2.828	2.857	2.384	2.365	2.664	2.857	2.817	2.662	2.568	2.363	2.123	2.406	2.550	2.720	2.897	3.294	3.074	3.310	3.042	2.437	1.858	1.603	1.323	1.136	1.043	1.114	1.205	1.279	1.335	1.692	1.963	2.471	2.996	3.916	4.341	4.464	4.378	5.404	7.526	12.64	20.17	30.65	45.24	84.00	185.3	216.2	29.16
300.0	952.3	978.4	728.5	389.0	207.1	181.1	217.5	308.0	457.5	681.8	960.5	 1052	981.3	 1080	 2656	9999.9	9999.9	 3837	48.09	20.18	14.13	10.68	8.795	7.435	6.010	5.431	4.565	4.236	3.924	3.484	3.064	2.893	2.500	2.720	2.962	3.187	3.243	2.969	2.884	2.691	2.766	2.734	2.739	3.109	3.305	3.709	3.640	3.904	3.629	2.938	2.179	2.018	1.602	1.346	1.331	1.349	1.489	1.572	1.800	1.986	2.358	2.854	3.526	3.973	4.821	5.870	5.793	5.438	5.404	6.103	7.456	9.061	11.95	22.66	66.23	153.9	223.1
305.0	 1063	 1126	854.7	465.8	254.3	235.0	273.7	371.7	549.2	774.9	 1059	 1278	 1084	806.2	901.6	 3430	9999.9	9999.9	 2922	36.77	18.93	13.54	10.55	8.634	7.363	6.108	5.049	4.374	4.017	3.898	3.477	3.049	2.985	2.912	2.968	3.175	3.597	3.373	3.018	2.979	2.990	2.848	3.055	3.372	3.464	3.910	3.936	4.264	3.795	3.375	2.541	2.262	1.744	1.642	1.511	1.528	1.682	1.873	2.118	2.448	2.815	3.232	4.251	4.386	5.307	6.202	6.578	6.810	5.932	5.684	5.345	4.998	4.641	6.742	16.45	42.96	100.2
310.0	 1213	 1282	 1005	575.2	339.8	304.0	348.3	478.2	676.4	933.0	 1207	 1444	 1383	981.7	647.8	992.0	 3373	9999.9	9999.9	9999.9	41.30	20.38	14.58	11.27	8.980	7.309	6.096	5.325	4.950	4.373	3.802	3.564	3.159	3.059	3.377	3.425	3.884	3.641	3.452	3.210	3.187	3.250	3.324	3.640	3.906	4.349	4.523	4.769	4.500	3.716	2.926	2.684	2.214	1.950	1.796	1.825	2.003	2.281	2.492	2.824	3.353	3.988	4.901	5.416	6.076	6.767	6.977	7.885	7.456	7.239	5.957	4.972	4.101	3.875	5.429	10.94	24.26
315.0	 1361	 1478	 1163	685.1	431.4	388.4	453.5	595.2	834.2	 1129	 1417	 1629	 1593	 1302	789.3	533.8	906.9	 2482	 7556	9999.9	9999.9	48.87	21.03	16.21	11.71	9.390	7.443	6.454	5.947	5.196	4.355	3.954	3.462	3.320	3.422	3.755	4.177	3.732	3.786	3.489	3.514	3.633	3.771	4.182	4.295	5.251	5.156	5.332	5.003	4.079	3.322	3.224	2.640	2.465	2.064	2.330	2.470	2.809	3.062	3.303	4.108	4.599	5.764	6.638	6.848	7.536	7.844	8.554	8.434	8.131	7.943	6.711	5.170	4.019	3.519	4.222	6.787
320.0	 1487	 1632	 1281	770.5	503.4	455.2	530.1	700.5	953.8	 1282	 1588	 1799	 1740	 1452	 1007	517.3	399.1	665.8	 2124	9999.9	9999.9	 2963	41.37	21.03	14.64	11.02	8.882	7.160	6.811	5.449	4.768	4.136	3.841	3.438	3.709	3.899	4.159	4.159	3.999	3.810	3.766	3.938	4.123	4.379	4.725	5.447	5.617	5.851	5.562	4.370	3.441	3.328	3.053	2.711	2.435	2.427	2.812	3.109	3.464	3.865	4.504	5.283	6.444	7.086	8.059	8.562	8.909	9.482	9.052	8.828	8.554	7.774	6.428	5.163	3.462	3.048	3.049
325.0	 1642	 1759	 1389	865.2	557.7	517.1	598.0	783.8	 1065	 1407	 1735	 1958	 1887	 1556	 1147	633.5	330.7	282.2	564.4	 3006	9999.9	9999.9	 2366	34.82	18.85	14.02	10.64	8.440	7.557	6.220	5.117	4.564	4.124	3.887	3.841	3.988	4.191	4.346	4.218	3.927	3.812	4.105	4.188	4.607	4.999	5.625	5.747	6.528	5.894	4.859	3.657	3.630	3.045	3.037	2.640	2.817	3.254	3.562	3.659	4.344	4.851	5.681	6.873	7.920	8.594	9.317	9.551	10.26	9.959	9.699	8.781	8.251	7.135	6.379	4.304	3.196	2.633
330.0	 1749	 1904	 1528	964.7	648.0	587.9	679.4	890.3	 1196	 1554	 1910	 2156	 2073	 1711	 1236	763.5	427.4	238.8	234.3	747.7	 3058	9999.9	9999.9	 9585	36.75	20.11	14.36	11.17	8.839	7.287	6.027	5.291	4.727	4.125	4.320	4.210	4.511	4.317	4.371	4.112	3.991	4.235	4.459	5.015	5.447	6.260	6.475	6.908	6.422	5.221	4.104	3.839	3.335	3.153	3.089	3.055	3.556	4.029	4.054	4.833	5.635	6.466	7.606	8.738	9.709	10.09	10.68	10.84	11.16	10.58	9.737	8.841	7.778	6.634	5.315	4.276	3.204
335.0	 1863	 2007	 1594	 1037	717.7	666.3	753.9	988.0	 1302	 1685	 2037	 2295	 2228	 1852	 1325	796.2	535.5	313.9	189.1	253.9	740.4	 2386	 7942	9999.9	9999.9	43.02	21.06	15.38	11.43	8.766	7.479	6.345	5.270	4.699	4.523	4.395	4.611	4.701	4.479	4.285	4.430	4.565	4.896	5.162	5.770	6.560	6.642	7.187	6.900	5.454	4.427	4.197	3.575	3.394	3.298	3.425	3.730	4.227	4.539	5.369	6.269	7.143	8.374	9.434	9.940	10.75	11.13	11.66	11.48	11.32	10.50	9.736	8.494	6.719	5.191	4.351	3.673
340.0	 1883	 2044	 1614	 1070	757.9	702.0	798.5	 1024	 1347	 1747	 2097	 2353	 2273	 1905	 1373	814.3	531.8	393.6	217.2	159.9	235.4	587.1	 2092	9999.9	9999.9	 2566	37.64	19.61	14.19	10.51	8.836	7.060	5.798	5.257	5.015	4.752	4.666	4.798	4.644	4.449	4.468	4.629	4.893	5.274	5.891	6.840	6.643	7.373	6.805	5.501	4.449	4.296	3.741	3.450	3.416	3.585	3.852	4.353	5.035	5.482	6.289	7.233	9.095	9.395	10.16	11.05	11.46	12.05	11.88	11.84	10.77	10.04	8.656	7.072	5.563	4.475	3.700
345.0	 1858	 2055	 1604	 1073	776.6	725.3	815.3	 1039	 1353	 1747	 2101	 2346	 2270	 1905	 1386	826.0	512.7	406.9	286.3	161.5	136.4	196.1	525.1	 3011	9999.9	9999.9	 2059	31.95	18.21	13.38	10.38	7.937	6.897	5.598	5.357	4.895	5.076	4.900	4.624	4.477	4.471	4.862	5.015	5.679	5.923	6.724	6.758	7.364	7.197	5.424	4.508	4.390	4.058	3.431	3.448	3.418	3.924	4.571	4.990	5.716	6.572	7.577	8.989	9.592	10.57	10.85	11.48	12.09	11.98	11.58	10.77	9.909	8.912	7.252	5.515	4.476	3.719
350.0	 1782	 1946	 1541	 1061	783.4	735.3	805.8	 1029	 1319	 1697	 2018	 2258	 2182	 1848	 1348	823.5	516.0	379.9	328.1	241.6	152.8	135.0	191.1	739.2	 3171	9999.9	9999.9	 8656	34.65	19.15	13.56	10.37	7.979	6.337	5.750	5.243	5.277	4.889	4.750	4.470	4.480	4.561	5.015	5.446	5.764	6.545	6.681	6.954	6.565	5.404	4.393	4.444	3.926	3.505	3.585	3.450	4.086	4.536	5.214	5.519	6.465	7.421	8.667	9.338	10.10	10.19	11.04	11.43	11.29	10.85	10.53	9.640	8.600	7.071	5.460	4.648	3.825
355.0	 1679	 1787	 1456	 1007	781.8	729.5	803.5	991.1	 1266	 1601	 1893	 2114	 2044	 1741	 1289	805.8	527.5	385.6	317.0	306.0	238.2	160.7	145.8	249.7	772.5	 2380	 8605	9999.9	9999.9	40.96	18.98	13.89	9.823	7.593	6.392	5.500	5.557	5.086	4.797	4.752	4.287	4.543	4.624	5.002	5.579	6.339	6.337	6.738	6.017	5.229	4.359	4.230	3.874	3.435	3.524	3.416	4.041	4.446	4.701	5.429	6.425	7.073	7.821	8.708	9.502	9.827	10.25	10.63	10.69	10.61	9.891	8.903	8.222	6.687	5.276	4.657	3.799
360.0	 1586	 1706	 1387	987.3	771.1	739.0	795.8	971.3	 1225	 1514	 1788	 1993	 1933	 1639	 1236	791.9	535.6	405.4	332.7	309.7	305.0	213.3	161.2	160.1	253.7	594.3	 2226	9999.9	9999.9	 2446	35.08	17.34	12.83	8.990	7.195	6.192	5.736	5.211	4.937	4.714	4.467	4.418	4.568	4.927	5.518	5.985	6.277	6.446	6.108	4.906	4.310	4.163	3.844	3.503	3.560	3.629	4.044	4.283	4.760	5.276	5.929	6.703	7.627	8.131	8.997	9.525	9.868	9.894	10.26	9.822	9.400	8.772	7.768	6.658	5.333	4.372	3.884
365.0	 1486	 1618	 1311	962.8	772.3	731.4	780.2	935.1	 1179	 1435	 1686	 1872	 1815	 1551	 1180	772.1	538.7	425.4	359.2	318.8	321.1	287.7	198.2	162.3	155.5	208.4	556.5	 2978	9999.9	9999.9	 1964	29.78	15.41	11.20	8.338	6.730	6.308	5.762	5.137	4.827	4.497	4.640	4.713	4.869	5.351	5.973	5.802	6.002	5.687	4.762	4.070	4.166	3.998	3.624	3.506	3.604	3.828	4.208	4.518	5.142	5.760	6.327	7.122	7.921	8.460	9.027	9.225	9.202	9.651	9.372	8.677	8.317	7.399	6.233	5.163	4.433	3.969
370.0	 1410	 1473	 1223	921.7	752.5	722.3	757.9	885.2	 1083	 1318	 1546	 1703	 1654	 1426	 1095	745.7	550.0	456.0	400.1	361.8	337.9	336.7	290.2	213.4	167.2	146.6	198.3	723.5	 3239	9999.9	9999.9	 8016	115.2	15.89	11.04	8.473	7.103	6.127	5.238	4.964	4.623	4.703	4.721	4.813	5.112	5.804	5.541	5.727	5.381	4.507	3.900	4.049	3.765	3.641	3.609	3.624	3.864	4.268	4.475	4.861	5.437	6.054	6.756	7.348	7.851	8.166	8.139	8.505	8.664	8.531	8.147	7.759	7.121	5.925	4.975	4.398	3.924
375.0	 1277	 1332	 1133	879.2	756.2	711.9	735.2	844.2	 1013	 1216	 1399	 1537	 1490	 1301	 1011	716.4	563.3	486.6	444.5	411.5	383.7	359.5	353.0	307.7	215.0	165.5	141.2	232.9	775.4	 2367	 8946	9999.9	9999.9	34.78	15.40	10.97	8.879	6.867	5.844	5.041	4.777	4.715	4.811	4.799	5.146	5.417	5.294	5.848	5.285	4.455	3.653	3.944	3.869	3.701	3.451	3.626	3.747	4.104	4.320	4.538	5.026	5.540	6.086	6.658	7.082	7.324	7.652	7.753	8.010	7.526	7.187	7.375	6.591	5.510	5.051	4.388	4.012
380.0	 1181	 1254	 1075	865.8	746.4	710.8	728.6	811.7	959.8	 1129	 1282	 1408	 1370	 1201	958.3	698.6	566.6	507.9	473.0	447.5	421.5	391.8	369.0	359.7	273.0	194.5	148.7	139.6	237.7	579.2	 2288	9999.9	9999.9	 2113	29.69	13.61	10.97	7.843	6.489	5.533	5.044	4.804	4.886	4.641	4.997	5.266	5.185	5.320	4.946	4.168	3.617	4.103	3.923	3.582	3.612	3.472	3.785	3.970	4.225	4.514	4.726	5.121	5.878	6.155	6.415	6.976	7.348	7.239	7.340	7.118	6.755	6.744	6.252	5.319	4.788	4.335	4.283
385.0	 1092	 1186	 1020	856.3	738.9	703.6	717.3	781.8	907.4	 1055	 1206	 1309	 1276	 1120	903.9	685.6	571.0	524.5	497.8	479.0	455.9	427.4	390.2	373.5	332.2	233.2	171.1	135.1	132.0	189.0	560.8	 2971	9999.9	9999.9	 1654	23.01	13.32	9.503	7.561	5.967	5.467	5.025	4.888	4.578	4.919	5.300	5.134	5.331	4.963	4.195	3.533	4.022	3.911	3.685	3.735	3.556	3.930	3.906	4.123	4.324	4.474	5.094	5.536	5.803	6.109	6.620	6.573	6.650	6.705	6.528	6.430	6.103	5.779	5.116	4.744	4.238	4.319
390.0	 1011	 1077	972.3	822.9	742.0	701.5	710.8	751.7	849.3	965.8	 1100	 1186	 1159	 1037	854.4	668.2	581.8	545.4	528.8	515.4	496.8	466.2	426.2	391.2	364.7	310.6	222.5	167.4	136.9	125.7	188.7	715.9	 3186	9999.9	9999.9	 6267	98.49	12.66	9.431	7.267	6.196	5.478	5.087	4.802	4.888	5.264	5.168	5.115	4.707	4.020	3.569	4.017	3.936	3.777	3.780	3.585	3.780	3.801	4.028	4.090	4.353	4.723	5.113	5.371	5.630	5.916	6.154	6.188	6.090	6.109	6.121	5.872	5.624	4.972	4.728	4.243	4.231
395.0	954.7	 1006	921.1	814.8	739.7	708.7	698.9	734.3	798.8	894.4	 1004	 1077	 1058	954.6	808.7	657.9	586.6	563.4	549.7	544.3	529.1	500.8	468.3	427.6	382.9	351.8	300.2	219.9	172.2	142.8	128.5	224.3	759.5	 2337	 7929	9999.9	9999.9	29.73	12.54	9.109	7.398	6.181	5.504	5.039	5.150	5.148	4.888	5.046	4.567	3.919	3.474	4.113	3.965	3.821	3.753	3.704	3.829	3.867	3.943	4.128	4.357	4.435	5.027	5.176	5.339	5.381	5.344	5.492	5.828	5.781	5.401	5.432	5.216	4.644	4.411	4.203	4.267
400.0	890.6	939.7	885.6	794.4	736.9	705.7	687.7	723.4	766.8	858.7	944.0	 1013	987.6	905.3	776.4	645.2	589.2	571.2	561.9	556.3	546.2	525.7	492.1	454.0	405.2	360.2	339.6	273.8	203.3	165.0	133.7	128.9	228.3	567.5	 2001	9999.9	9999.9	 1809	25.33	11.52	8.516	7.043	6.008	5.391	5.286	5.132	5.052	4.922	4.598	3.965	3.572	3.993	3.862	3.869	3.804	3.825	3.857	4.132	3.928	4.020	4.272	4.419	4.723	4.747	4.869	5.282	5.050	5.190	5.359	5.385	5.000	5.093	5.014	4.526	4.219	4.182	4.417
405.0	849.3	892.3	848.2	792.6	733.9	703.3	693.9	710.2	748.7	820.7	899.6	966.8	940.1	861.1	746.6	628.7	590.6	571.2	564.4	563.1	556.0	536.0	508.6	476.1	427.4	375.7	348.6	317.0	244.5	193.2	154.2	122.2	122.5	179.0	488.8	 2798	9999.9	9999.9	 1478	20.66	10.20	8.187	6.799	5.815	5.358	5.297	4.736	4.826	4.555	3.927	3.593	4.083	3.835	3.637	3.791	3.653	3.848	3.894	3.977	3.928	4.101	4.228	4.556	4.622	4.846	5.032	4.986	5.054	5.062	5.069	4.796	4.937	4.778	4.213	4.074	4.192	4.163
410.0	787.7	848.7	828.9	782.7	734.7	704.9	695.0	695.6	732.3	795.6	869.2	913.1	883.4	807.6	709.0	613.7	578.1	564.1	561.6	560.7	558.9	542.0	518.7	492.7	450.8	401.7	364.6	336.6	303.6	242.6	188.3	145.9	116.7	106.7	158.8	663.4	 2885	 9873	9999.9	 5687	21.95	10.58	8.038	6.820	5.965	5.515	4.890	4.893	4.458	4.025	3.614	4.024	3.869	3.839	3.776	3.746	3.957	3.653	3.874	4.009	4.059	4.213	4.308	4.431	4.719	4.814	4.768	4.866	4.791	4.741	4.605	4.845	4.619	4.311	4.071	4.129	4.118
415.0	749.7	797.5	801.6	768.7	735.3	710.3	686.3	688.0	720.7	769.4	834.3	871.5	830.1	762.2	670.5	591.4	561.0	555.6	550.4	553.5	552.5	538.1	522.2	498.2	465.7	425.1	386.9	351.0	329.7	299.0	227.9	174.3	136.3	105.2	96.96	193.8	677.7	 2275	 6491	9999.9	 8014	26.81	10.28	8.113	6.897	5.763	4.921	4.843	4.635	3.937	3.674	4.161	4.113	3.706	3.737	3.659	3.842	3.945	3.855	3.911	4.146	3.912	4.169	4.184	4.667	4.494	4.682	4.715	4.828	4.710	4.633	4.450	4.212	4.184	4.110	4.177	4.103
420.0	670.5	760.1	763.2	754.1	721.9	701.2	679.0	682.9	710.7	757.0	813.2	848.1	801.0	726.2	640.1	575.0	546.7	540.9	535.9	538.4	542.1	528.8	520.1	499.5	468.4	436.0	400.2	363.6	335.5	324.0	270.6	200.4	154.8	118.3	92.98	96.32	191.8	538.7	 1603	 8270	9999.9	 1674	23.17	9.720	7.988	6.449	5.488	5.045	4.666	3.988	3.704	4.341	4.015	3.774	3.815	3.656	3.942	3.935	3.863	4.070	4.170	3.943	4.204	4.253	4.384	4.391	4.426	4.442	4.564	4.368	4.400	4.158	4.152	4.010	3.879	4.015	4.129
