Sample:	'1
File name:	G2025090905医药产业园对面 5倍.FD3
Run date:	'14:31:11, 09/10/2025
Operator:	Administrator
Comment:	'

Instrument
Model:	F-2700 FL Spectrophotometer
Serial number:	24D1-003
ROM Version:	4J14000 07

Instrument parameters
Measurement type:	3-D scan
Data mode:	Fluorescence
EX  Start WL:	220.0 nm
EX  End WL:	600.0 nm
EX Sampling interval:	5.0 nm
EM  Start WL:	230.0 nm
EM  End WL:	650.0 nm
EM Sampling interval:	5.0 nm
Scan speed:	12000 nm/min
EX Slit:	5.0 nm
EM Slit:	5.0 nm
PMT Voltage:	700 V
Response:	Auto 
Corrected spectra:	Off
Contour interval:	50.000

Peak integration
Integration method:	Rectangular
Sensitivity:	1
Threshold:	1.000

Peaks
No.	ApexEX/EM(nm)	Height(Data)
1	225.0/290.0	1951
2	225.0/330.0	1141
3	225.0/570.0	204.1
4	230.0/500.0	200.3
5	235.0/515.0	187.2
6	240.0/525.0	165.7
7	245.0/405.0	337.9
8	245.0/540.0	147.8
9	250.0/550.0	140.2
10	255.0/280.0	735.5
11	255.0/560.0	134.9
12	260.0/285.0	822.9
13	260.0/575.0	138.3
14	265.0/585.0	138.6
15	270.0/300.0	1538
16	270.0/600.0	138.2
17	275.0/305.0	1758
18	275.0/335.0	1329
19	275.0/610.0	123.0
20	280.0/310.0	1554
21	280.0/620.0	105.8
22	285.0/315.0	1366
23	285.0/635.0	79.07
24	305.0/340.0	544.5
25	315.0/355.0	335.2
26	320.0/360.0	369.1
27	325.0/365.0	345.1
28	325.0/410.0	301.7
29	335.0/380.0	323.8
30	340.0/385.0	307.9
31	350.0/400.0	282.0
32	355.0/405.0	282.8
33	360.0/410.0	259.2
34	365.0/420.0	248.1
35	370.0/425.0	229.1
36	390.0/300.0	4.678
37	395.0/295.0	4.763
38	400.0/465.0	85.70
39	415.0/485.0	56.38
40	425.0/500.0	42.35
41	430.0/505.0	37.41
42	455.0/290.0	5.704
43	465.0/555.0	10.94
44	470.0/560.0	9.033
45	505.0/275.0	3.427
46	515.0/280.0	4.143
47	520.0/285.0	4.764
48	530.0/290.0	5.010
49	540.0/295.0	6.595
50	545.0/300.0	7.722
51	550.0/305.0	7.684
52	560.0/310.0	6.943
53	570.0/315.0	6.807
54	575.0/320.0	6.106

Data points
	220.0	225.0	230.0	235.0	240.0	245.0	250.0	255.0	260.0	265.0	270.0	275.0	280.0	285.0	290.0	295.0	300.0	305.0	310.0	315.0	320.0	325.0	330.0	335.0	340.0	345.0	350.0	355.0	360.0	365.0	370.0	375.0	380.0	385.0	390.0	395.0	400.0	405.0	410.0	415.0	420.0	425.0	430.0	435.0	440.0	445.0	450.0	455.0	460.0	465.0	470.0	475.0	480.0	485.0	490.0	495.0	500.0	505.0	510.0	515.0	520.0	525.0	530.0	535.0	540.0	545.0	550.0	555.0	560.0	565.0	570.0	575.0	580.0	585.0	590.0	595.0	600.0
230.0	144.9	3979	7390	1563	41.39	12.67	10.10	8.385	7.017	6.746	6.340	5.724	5.190	4.580	3.627	3.158	2.670	2.387	2.163	2.025	1.929	1.691	1.611	1.562	1.496	1.403	1.195	1.301	1.144	1.159	1.114	1.095	0.963	0.811	0.878	0.834	0.804	0.731	0.692	0.683	0.893	1.072	1.068	0.846	0.666	0.738	3.574	15.82	26.23	18.02	5.840	1.307	0.575	0.533	0.497	0.523	0.555	0.507	0.521	0.502	0.452	0.485	0.484	0.486	0.482	0.446	0.501	0.451	0.514	0.525	0.505	0.472	0.529	0.528	0.485	0.481	0.504
235.0	173.0	1055	4641	7338	521.2	71.60	12.13	9.388	8.277	7.376	7.226	6.097	5.343	5.138	3.584	2.993	2.844	2.567	2.538	2.249	2.216	1.917	1.797	1.618	1.414	1.434	1.275	1.213	1.190	1.094	1.147	0.974	0.934	0.870	0.945	0.838	0.665	0.778	0.934	0.642	0.703	0.794	0.960	1.183	0.999	0.788	1.341	4.325	9.410	15.79	23.42	21.82	13.16	2.992	0.543	0.523	0.559	0.533	0.506	0.416	0.557	0.454	0.493	0.545	0.423	0.430	0.489	0.558	0.463	0.518	0.581	0.583	0.467	0.406	0.438	0.486	0.585
240.0	243.6	352.8	1338	6337	7479	436.5	35.94	11.77	9.599	8.204	7.167	6.074	6.009	4.800	4.426	3.302	2.776	2.677	2.589	2.449	2.143	1.904	1.738	1.558	1.498	1.304	1.348	1.413	1.332	0.960	1.162	1.065	1.075	1.010	0.931	1.007	0.808	0.722	0.826	0.685	0.606	0.706	0.688	0.872	1.231	1.247	1.157	1.571	2.562	4.459	11.51	28.30	37.36	22.33	9.851	1.446	0.587	0.561	0.528	0.443	0.473	0.630	0.491	0.449	0.417	0.459	0.455	0.437	0.512	0.425	0.489	0.704	0.441	0.427	0.513	0.474	0.505
245.0	200.5	306.3	376.3	2053	8054	7593	348.3	18.35	10.79	10.22	7.502	7.150	5.800	4.873	4.719	3.393	2.927	2.795	2.394	2.063	2.100	1.499	1.666	1.550	1.496	1.270	1.455	1.263	1.188	1.058	1.111	1.047	1.053	0.889	0.998	0.846	0.720	0.765	0.631	0.766	0.609	0.661	0.637	0.616	0.970	1.158	1.251	1.253	1.130	1.435	3.071	8.809	20.99	36.00	41.70	20.07	6.063	0.913	0.600	0.552	0.468	0.562	0.557	0.488	0.598	0.431	0.457	0.492	0.585	0.555	0.439	0.729	0.477	0.512	0.505	0.505	0.516
250.0	81.83	223.2	329.9	555.2	2453	7254	9082	1373	95.20	13.09	10.40	8.592	6.980	5.647	4.705	3.517	3.145	2.920	2.501	2.390	2.219	1.859	1.728	1.721	1.656	1.512	1.571	1.333	1.142	1.146	1.192	0.992	1.058	0.935	1.000	0.821	0.809	0.882	0.740	0.719	0.742	0.669	0.663	0.663	0.685	0.765	0.854	1.256	1.462	1.378	1.396	2.435	5.335	10.74	21.13	31.03	33.78	36.28	14.48	6.392	0.953	0.568	0.560	0.513	0.618	0.467	0.495	0.469	0.521	0.436	0.496	0.564	0.490	0.464	0.506	0.473	0.514
255.0	45.05	80.87	219.0	434.3	644.4	1774	6219	9999.9	2112	111.0	14.92	11.04	8.546	6.585	5.301	4.828	3.415	3.013	2.743	2.516	2.310	2.092	1.939	1.755	1.611	1.542	1.394	1.370	1.237	1.136	1.152	1.104	1.067	0.969	0.895	0.942	0.778	0.841	0.664	0.714	0.725	0.846	0.724	0.631	0.671	0.591	0.639	0.751	0.868	1.401	1.794	1.813	1.977	2.833	5.208	7.529	11.73	29.20	55.39	61.76	22.84	7.116	0.889	0.634	0.592	0.424	0.507	0.496	0.667	0.483	0.521	0.525	0.540	0.494	0.567	0.528	0.428
260.0	39.99	41.72	90.93	323.5	418.2	454.2	1759	9211	9999.9	1673	65.95	14.34	10.77	7.975	6.611	5.407	3.950	3.075	3.122	2.722	2.618	2.399	2.162	1.672	1.770	1.496	1.506	1.547	1.383	1.230	1.199	1.230	1.095	0.997	0.956	0.915	0.786	0.877	0.764	0.707	0.669	0.759	0.668	0.697	0.634	0.701	0.605	0.685	0.637	0.806	1.119	2.003	2.173	1.847	1.863	2.106	3.144	7.678	22.10	53.21	74.40	31.29	17.70	2.721	0.704	0.424	0.526	0.548	0.537	0.565	0.535	0.506	0.534	0.495	0.617	0.594	0.599
265.0	49.91	49.95	47.19	151.7	434.9	317.5	435.7	2846	9999.9	9999.9	1341	29.22	14.08	9.753	7.211	5.825	4.622	3.779	3.178	3.006	2.447	2.288	2.228	2.173	1.778	1.638	1.237	1.610	1.404	1.472	1.182	1.241	1.064	1.011	0.992	0.939	0.837	0.782	0.746	0.664	0.597	0.695	0.732	0.778	0.739	0.809	0.777	0.697	0.588	0.673	0.658	1.069	1.749	2.277	1.995	1.371	1.325	2.168	5.597	14.81	35.84	65.46	88.01	28.39	11.44	0.978	0.585	0.490	0.528	0.568	0.542	0.540	0.560	0.465	0.530	0.619	0.559
270.0	242.3	254.2	193.7	108.3	199.6	418.5	347.0	716.6	3055	9999.9	9999.9	5299	89.11	15.93	10.87	7.617	5.572	4.666	3.602	3.192	2.685	2.517	2.495	2.219	1.835	1.761	1.510	1.585	1.436	1.409	1.418	1.395	1.288	1.232	1.285	1.358	1.136	1.092	0.947	0.852	0.853	0.894	0.946	0.974	1.114	1.149	1.199	1.187	1.110	0.927	0.721	0.737	0.935	1.323	1.939	2.364	2.419	1.667	2.007	3.984	8.767	18.09	38.10	56.07	76.28	63.21	17.96	9.023	1.254	0.601	0.607	0.557	0.623	0.606	0.636	0.551	0.543
275.0	735.3	813.1	591.5	236.4	99.33	200.5	542.6	457.1	815.1	2460	7430	9999.9	8585	111.4	16.04	10.62	7.341	6.415	4.577	3.424	3.152	3.002	2.480	2.380	2.131	1.693	1.794	1.639	1.577	1.608	1.387	1.399	1.612	1.874	2.351	2.253	1.776	1.450	1.466	1.128	1.261	1.636	1.487	1.708	1.937	2.454	2.550	2.543	2.300	1.830	1.097	0.848	0.837	0.837	0.989	1.226	2.288	3.427	3.197	2.401	2.841	4.923	9.486	13.56	21.65	43.19	90.44	116.3	28.23	10.88	0.881	0.630	0.654	0.644	0.667	0.592	0.563
280.0	1191	1307	935.4	353.3	102.1	118.3	365.4	735.5	440.0	745.5	2088	9999.9	9999.9	6003	74.68	14.03	9.424	7.294	5.548	4.026	3.241	3.406	2.738	2.380	2.537	1.836	2.040	1.798	1.805	1.461	1.556	1.416	1.678	2.426	3.250	3.296	2.446	1.842	1.494	1.572	1.642	1.938	2.082	2.550	2.890	3.603	3.713	4.030	3.610	2.515	1.633	1.158	0.831	0.823	0.789	0.914	1.437	2.264	3.675	4.143	2.578	2.417	3.414	4.305	5.998	11.42	31.26	79.82	119.8	108.8	21.81	4.042	0.787	0.685	0.758	0.697	0.707
285.0	1509	1736	1253	463.7	128.7	116.3	220.8	625.0	822.9	506.2	756.9	3026	9999.9	9999.9	1002	45.78	12.41	8.936	6.108	4.617	3.884	3.566	2.857	2.602	2.534	2.052	2.045	1.843	1.681	1.423	1.616	1.744	2.060	3.052	3.888	4.137	3.341	2.481	2.060	2.011	1.936	2.316	2.652	3.139	3.814	4.535	4.520	5.031	4.426	3.195	1.933	1.472	0.983	0.904	0.896	0.874	1.263	1.507	2.198	3.756	4.764	3.733	2.645	2.467	2.753	4.132	8.335	20.92	47.94	103.8	132.6	31.99	14.25	1.339	0.911	0.968	0.716
290.0	1729	1951	1425	549.0	162.4	132.4	205.6	393.1	819.6	1007	749.1	1116	2976	9999.9	9999.9	9199	59.40	13.53	8.619	6.388	4.724	4.034	3.369	2.959	2.593	2.399	2.148	2.034	1.837	1.666	1.572	1.736	2.429	3.397	4.456	4.551	3.682	2.835	2.278	2.386	2.385	2.568	2.935	3.399	4.209	4.916	4.717	5.704	4.976	3.674	2.337	1.658	1.263	1.106	0.956	0.980	1.161	1.434	1.696	2.400	3.370	4.243	5.010	4.507	3.428	3.194	3.960	6.761	12.72	26.95	50.28	70.76	102.8	82.72	58.07	10.64	1.678
295.0	1711	1938	1433	587.2	191.6	159.5	223.9	358.1	596.3	1065	1405	968.1	1182	2584	4935	9999.9	5913	73.21	13.81	8.757	6.536	5.196	4.049	3.584	3.100	2.677	2.199	2.212	2.071	1.813	1.599	1.611	2.394	3.413	4.597	4.763	3.967	2.991	2.523	2.477	2.351	2.590	2.956	3.507	4.216	4.849	5.143	5.557	5.072	3.595	2.471	1.795	1.526	1.059	1.119	1.093	1.284	1.365	1.678	1.933	2.509	2.983	3.848	5.707	6.595	5.818	4.233	4.442	5.556	8.291	13.19	17.48	27.36	51.69	116.4	145.8	32.32
300.0	1628	1836	1360	584.8	211.1	173.5	244.2	361.1	554.8	884.3	1538	1370	915.8	986.3	1370	7291	9999.9	4508	53.33	12.42	8.444	6.307	5.024	4.343	3.233	2.999	2.290	2.307	2.293	1.894	1.875	1.844	2.611	3.299	4.678	4.266	4.017	3.062	2.635	2.519	2.344	2.704	2.979	3.409	4.105	4.693	4.990	5.392	4.780	3.626	2.330	1.778	1.452	1.128	1.056	1.196	1.272	1.460	1.852	2.027	2.541	2.756	3.507	4.275	6.076	7.722	6.501	4.769	4.532	4.576	5.174	5.920	7.463	13.29	36.21	92.55	144.6
305.0	1500	1653	1240	571.1	229.8	192.8	251.8	389.5	554.2	815.6	1264	1758	1154	707.4	546.0	1920	9999.9	9999.9	3326	35.59	11.56	7.909	5.366	4.603	3.782	3.334	2.849	2.718	2.193	2.060	1.634	1.943	2.481	3.362	3.935	4.073	3.710	2.905	2.583	2.409	2.542	2.572	2.990	3.342	3.828	4.577	4.525	4.818	4.577	3.457	2.249	1.808	1.408	1.213	1.200	1.259	1.505	1.662	2.041	1.969	2.828	2.638	3.316	4.052	4.735	6.428	7.684	7.656	5.733	4.309	3.593	3.484	3.264	4.348	9.177	23.63	55.45
310.0	1292	1372	1081	518.1	238.9	209.9	273.2	409.9	582.8	822.4	1096	1461	1554	959.7	453.0	585.3	2519	8834	9999.9	7946	44.08	11.43	7.196	5.452	4.451	3.708	3.038	2.726	2.480	2.408	1.902	1.865	2.253	3.164	3.507	3.730	3.471	2.884	2.352	2.283	2.282	2.396	2.626	2.974	3.484	3.945	3.962	4.183	3.906	3.000	2.119	1.717	1.431	1.338	1.335	1.341	1.657	1.708	1.995	2.195	2.771	2.962	3.503	4.062	4.296	5.155	5.463	6.512	6.943	6.292	5.171	3.437	2.603	2.544	3.419	6.334	13.49
315.0	1139	1224	929.0	474.0	256.9	237.0	305.9	433.7	616.0	825.6	1072	1254	1312	1366	701.7	341.8	671.4	2049	4268	9999.9	4280	55.90	11.18	7.548	5.885	4.335	3.453	2.982	2.897	2.447	2.074	1.897	2.017	2.814	3.427	3.297	3.046	2.826	2.378	2.317	2.262	2.304	2.530	2.623	3.060	3.574	3.395	3.454	3.477	2.710	1.956	1.806	1.556	1.423	1.410	1.476	1.535	1.906	2.171	2.497	2.902	3.247	3.467	3.917	4.376	4.634	4.841	5.299	5.492	5.924	6.807	6.035	3.957	2.762	2.254	2.806	4.017
320.0	1061	1125	873.5	471.3	271.4	260.3	338.7	466.2	648.7	864.2	1099	1241	1201	1250	1053	402.3	285.0	537.2	1049	6262	9999.9	3531	42.58	9.912	6.967	4.684	3.928	3.327	2.826	2.859	2.089	1.971	1.989	2.623	3.138	2.844	2.971	2.706	2.345	2.187	2.103	2.343	2.436	2.791	2.992	3.395	3.254	3.498	3.330	2.488	1.955	1.708	1.648	1.391	1.400	1.589	1.628	1.967	2.274	2.777	2.888	3.316	3.476	4.370	4.208	4.845	4.827	5.104	5.210	5.369	5.329	6.106	6.020	3.877	2.500	2.129	2.043
325.0	1028	1102	890.7	512.8	291.6	281.5	359.1	508.2	683.3	907.0	1145	1249	1210	1083	1085	669.2	249.7	220.2	301.3	1566	8813	9999.9	2758	30.17	9.241	6.198	4.964	3.483	3.285	2.763	2.291	2.058	2.066	2.560	2.743	2.717	2.772	2.508	2.275	2.180	2.089	2.365	2.535	2.621	2.844	3.154	3.203	3.528	3.266	2.541	2.140	1.979	1.760	1.451	1.687	1.556	1.775	1.983	2.299	2.710	2.889	3.529	3.607	3.897	4.315	4.804	4.794	5.420	5.333	5.224	4.867	4.822	5.601	5.318	4.268	2.646	1.860
330.0	1030	1141	953.0	580.7	347.8	313.1	388.8	544.7	727.8	965.0	1190	1305	1256	1076	894.1	783.1	494.4	203.7	150.9	409.0	2174	7583	9999.9	6612	172.6	9.437	6.202	4.408	3.744	3.105	2.746	2.333	2.271	2.432	2.646	2.616	2.575	2.422	2.202	2.278	2.066	2.291	2.566	2.481	2.909	3.286	3.247	3.501	3.512	2.804	2.417	2.219	1.889	1.631	1.749	1.682	2.022	2.153	2.359	2.781	3.153	3.581	3.983	4.400	4.580	5.017	4.965	5.452	5.344	5.301	4.880	4.736	4.403	4.385	4.564	4.061	3.548
335.0	1065	1134	939.4	620.0	369.3	338.0	423.4	578.9	764.5	1007	1216	1329	1279	1110	841.0	603.2	620.6	401.9	149.8	161.4	535.9	1741	4068	9999.9	3516	48.82	9.507	6.709	4.711	3.706	3.178	2.467	2.337	2.250	2.581	2.480	2.457	2.257	2.316	2.218	2.201	2.208	2.525	2.586	2.927	3.187	3.275	3.744	3.573	2.982	2.303	2.327	1.983	1.740	1.757	1.973	2.229	2.192	2.374	2.960	3.327	3.768	3.883	4.540	4.513	5.071	5.153	5.511	5.189	5.308	5.053	4.781	4.183	3.903	3.475	3.228	3.615
340.0	1045	1101	935.0	631.6	398.1	347.7	429.8	576.2	782.7	998.7	1206	1321	1285	1103	838.5	548.6	470.0	544.5	250.9	120.1	177.9	436.0	981.6	5936	9999.9	3044	37.17	8.576	5.811	4.575	3.206	2.642	2.614	2.552	2.639	2.414	2.672	2.434	2.240	2.160	2.184	2.172	2.445	2.763	2.782	3.041	3.388	3.694	3.369	3.100	2.416	2.318	2.133	1.866	1.821	1.768	2.129	2.238	2.435	2.768	3.394	3.722	3.922	4.490	4.735	5.083	5.001	5.171	5.265	5.308	5.128	4.742	4.080	3.690	3.224	2.675	2.824
345.0	1029	1100	912.2	640.3	416.0	369.0	430.5	570.0	766.2	982.7	1168	1280	1246	1080	834.2	542.8	377.2	453.4	416.3	155.6	109.5	152.4	263.4	1483	8262	9999.9	2375	25.87	7.398	5.541	3.818	3.262	2.783	2.548	2.467	2.304	2.370	2.320	2.198	2.127	2.281	2.407	2.463	2.505	2.915	3.063	3.175	3.282	3.436	3.035	2.381	2.556	2.179	1.849	1.809	1.831	2.130	2.293	2.523	2.861	3.340	3.590	4.206	4.256	4.742	5.200	4.768	5.135	5.220	5.356	4.860	4.758	4.307	3.675	3.155	2.626	2.518
350.0	957.2	1019	879.4	610.2	421.3	369.5	431.1	556.7	730.9	928.6	1106	1198	1172	1030	802.1	521.1	351.4	308.3	381.0	324.6	146.4	103.6	114.5	374.3	2052	6936	9999.9	5294	32.02	7.804	5.353	4.047	2.957	2.779	2.589	2.446	2.392	2.212	2.281	2.232	2.155	2.256	2.261	2.490	2.805	3.027	3.055	3.304	3.196	2.745	2.347	2.448	2.126	1.807	1.857	1.846	2.140	2.300	2.523	2.754	3.126	3.371	4.037	4.140	4.498	4.604	4.628	4.689	4.956	4.957	4.591	4.596	4.278	3.572	3.246	2.740	2.437
355.0	881.1	950.6	782.4	569.4	407.7	365.9	424.3	535.5	695.7	860.7	1014	1098	1067	948.6	755.1	506.4	344.2	271.0	255.4	335.2	307.6	135.6	99.22	140.9	501.1	1588	3874	9999.9	3126	39.14	7.669	5.225	3.465	3.150	2.654	2.384	2.246	2.241	2.245	2.281	2.066	2.011	2.267	2.419	2.706	2.934	2.841	3.032	2.839	2.549	2.226	2.195	2.072	1.949	1.818	1.720	1.997	2.178	2.290	2.739	2.952	3.211	3.525	3.864	4.173	4.258	4.409	4.392	4.468	4.528	4.556	4.028	4.026	3.480	3.352	2.689	2.358
360.0	823.2	855.0	726.5	530.5	409.3	370.9	414.7	515.9	661.0	808.8	949.6	1024	1001	889.3	714.6	493.7	342.7	270.1	231.3	253.9	369.1	233.7	114.5	99.43	166.5	393.9	926.4	5351	9999.9	2535	30.28	6.493	4.460	3.586	2.751	2.498	2.334	2.267	2.136	2.123	1.902	1.999	2.217	2.175	2.513	2.750	2.669	2.977	2.803	2.316	2.137	2.090	2.083	2.003	1.831	1.733	2.013	2.133	2.306	2.666	2.982	3.140	3.456	3.777	3.640	4.089	4.011	4.214	4.268	4.508	4.128	3.728	3.724	3.175	3.050	2.556	2.448
365.0	802.9	808.7	670.2	496.5	398.7	364.4	407.9	502.2	618.1	767.1	873.4	947.9	932.1	831.5	680.4	473.3	343.2	272.1	235.8	221.6	298.1	345.1	175.8	105.7	102.4	135.8	243.4	1329	7324	9999.9	2026	15.03	5.955	4.281	3.194	2.747	2.636	2.210	2.219	2.156	1.951	2.032	2.280	2.235	2.719	2.690	2.640	2.620	2.720	2.250	2.168	2.162	2.006	1.965	1.844	1.882	1.885	2.170	2.234	2.554	2.840	2.933	3.341	3.490	3.600	3.492	3.712	4.018	4.031	4.161	4.166	3.842	3.408	3.106	2.954	2.524	2.340
370.0	729.0	738.1	620.9	472.1	381.8	361.7	392.5	464.2	572.5	697.4	796.2	851.4	841.7	758.9	625.5	449.1	338.6	283.0	250.1	230.1	239.4	305.5	304.9	171.1	107.5	93.96	101.3	329.9	1819	7098	9999.9	3654	23.89	5.794	4.110	3.308	2.809	2.466	2.239	2.223	2.024	2.018	2.263	2.202	2.477	2.484	2.360	2.478	2.375	2.063	1.794	2.143	1.878	1.820	1.921	1.800	2.023	1.979	2.275	2.301	2.716	2.818	3.009	3.441	3.190	3.365	3.498	3.532	3.666	3.728	3.726	3.468	3.387	3.061	2.717	2.615	2.332
375.0	663.3	671.5	564.9	442.9	378.9	370.2	369.6	436.6	525.4	625.0	719.6	757.1	743.0	678.4	572.6	419.1	334.0	292.4	267.2	245.9	238.5	243.2	298.3	301.6	154.3	101.5	81.61	115.4	435.1	1619	4073	9999.9	2508	30.75	5.525	4.334	3.369	2.970	2.288	2.167	1.940	2.107	2.102	2.078	2.089	2.433	2.362	2.394	2.174	1.937	1.773	2.052	1.785	1.766	1.979	1.960	1.872	1.978	2.203	2.125	2.371	2.529	2.734	2.742	2.844	2.884	3.327	3.210	3.199	3.293	3.186	3.158	3.170	2.841	2.697	2.461	2.204
380.0	600.6	621.6	521.7	436.3	371.2	360.0	366.3	409.0	484.7	573.2	657.8	698.1	685.1	621.1	527.0	404.3	329.9	295.9	276.9	260.6	249.2	236.8	250.3	323.8	240.4	123.4	87.54	76.14	134.4	388.5	973.2	6286	9999.9	1959	20.72	5.058	4.062	3.238	2.573	2.394	1.939	1.919	2.021	2.048	2.189	2.412	2.187	2.106	2.149	1.885	1.740	1.904	1.887	1.814	1.865	1.927	1.879	2.051	2.087	2.020	2.071	2.331	2.455	2.580	2.839	2.841	2.885	2.963	3.159	3.120	2.918	3.043	3.067	2.536	2.762	2.334	2.363
385.0	558.1	564.0	490.9	412.6	379.6	361.4	356.9	398.7	464.7	535.0	588.9	635.5	631.0	580.7	497.3	397.7	330.6	300.6	281.9	273.9	260.7	245.4	234.6	271.8	307.9	179.3	104.2	78.70	76.59	120.9	245.3	1654	7601	9565	296.9	12.35	4.741	3.967	2.895	2.356	1.922	2.041	2.049	2.007	2.116	2.480	2.183	2.154	2.086	1.761	1.623	1.887	1.804	1.856	2.031	1.893	1.899	1.957	1.914	2.255	2.118	2.494	2.447	2.496	2.739	2.552	2.753	2.831	2.942	2.877	2.827	2.808	2.908	2.652	2.328	2.381	2.546
390.0	516.2	527.1	465.8	395.5	363.1	352.1	349.2	374.7	425.9	485.7	542.8	573.5	569.4	527.2	462.6	377.1	324.0	302.6	292.4	281.7	275.1	261.8	248.2	241.6	269.3	269.3	168.7	103.4	82.77	78.12	94.19	399.9	1969	6020	7487	2708	19.79	5.057	3.618	2.781	2.181	2.129	2.131	2.049	1.949	2.105	2.171	2.101	1.938	1.784	1.641	1.914	1.801	1.825	1.830	1.697	1.866	1.830	1.834	2.048	2.050	2.143	2.220	2.258	2.403	2.361	2.368	2.529	2.495	2.564	2.761	2.588	2.496	2.627	2.397	2.267	2.441
395.0	478.4	484.1	431.2	374.3	344.6	336.1	333.0	352.4	405.3	450.3	494.0	522.4	512.5	479.6	431.7	359.7	319.8	304.3	295.7	294.1	286.6	282.5	271.4	252.2	242.1	262.6	268.5	163.2	110.6	90.58	77.95	131.2	470.5	1381	3385	8571	2051	25.57	4.837	3.381	2.612	2.274	2.149	1.982	2.132	1.980	1.846	1.911	1.909	1.701	1.669	1.669	1.927	1.672	1.935	1.667	1.985	1.812	1.699	1.819	1.865	2.119	2.173	2.333	2.317	2.268	2.213	2.309	2.410	2.312	2.553	2.488	2.469	2.446	2.376	2.311	2.446
400.0	446.0	446.6	416.8	362.5	341.3	331.3	325.6	344.9	377.0	433.8	465.6	489.1	478.3	452.9	410.8	352.0	317.1	306.9	299.6	300.1	298.2	290.5	285.5	268.6	246.9	241.1	282.0	240.8	144.1	108.6	87.60	82.81	144.1	337.0	826.5	4597	8045	1576	18.27	4.325	3.183	2.573	2.353	2.076	2.175	1.941	1.967	1.876	1.818	1.624	1.617	1.909	1.776	1.658	1.802	1.789	1.821	1.755	1.601	1.750	1.797	1.838	2.103	2.055	2.172	2.507	2.180	2.088	2.306	2.170	2.443	2.514	2.618	2.224	2.203	2.188	2.519
405.0	413.6	435.9	407.1	345.5	333.6	337.9	331.3	339.1	368.7	411.1	447.2	464.1	457.6	424.7	391.4	343.1	308.0	301.8	299.6	300.4	300.5	300.4	297.1	280.0	261.3	243.1	249.3	282.8	200.1	128.6	103.0	78.49	79.84	110.7	212.1	1184	5419	7028	262.3	10.19	3.861	3.002	2.478	2.150	2.149	2.085	1.930	1.918	1.856	1.721	1.578	1.721	1.731	1.684	1.723	1.656	1.817	1.717	1.814	1.874	1.820	1.842	1.901	2.067	2.115	2.068	2.148	2.200	2.202	2.182	2.234	2.415	2.462	2.008	2.298	2.309	2.316
410.0	386.1	395.5	365.2	344.6	318.7	326.9	325.0	330.1	357.4	389.9	423.4	433.2	429.6	406.8	370.0	326.6	301.0	293.5	290.3	293.8	299.7	301.7	300.1	292.5	274.2	251.6	237.7	253.7	259.2	178.6	124.4	91.69	74.94	68.24	80.49	289.7	1391	4357	5465	1140	17.23	3.840	3.158	2.389	2.201	2.117	1.922	1.847	1.871	1.661	1.539	1.794	1.693	1.713	1.746	1.678	1.893	1.795	1.752	1.755	1.788	1.792	1.921	1.850	2.086	1.853	2.070	2.007	2.082	1.996	2.206	2.167	2.171	1.988	2.148	2.013	2.180
