Sample:	'1
File name:	w102213ºã¼Î´¿ÂÁ³µ¼äË®.FD3
Run date:	'14:28:20, 10/23/2024
Operator:	horiz
Comment:	'

Instrument
Model:	F-2700 FL Spectrophotometer
Serial number:	23B8-004
ROM Version:	4J14000 07

Instrument parameters
Measurement type:	3-D scan
Data mode:	Fluorescence
EX  Start WL:	220.0 nm
EX  End WL:	600.0 nm
EX Sampling interval:	5.0 nm
EM  Start WL:	230.0 nm
EM  End WL:	650.0 nm
EM Sampling interval:	5.0 nm
Scan speed:	12000 nm/min
EX Slit:	5.0 nm
EM Slit:	5.0 nm
PMT Voltage:	700 V
Response:	Auto 
Corrected spectra:	Off
Contour interval:	50.000

Peak integration
Integration method:	Rectangular
Sensitivity:	1
Threshold:	1.000

Peaks
No.	ApexEX/EM(nm)	Height(Data)
1	225.0/305.0	529.2
2	225.0/415.0	43.60
3	225.0/520.0	23.52
4	225.0/595.0	46.90
5	225.0/620.0	47.59
6	230.0/505.0	131.8
7	235.0/515.0	119.9
8	240.0/265.0	434.4
9	240.0/525.0	131.0
10	245.0/270.0	439.4
11	245.0/540.0	115.1
12	250.0/275.0	549.8
13	250.0/550.0	110.1
14	255.0/280.0	613.6
15	255.0/565.0	100.6
16	260.0/290.0	642.8
17	260.0/575.0	98.21
18	265.0/585.0	110.1
19	270.0/300.0	1502
20	270.0/600.0	123.4
21	275.0/305.0	1563
22	275.0/610.0	108.5
23	280.0/625.0	79.95
24	285.0/635.0	46.07
25	295.0/330.0	336.7
26	300.0/335.0	330.9
27	305.0/345.0	291.6
28	310.0/350.0	209.4
29	315.0/355.0	206.1
30	320.0/360.0	186.4
31	325.0/370.0	143.6
32	330.0/375.0	134.3
33	335.0/380.0	146.8
34	340.0/385.0	118.3
35	345.0/395.0	88.36
36	350.0/400.0	103.7
37	355.0/405.0	94.42
38	360.0/410.0	70.57
39	365.0/420.0	77.24
40	370.0/425.0	70.62
41	375.0/430.0	53.44
42	380.0/440.0	51.20
43	385.0/445.0	46.98
44	390.0/450.0	36.61
45	395.0/460.0	33.29
46	400.0/465.0	28.84
47	405.0/470.0	22.52
48	410.0/480.0	20.32
49	415.0/485.0	18.71
50	420.0/490.0	14.49
51	425.0/500.0	14.24
52	430.0/505.0	12.59
53	435.0/510.0	9.867
54	440.0/520.0	9.346
55	445.0/525.0	8.242
56	455.0/540.0	6.020
57	465.0/555.0	3.577
58	470.0/560.0	3.019
59	480.0/575.0	1.787
60	485.0/580.0	1.665
61	505.0/275.0	3.023
62	510.0/280.0	3.368
63	520.0/285.0	3.326
64	530.0/290.0	3.467
65	535.0/295.0	4.931
66	545.0/300.0	6.207
67	550.0/305.0	6.742
68	560.0/310.0	5.677
69	570.0/315.0	4.653
70	585.0/325.0	3.016

Wavelength data
No.	EX/EM(nm)	Height(Data)	

Data points
	220.0	225.0	230.0	235.0	240.0	245.0	250.0	255.0	260.0	265.0	270.0	275.0	280.0	285.0	290.0	295.0	300.0	305.0	310.0	315.0	320.0	325.0	330.0	335.0	340.0	345.0	350.0	355.0	360.0	365.0	370.0	375.0	380.0	385.0	390.0	395.0	400.0	405.0	410.0	415.0	420.0	425.0	430.0	435.0	440.0	445.0	450.0	455.0	460.0	465.0	470.0	475.0	480.0	485.0	490.0	495.0	500.0	505.0	510.0	515.0	520.0	525.0	530.0	535.0	540.0	545.0	550.0	555.0	560.0	565.0	570.0	575.0	580.0	585.0	590.0	595.0	600.0
230.0	48.12	823.6	2688	824.0	39.00	8.525	6.828	5.326	4.648	4.093	3.868	3.600	2.649	2.268	1.995	1.524	1.419	1.249	1.189	1.080	0.997	0.901	0.836	0.783	0.714	0.668	0.683	0.633	0.606	0.571	0.586	0.530	0.507	0.505	0.529	0.503	0.465	0.471	0.459	0.431	0.467	0.476	0.509	0.435	0.371	0.391	0.857	3.403	5.949	4.708	2.072	0.558	0.315	0.303	0.295	0.285	0.327	0.293	0.311	0.282	0.297	0.288	0.294	0.300	0.304	0.297	0.273	0.302	0.301	0.319	0.315	0.347	0.288	0.287	0.327	0.347	0.318
235.0	115.7	242.5	1511	2671	655.6	56.81	7.912	6.320	5.802	4.571	4.033	3.857	3.418	1.953	1.996	1.829	1.489	1.208	1.140	0.958	0.926	0.816	0.772	0.739	0.725	0.716	0.699	0.610	0.658	0.607	0.526	0.508	0.549	0.452	0.493	0.466	0.491	0.473	0.554	0.437	0.381	0.453	0.462	0.517	0.552	0.502	0.492	1.080	2.313	4.293	6.784	7.107	3.330	0.839	0.299	0.272	0.311	0.285	0.339	0.272	0.273	0.321	0.335	0.281	0.326	0.312	0.260	0.304	0.275	0.295	0.292	0.293	0.300	0.315	0.336	0.298	0.338
240.0	141.1	148.0	443.7	2159	2962	500.7	27.01	7.091	6.309	4.454	4.350	3.570	2.924	2.798	2.228	1.945	1.522	1.267	1.214	1.119	0.896	0.826	0.871	0.672	0.773	0.813	0.629	0.534	0.633	0.554	0.579	0.537	0.473	0.484	0.457	0.397	0.422	0.529	0.479	0.439	0.378	0.440	0.397	0.521	0.722	0.694	0.618	0.557	0.785	1.431	3.783	8.975	11.15	7.437	2.587	0.551	0.330	0.321	0.353	0.336	0.275	0.297	0.313	0.317	0.353	0.299	0.264	0.273	0.336	0.302	0.310	0.297	0.279	0.314	0.309	0.326	0.360
245.0	98.64	223.3	178.1	723.7	3043	2975	356.1	12.16	6.233	6.349	4.471	4.079	3.804	2.934	1.983	1.664	1.635	1.358	1.085	1.096	0.950	1.024	0.899	0.764	0.700	0.724	0.739	0.591	0.592	0.570	0.598	0.556	0.570	0.432	0.494	0.488	0.388	0.469	0.487	0.422	0.431	0.468	0.393	0.389	0.483	0.742	0.869	0.717	0.474	0.551	1.134	3.237	7.795	13.24	13.03	6.306	1.685	0.412	0.318	0.333	0.290	0.353	0.384	0.301	0.281	0.360	0.309	0.282	0.310	0.284	0.327	0.316	0.293	0.313	0.308	0.320	0.297
250.0	51.12	153.4	272.1	273.8	963.6	2836	3504	1160	60.56	7.727	5.518	4.560	4.223	3.233	2.392	1.832	1.635	1.668	1.250	1.075	1.077	0.986	0.912	0.900	0.784	0.728	0.708	0.591	0.683	0.592	0.561	0.562	0.552	0.472	0.446	0.435	0.465	0.466	0.435	0.440	0.488	0.464	0.403	0.409	0.382	0.481	0.614	0.867	0.998	0.935	0.716	1.045	2.152	4.584	8.149	11.72	14.28	12.09	5.984	1.594	0.413	0.361	0.355	0.336	0.293	0.359	0.309	0.312	0.319	0.326	0.313	0.297	0.282	0.339	0.318	0.332	0.320
255.0	33.96	59.28	187.9	370.7	329.4	724.7	2774	5189	1519	51.25	8.447	5.224	4.593	3.543	2.723	2.127	1.612	1.939	1.296	1.255	1.107	1.010	0.848	0.773	0.832	0.734	0.713	0.660	0.655	0.646	0.637	0.573	0.537	0.420	0.468	0.497	0.469	0.441	0.376	0.446	0.474	0.466	0.421	0.446	0.341	0.394	0.400	0.502	0.622	1.087	1.386	1.392	1.011	1.321	2.151	3.118	6.225	13.54	22.06	20.04	8.699	1.609	0.323	0.344	0.357	0.380	0.301	0.314	0.340	0.361	0.286	0.301	0.276	0.345	0.291	0.305	0.360
260.0	34.47	33.75	80.17	314.5	375.1	227.5	840.2	4389	5399	303.6	20.31	7.393	5.455	4.509	3.099	2.168	1.928	1.951	1.411	1.409	1.135	1.065	0.846	0.837	0.948	0.767	0.814	0.682	0.736	0.678	0.660	0.616	0.532	0.415	0.475	0.511	0.471	0.443	0.451	0.416	0.396	0.463	0.462	0.399	0.372	0.402	0.374	0.411	0.387	0.573	0.940	1.823	1.771	1.117	0.870	0.998	1.749	3.962	10.67	22.44	27.00	18.91	6.116	0.877	0.367	0.388	0.311	0.331	0.386	0.360	0.302	0.370	0.295	0.339	0.295	0.287	0.347
265.0	32.03	27.19	34.64	144.2	434.4	289.5	228.8	1503	6047	4799	228.5	10.64	5.908	4.925	3.612	2.674	1.858	1.707	1.561	1.479	1.338	1.169	0.824	0.872	0.853	0.866	0.786	0.756	0.786	0.670	0.588	0.635	0.528	0.518	0.545	0.487	0.490	0.397	0.405	0.440	0.423	0.448	0.495	0.387	0.383	0.411	0.377	0.398	0.352	0.363	0.439	0.979	1.888	2.014	1.423	0.712	0.732	1.255	2.827	7.323	16.92	28.75	28.63	14.86	3.237	0.557	0.329	0.383	0.387	0.319	0.272	0.339	0.357	0.348	0.304	0.330	0.313
270.0	34.37	28.58	27.38	51.01	198.6	439.4	308.0	388.8	1980	5358	4935	886.5	41.24	6.565	4.657	3.257	2.845	2.018	1.599	1.683	1.360	1.219	1.047	0.946	0.897	0.899	0.798	0.764	0.711	0.734	0.630	0.656	0.634	0.535	0.527	0.527	0.475	0.463	0.410	0.393	0.449	0.410	0.479	0.466	0.425	0.422	0.415	0.423	0.354	0.320	0.342	0.547	0.783	1.276	1.896	2.021	1.724	1.048	1.047	2.028	4.328	9.012	16.06	24.18	26.49	20.47	10.56	2.833	0.526	0.352	0.363	0.369	0.346	0.371	0.325	0.323	0.349
275.0	44.47	33.68	24.57	28.22	62.53	194.2	549.8	341.9	482.3	1378	4855	7809	1158	28.70	6.806	3.873	3.463	2.809	1.951	1.891	1.581	1.290	1.115	1.120	0.854	1.007	0.911	0.828	0.709	0.782	0.672	0.620	0.678	0.641	0.604	0.573	0.482	0.529	0.524	0.463	0.461	0.480	0.394	0.483	0.483	0.397	0.431	0.435	0.440	0.315	0.354	0.409	0.439	0.566	0.762	1.187	2.484	3.023	1.957	1.050	1.316	2.363	3.977	6.014	9.163	20.15	34.76	30.02	15.33	2.651	0.482	0.338	0.310	0.397	0.369	0.332	0.412
280.0	54.35	40.33	34.08	26.13	32.35	68.01	339.7	613.6	252.5	356.3	1505	7224	6830	168.8	13.08	4.922	3.820	2.770	2.404	2.009	1.606	1.495	1.266	1.232	0.991	0.832	0.904	0.860	0.793	0.735	0.675	0.741	0.659	0.685	0.564	0.571	0.514	0.470	0.446	0.506	0.461	0.508	0.424	0.479	0.433	0.425	0.459	0.379	0.431	0.325	0.334	0.377	0.382	0.377	0.445	0.613	1.191	2.461	3.368	2.613	1.175	0.938	1.358	1.780	2.561	5.394	13.86	29.41	40.75	26.00	9.299	1.266	0.437	0.413	0.355	0.337	0.352
285.0	72.27	86.93	61.71	36.55	31.27	36.43	134.3	569.5	395.2	197.2	443.2	2598	8488	4957	118.1	7.736	4.801	3.417	2.765	1.962	1.846	1.542	1.397	1.253	1.057	0.865	1.000	0.866	0.737	0.804	0.730	0.763	0.699	0.615	0.583	0.574	0.645	0.547	0.512	0.493	0.510	0.450	0.489	0.461	0.514	0.493	0.517	0.515	0.475	0.400	0.341	0.384	0.414	0.407	0.390	0.546	0.662	1.108	2.017	3.259	3.326	1.804	0.997	0.969	1.197	1.817	3.723	8.846	20.62	35.53	33.95	19.91	4.772	0.672	0.423	0.402	0.376
290.0	160.1	208.3	177.3	87.94	49.78	45.35	78.26	262.8	642.8	614.4	451.9	910.0	3036	6342	5195	468.7	20.30	5.173	3.641	2.457	2.232	1.629	1.527	1.232	1.158	1.031	1.118	0.963	0.902	0.856	0.787	0.864	0.747	0.741	0.756	0.675	0.733	0.652	0.617	0.531	0.548	0.522	0.523	0.552	0.635	0.616	0.693	0.820	0.683	0.599	0.460	0.487	0.446	0.424	0.416	0.464	0.554	0.672	0.974	1.469	2.687	3.352	3.467	2.582	1.761	1.752	2.185	3.244	5.978	10.67	17.46	25.48	27.64	23.02	13.39	4.158	0.714
295.0	272.1	353.1	327.5	152.3	67.36	62.44	91.84	193.9	420.1	989.0	1056	787.6	1135	1805	5069	6204	611.6	13.53	4.410	3.430	2.460	2.023	1.763	1.240	1.347	1.053	1.058	0.849	0.873	0.875	0.725	0.826	0.831	0.887	0.907	0.874	0.885	0.737	0.631	0.593	0.598	0.615	0.654	0.704	0.812	0.877	0.987	1.106	0.927	0.729	0.558	0.601	0.544	0.448	0.454	0.518	0.622	0.707	0.848	0.977	1.534	2.073	3.043	4.931	4.895	3.639	2.683	2.893	3.441	4.092	5.297	6.894	8.425	16.97	32.08	33.20	18.55
300.0	358.5	456.6	403.1	188.5	83.71	74.65	111.8	203.0	379.3	797.5	1502	1084	806.1	655.7	1595	6326	5013	93.13	7.855	4.631	3.046	2.272	2.182	1.754	1.373	1.252	1.234	0.952	0.907	0.847	0.827	0.936	0.860	0.919	1.058	0.965	0.795	0.818	0.670	0.662	0.629	0.691	0.774	0.717	0.911	1.022	1.112	1.311	1.131	1.007	0.701	0.675	0.637	0.529	0.503	0.621	0.594	0.785	0.978	1.112	1.425	1.799	2.466	3.340	5.120	6.207	5.087	3.664	3.097	2.997	3.005	2.658	2.665	4.583	11.08	24.63	37.60
305.0	375.7	529.2	447.8	209.2	95.20	81.01	120.9	215.0	401.5	699.5	1322	1563	859.7	411.4	429.8	2261	6842	3688	67.78	6.035	4.146	2.738	2.209	1.794	1.534	1.267	1.196	1.066	1.078	0.872	0.835	0.876	0.946	1.021	1.137	1.080	1.025	0.900	0.790	0.676	0.715	0.746	0.733	0.858	0.996	1.163	1.207	1.653	1.318	1.106	0.813	0.792	0.662	0.581	0.613	0.633	0.687	0.782	1.012	1.321	1.697	1.864	2.300	2.737	3.776	5.407	6.742	5.799	4.199	3.102	2.494	1.784	1.377	1.603	2.977	6.692	15.27
310.0	369.8	520.1	455.4	210.6	97.27	81.84	122.9	216.8	388.6	639.8	994.4	1381	1225	441.1	161.9	539.3	2283	4989	3807	309.0	14.00	3.889	2.788	2.110	1.927	1.486	1.299	1.258	1.167	1.049	0.900	0.979	0.941	1.040	1.134	1.097	1.018	0.853	0.724	0.653	0.640	0.783	0.827	0.850	0.913	1.199	1.234	1.452	1.293	1.053	0.781	0.737	0.627	0.572	0.588	0.577	0.790	0.815	0.996	1.144	1.548	1.960	2.215	2.712	3.148	3.857	4.725	5.330	5.677	5.149	3.546	1.878	1.094	0.825	1.115	1.965	3.831
315.0	312.9	471.0	400.9	196.7	94.68	72.30	106.0	201.0	345.4	561.2	799.3	951.2	1056	749.0	139.7	142.5	526.3	1260	3846	4619	428.1	10.26	3.625	2.671	2.317	1.675	1.539	1.313	1.266	1.130	1.009	0.959	0.914	1.071	1.016	1.014	0.940	0.852	0.706	0.637	0.682	0.716	0.766	0.930	0.953	1.137	1.253	1.355	1.304	0.954	0.780	0.729	0.621	0.576	0.578	0.655	0.767	0.701	0.886	1.079	1.460	1.747	2.037	2.275	2.760	3.217	3.336	3.654	3.809	4.118	4.653	3.728	1.787	0.749	0.741	0.833	1.237
320.0	306.1	415.5	363.9	168.0	83.92	74.56	99.49	172.3	307.9	490.0	673.5	758.1	721.4	750.5	332.9	66.74	135.4	300.5	1148	4674	3796	68.02	6.227	3.311	2.590	2.046	1.571	1.508	1.354	1.441	1.146	0.914	0.830	1.062	0.989	1.016	1.005	0.750	0.645	0.677	0.708	0.714	0.716	0.837	0.830	0.970	1.118	1.176	1.201	0.939	0.719	0.638	0.602	0.591	0.550	0.592	0.596	0.750	0.835	1.059	1.201	1.537	1.692	2.080	2.390	2.685	2.853	2.818	2.817	2.677	3.116	3.607	3.369	1.959	0.841	0.673	0.616
325.0	265.0	380.7	328.7	159.1	74.31	66.73	91.76	153.6	263.6	425.4	572.5	634.6	542.5	455.4	509.3	120.2	50.18	83.82	275.6	1598	4992	2775	53.42	4.346	3.057	2.076	1.653	1.505	1.405	1.346	1.085	1.015	0.914	1.207	1.050	0.889	0.938	0.771	0.721	0.707	0.599	0.689	0.682	0.729	0.855	0.980	1.006	1.108	1.142	0.814	0.621	0.599	0.537	0.490	0.501	0.588	0.532	0.725	0.782	0.896	1.150	1.299	1.562	1.858	2.054	2.462	2.284	2.447	2.398	2.130	2.071	2.120	2.652	3.016	2.259	0.979	0.659
330.0	211.4	309.3	260.8	133.9	69.73	54.73	76.35	127.8	212.2	340.5	461.0	498.7	414.6	250.1	284.9	336.7	131.5	38.02	75.83	375.7	1621	3505	2987	248.1	12.99	3.071	2.237	1.775	1.504	1.315	1.219	1.067	0.971	1.054	1.050	0.851	0.873	0.772	0.697	0.677	0.592	0.703	0.623	0.709	0.805	0.860	0.900	1.023	0.952	0.658	0.549	0.598	0.540	0.475	0.540	0.591	0.561	0.707	0.667	0.832	1.025	1.177	1.324	1.639	1.773	2.060	1.935	1.942	1.983	1.689	1.552	1.270	1.255	1.643	1.950	2.221	1.997
335.0	182.0	247.0	216.4	114.4	62.96	50.41	65.48	102.1	168.8	259.5	353.9	382.9	313.0	168.5	107.7	200.1	330.9	87.31	31.50	96.70	372.7	872.1	2797	3668	371.1	10.69	2.865	2.378	1.847	1.541	1.334	1.117	1.042	1.005	0.997	0.919	0.890	0.750	0.712	0.587	0.577	0.603	0.575	0.651	0.720	0.737	0.880	0.876	0.824	0.580	0.607	0.545	0.544	0.416	0.554	0.529	0.564	0.629	0.579	0.743	0.882	1.003	1.149	1.417	1.494	1.736	1.577	1.545	1.569	1.413	1.267	1.073	0.850	0.792	0.876	1.053	1.702
340.0	156.6	198.1	170.5	92.90	51.76	46.26	56.48	85.50	141.7	208.1	288.7	310.7	252.8	132.6	59.42	76.39	266.5	256.6	45.69	32.95	94.08	205.3	813.6	3497	3219	57.83	5.567	2.692	2.172	1.678	1.515	1.185	1.139	0.969	0.940	0.868	0.851	0.841	0.683	0.603	0.565	0.673	0.602	0.629	0.736	0.774	0.773	0.878	0.736	0.595	0.518	0.558	0.479	0.469	0.483	0.485	0.548	0.600	0.668	0.679	0.830	0.913	0.999	1.216	1.305	1.436	1.351	1.342	1.354	1.171	1.050	0.841	0.711	0.590	0.575	0.642	0.819
345.0	137.4	170.5	149.0	84.53	49.11	46.28	55.41	73.85	118.2	173.3	231.7	250.5	209.5	110.7	45.25	35.99	112.9	291.6	95.49	24.14	30.99	54.67	193.1	1146	3946	2432	48.80	3.810	2.621	1.928	1.541	1.296	1.151	1.011	0.962	0.844	0.817	0.784	0.662	0.592	0.591	0.619	0.665	0.597	0.701	0.710	0.681	0.705	0.630	0.584	0.489	0.527	0.479	0.411	0.441	0.477	0.531	0.510	0.596	0.597	0.744	0.878	0.841	1.093	1.052	1.149	1.133	1.255	1.283	1.036	0.949	0.728	0.650	0.549	0.458	0.567	0.593
350.0	118.7	150.1	124.7	74.48	44.41	40.56	46.64	61.40	92.88	135.3	178.5	192.8	159.5	89.43	37.75	23.53	39.75	126.4	209.4	116.4	24.59	19.86	51.04	266.7	1228	2647	2481	223.1	13.83	2.576	1.833	1.420	1.249	1.087	1.042	0.848	0.871	0.759	0.722	0.621	0.607	0.655	0.664	0.548	0.639	0.615	0.539	0.665	0.590	0.494	0.438	0.459	0.467	0.451	0.436	0.475	0.479	0.499	0.585	0.557	0.645	0.720	0.797	0.917	0.833	1.032	0.935	1.037	0.984	0.918	0.804	0.633	0.566	0.510	0.441	0.492	0.488
355.0	103.9	128.9	103.4	61.54	45.44	34.05	37.16	51.91	74.10	102.3	132.6	144.5	118.5	71.76	32.43	19.61	19.97	40.05	91.88	206.1	76.03	15.83	17.52	66.67	280.7	637.7	1912	3027	363.0	14.24	2.507	1.729	1.439	1.196	1.085	0.912	0.831	0.763	0.842	0.647	0.621	0.644	0.654	0.560	0.545	0.550	0.532	0.583	0.538	0.422	0.364	0.451	0.445	0.468	0.395	0.479	0.481	0.473	0.484	0.519	0.562	0.733	0.671	0.779	0.814	0.793	0.834	0.793	0.834	0.738	0.698	0.601	0.517	0.447	0.432	0.538	0.412
360.0	99.66	107.2	86.75	57.56	37.13	31.23	36.10	43.03	62.14	84.51	109.5	116.0	96.15	60.19	30.27	17.74	14.95	18.32	33.21	127.8	186.4	50.19	10.69	20.89	68.92	149.1	522.9	2417	2925	291.4	6.911	2.083	1.723	1.343	1.118	0.902	0.847	0.675	0.797	0.620	0.652	0.599	0.553	0.547	0.596	0.561	0.550	0.557	0.544	0.428	0.382	0.465	0.399	0.433	0.380	0.467	0.486	0.493	0.527	0.499	0.502	0.617	0.652	0.625	0.666	0.712	0.727	0.694	0.775	0.615	0.536	0.552	0.512	0.397	0.462	0.447	0.438
365.0	100.1	85.27	74.85	50.02	34.11	29.05	31.07	37.03	54.28	72.37	92.88	93.50	80.84	51.44	26.85	16.29	13.65	12.43	15.66	48.78	167.8	139.1	23.03	10.05	21.35	39.61	124.3	727.2	2978	2363	49.41	3.373	2.138	1.681	1.261	0.981	0.862	0.780	0.727	0.577	0.625	0.553	0.596	0.564	0.496	0.571	0.525	0.587	0.493	0.411	0.412	0.494	0.416	0.421	0.381	0.490	0.378	0.496	0.469	0.487	0.541	0.510	0.625	0.597	0.678	0.662	0.645	0.734	0.655	0.646	0.528	0.521	0.495	0.424	0.487	0.460	0.430
370.0	83.11	78.11	62.98	45.38	31.63	26.33	27.54	33.79	44.09	60.12	73.52	77.93	64.97	42.58	23.54	15.12	11.97	10.82	10.68	18.62	64.88	143.6	103.3	24.62	10.71	14.41	33.44	169.4	868.8	2144	2228	597.7	14.20	2.072	1.528	1.216	0.932	0.885	0.708	0.646	0.681	0.582	0.570	0.524	0.525	0.550	0.538	0.540	0.463	0.376	0.413	0.470	0.429	0.414	0.392	0.463	0.386	0.436	0.443	0.438	0.507	0.473	0.574	0.526	0.605	0.602	0.657	0.610	0.593	0.590	0.507	0.471	0.458	0.424	0.461	0.434	0.431
375.0	63.53	67.03	58.49	42.10	31.05	23.72	25.64	28.53	37.43	47.83	59.43	62.81	50.31	35.40	19.63	13.86	11.68	9.931	9.570	10.70	20.86	52.53	134.3	101.0	16.89	7.909	12.58	42.87	198.9	506.7	1491	2675	332.8	15.44	1.849	1.354	1.232	1.035	0.827	0.721	0.759	0.638	0.568	0.518	0.473	0.535	0.513	0.501	0.480	0.375	0.417	0.452	0.380	0.384	0.356	0.410	0.421	0.425	0.395	0.390	0.398	0.477	0.519	0.484	0.542	0.505	0.558	0.569	0.538	0.557	0.445	0.475	0.412	0.399	0.417	0.416	0.327
380.0	61.86	63.68	50.80	37.41	28.23	23.67	23.56	25.88	32.14	39.72	49.49	52.26	43.52	30.74	17.84	12.99	11.72	10.07	8.678	8.786	10.16	19.10	73.16	146.8	52.67	8.058	6.766	14.47	49.49	118.6	394.8	1915	2354	262.7	6.932	1.528	1.418	1.305	0.909	0.751	0.734	0.616	0.608	0.652	0.497	0.525	0.553	0.493	0.462	0.364	0.344	0.459	0.391	0.361	0.376	0.405	0.411	0.427	0.424	0.389	0.436	0.425	0.488	0.447	0.483	0.659	0.487	0.508	0.547	0.577	0.409	0.473	0.474	0.432	0.394	0.391	0.326
385.0	58.90	54.24	50.48	37.36	28.12	23.70	22.46	25.34	30.31	36.92	44.70	44.87	38.12	27.51	17.64	11.71	10.52	9.182	8.007	7.824	7.613	10.03	27.09	104.6	118.3	27.66	5.927	7.413	16.06	31.39	93.90	541.1	2112	1976	41.51	3.402	1.539	1.329	0.961	0.775	0.815	0.633	0.662	0.610	0.528	0.498	0.487	0.475	0.443	0.381	0.338	0.416	0.400	0.364	0.389	0.405	0.399	0.458	0.405	0.382	0.424	0.461	0.491	0.492	0.570	0.577	0.494	0.553	0.458	0.521	0.488	0.437	0.494	0.394	0.437	0.407	0.349
390.0	59.44	52.83	44.65	34.23	27.82	23.15	20.36	23.94	26.27	31.05	35.02	37.68	32.44	23.23	14.90	10.44	9.506	8.625	8.092	7.636	7.162	7.136	11.49	37.95	96.91	84.51	26.53	6.186	7.591	11.39	25.56	125.6	583.1	1565	1697	526.3	12.93	1.617	1.206	1.000	0.918	0.778	0.615	0.647	0.533	0.486	0.483	0.457	0.407	0.380	0.367	0.428	0.368	0.360	0.404	0.395	0.405	0.358	0.403	0.390	0.433	0.454	0.418	0.494	0.489	0.499	0.513	0.558	0.406	0.469	0.460	0.436	0.444	0.450	0.447	0.416	0.389
395.0	54.33	49.13	41.91	33.97	25.36	22.36	19.58	19.44	24.19	27.35	28.52	31.25	27.73	19.83	14.21	10.27	9.070	8.635	7.946	7.318	7.039	6.570	7.688	13.66	34.69	88.36	87.37	19.65	5.626	6.237	9.910	31.83	133.9	363.8	1009	2105	283.3	14.53	1.703	1.196	0.979	0.884	0.695	0.650	0.531	0.562	0.501	0.468	0.518	0.369	0.382	0.393	0.341	0.387	0.381	0.366	0.396	0.380	0.467	0.427	0.395	0.455	0.401	0.487	0.429	0.448	0.486	0.525	0.418	0.453	0.441	0.392	0.507	0.391	0.469	0.450	0.427
400.0	50.56	47.31	37.68	32.24	25.16	19.73	20.43	19.86	20.25	23.68	24.85	27.47	22.98	17.50	13.58	9.996	8.595	8.310	7.742	7.519	6.991	6.684	6.770	8.059	14.05	43.83	103.7	51.12	8.575	5.234	6.117	10.92	33.31	85.22	258.0	1373	1835	234.0	6.775	1.426	1.106	0.901	0.723	0.685	0.531	0.518	0.478	0.447	0.528	0.386	0.350	0.335	0.370	0.397	0.383	0.382	0.454	0.383	0.394	0.402	0.406	0.406	0.397	0.462	0.388	0.400	0.478	0.419	0.438	0.495	0.416	0.410	0.475	0.401	0.433	0.406	0.487
405.0	41.44	46.56	34.09	29.06	23.17	17.89	18.84	18.12	18.58	21.98	22.70	22.93	20.25	16.35	12.49	9.593	8.400	8.229	7.867	7.641	6.905	6.630	6.306	6.870	8.109	17.50	67.82	94.42	29.19	5.743	5.058	5.993	11.03	22.30	61.58	376.1	1541	1574	37.19	2.794	1.414	0.877	0.862	0.698	0.579	0.577	0.467	0.476	0.439	0.425	0.352	0.382	0.398	0.355	0.331	0.395	0.418	0.399	0.417	0.362	0.372	0.406	0.388	0.430	0.387	0.423	0.410	0.456	0.404	0.437	0.398	0.472	0.397	0.446	0.368	0.420	0.457
