Sample:	'1
File name:	L2025090917¶«ÈýÂ·ÇÅ.FD3
Run date:	'17:21:26, 09/09/2025
Operator:	Administrator
Comment:	'

Instrument
Model:	F-2700 FL Spectrophotometer
Serial number:	3064-004
ROM Version:	4J14000 07

Instrument parameters
Measurement type:	3-D scan
Data mode:	Fluorescence
EX  Start WL:	220.0 nm
EX  End WL:	600.0 nm
EX Sampling interval:	5.0 nm
EM  Start WL:	230.0 nm
EM  End WL:	650.0 nm
EM Sampling interval:	5.0 nm
Scan speed:	12000 nm/min
EX Slit:	5.0 nm
EM Slit:	5.0 nm
PMT Voltage:	700 V
Response:	Auto 
Corrected spectra:	Off
Contour interval:	50.000

Peak integration
Integration method:	Rectangular
Sensitivity:	1
Threshold:	1.000

Peaks
No.	ApexEX/EM(nm)	Height(Data)
1	230.0/610.0	36.57
2	260.0/285.0	775.6
3	260.0/450.0	 4375
4	265.0/290.0	736.9
5	265.0/580.0	210.4
6	270.0/295.0	 1115
7	270.0/590.0	166.6
8	275.0/305.0	 1430
9	275.0/605.0	154.2
10	280.0/310.0	 1418
11	280.0/380.0	 1367
12	280.0/615.0	123.1
13	285.0/315.0	 1464
14	285.0/630.0	94.50
15	290.0/320.0	 1415
16	290.0/645.0	76.69
17	295.0/330.0	 1129
18	300.0/335.0	 1029
19	300.0/380.0	 1258
20	305.0/340.0	 1044
21	310.0/350.0	934.3
22	335.0/380.0	 1279
23	365.0/450.0	 3649
24	480.0/455.0	15.70
25	505.0/275.0	2.925
26	510.0/280.0	3.718
27	515.0/455.0	16.13
28	520.0/285.0	3.645
29	520.0/445.0	16.47
30	530.0/290.0	3.587
31	540.0/295.0	5.023
32	545.0/300.0	6.813
33	550.0/305.0	6.575
34	560.0/310.0	6.509
35	565.0/340.0	6.416
36	570.0/315.0	7.691
37	575.0/290.0	64.00
38	575.0/320.0	7.240
39	585.0/325.0	6.798

Data points
	220.0	225.0	230.0	235.0	240.0	245.0	250.0	255.0	260.0	265.0	270.0	275.0	280.0	285.0	290.0	295.0	300.0	305.0	310.0	315.0	320.0	325.0	330.0	335.0	340.0	345.0	350.0	355.0	360.0	365.0	370.0	375.0	380.0	385.0	390.0	395.0	400.0	405.0	410.0	415.0	420.0	425.0	430.0	435.0	440.0	445.0	450.0	455.0	460.0	465.0	470.0	475.0	480.0	485.0	490.0	495.0	500.0	505.0	510.0	515.0	520.0	525.0	530.0	535.0	540.0	545.0	550.0	555.0	560.0	565.0	570.0	575.0	580.0	585.0	590.0	595.0	600.0
230.0	19.87	849.8	 6031	 3235	241.6	16.33	11.63	7.343	5.237	6.623	6.459	4.179	4.625	4.403	3.021	2.532	2.331	2.205	2.320	1.886	1.828	1.938	1.976	1.562	1.885	1.656	1.485	1.541	1.573	1.639	1.460	1.199	1.148	1.205	0.948	1.003	0.784	0.855	0.661	0.732	1.889	0.566	0.633	0.599	0.410	0.436	1.426	4.864	8.143	6.167	2.439	0.648	0.311	0.345	0.311	0.222	0.254	0.184	0.223	0.188	0.171	0.129	0.277	0.224	0.474	0.216	0.183	0.159	0.104	0.141	0.124	0.158	0.103	0.141	0.095	0.050	0.155
235.0	41.51	211.0	 2768	 7690	 5988	538.5	13.20	11.88	6.332	6.127	5.748	4.121	4.938	4.450	2.794	2.504	2.349	2.366	1.626	1.910	2.153	1.788	2.028	2.024	1.651	1.533	1.212	1.718	1.430	1.835	1.544	1.019	1.542	1.342	0.777	0.904	0.835	0.834	0.845	0.639	0.850	0.681	0.643	0.499	0.540	0.498	0.711	1.616	3.417	6.709	8.571	7.831	3.793	0.834	0.357	0.330	0.252	0.060	0.242	0.194	0.161	0.243	0.291	0.170	0.192	0.180	0.094	0.092	-0.040	0.255	0.283	0.256	0.091	0.101	0.276	0.202	0.224
240.0	45.76	91.54	701.1	 4917	9999.9	 6654	151.0	19.47	5.125	6.539	6.207	5.436	5.811	2.616	2.914	3.219	2.509	2.658	2.092	2.169	2.513	1.966	1.645	1.787	1.933	1.411	1.215	1.715	1.650	1.767	1.393	1.122	1.277	1.387	0.874	0.696	0.747	0.788	0.494	0.709	0.591	0.590	0.500	0.463	0.846	0.467	0.451	0.738	1.010	2.120	5.019	11.63	12.44	8.834	2.805	0.446	0.281	0.277	0.247	0.288	0.167	0.310	0.162	0.149	0.303	0.125	0.119	0.152	0.018	0.217	0.214	0.210	0.030	0.004	0.115	0.184	-0.035
245.0	38.85	95.74	216.6	 1357	 7746	9999.9	871.4	55.13	9.955	9.706	7.345	5.774	3.885	2.764	4.054	3.928	3.276	2.211	2.022	1.531	2.981	2.348	1.999	1.889	1.737	1.880	1.602	1.694	1.800	1.534	1.353	1.085	1.411	1.040	1.019	0.714	0.767	0.606	0.639	0.574	0.491	0.691	0.579	0.358	0.705	0.532	0.933	0.845	0.671	0.811	1.479	4.225	10.46	16.64	15.18	6.986	1.778	0.403	0.227	0.492	0.135	0.155	0.205	0.185	0.294	0.234	0.259	0.266	0.108	0.303	0.038	0.349	-0.013	0.113	0.251	0.331	0.082
250.0	30.97	59.36	180.4	416.8	 2089	 6955	9999.9	 3196	212.6	13.92	9.940	9.724	5.324	5.073	4.558	3.920	2.802	3.305	2.624	2.297	2.583	2.083	1.913	1.807	1.831	2.050	1.741	1.792	1.915	1.721	1.381	1.414	1.360	0.956	0.784	0.694	0.547	0.580	0.622	0.568	0.483	0.736	0.423	0.545	0.516	0.523	0.576	0.737	0.984	0.891	0.801	1.305	2.787	5.769	10.50	14.46	18.02	15.08	7.424	2.063	0.364	0.233	0.211	0.265	0.271	0.354	0.143	0.244	0.134	0.273	0.193	0.192	0.140	0.098	0.089	0.281	0.154
255.0	35.98	21.31	94.60	308.2	614.5	 1607	 5122	9999.9	 4128	275.6	11.82	10.70	8.707	7.062	5.295	4.301	3.199	3.744	2.350	2.549	2.304	1.842	2.339	2.198	1.675	1.799	1.668	1.903	2.148	2.063	1.583	1.531	1.135	1.085	0.859	0.440	0.652	0.518	0.532	0.510	0.642	0.666	0.491	0.469	0.750	0.362	0.565	0.546	0.655	0.940	1.237	1.023	1.107	1.563	2.699	3.801	7.918	18.44	28.83	26.77	11.06	1.792	0.344	0.240	0.303	0.371	0.271	0.195	0.366	0.495	0.241	0.247	0.190	0.147	0.265	0.120	0.225
260.0	36.24	27.44	47.44	177.9	405.9	470.8	 1336	9999.9	9999.9	 3547	145.8	11.23	11.12	8.014	6.745	5.716	4.098	4.241	2.823	3.102	2.528	2.323	2.662	2.063	2.075	2.093	1.903	1.730	2.238	2.087	1.320	1.429	0.942	0.991	0.845	0.766	0.730	0.374	0.613	0.391	0.652	0.828	0.430	0.439	0.515	0.524	0.378	0.393	0.552	0.511	0.846	1.263	1.241	1.108	0.830	1.191	2.311	5.490	15.63	31.77	38.78	26.09	6.681	0.891	0.583	0.296	0.140	0.089	0.364	0.927	0.233	0.248	0.237	0.232	0.268	0.375	0.266
265.0	39.78	22.04	37.34	76.95	310.0	394.7	368.3	 2897	 8544	9999.9	 2593	59.43	13.39	11.00	6.792	5.352	5.004	4.141	3.016	2.959	3.160	2.548	2.057	2.299	2.087	1.913	2.257	2.155	1.891	1.802	1.613	1.486	1.277	1.226	0.770	0.807	0.671	0.613	0.454	0.513	0.565	0.808	0.465	0.654	0.472	0.348	0.407	0.283	0.448	0.556	0.456	0.772	1.456	1.890	1.098	0.948	0.802	1.622	4.073	10.63	26.37	44.41	43.30	20.90	3.499	0.417	0.349	0.372	0.398	0.578	0.283	0.214	0.106	0.133	0.146	0.303	0.335
270.0	42.97	39.75	42.63	51.87	133.6	318.3	426.3	763.6	 2322	 7588	9999.9	 5733	168.6	15.55	9.362	6.626	6.039	4.415	3.954	3.996	3.653	2.597	2.218	2.607	2.492	2.360	2.262	2.294	1.918	1.899	1.634	1.643	1.195	1.383	1.010	0.917	0.770	0.748	0.687	0.611	0.539	0.596	0.424	0.682	0.553	0.451	0.523	0.489	0.446	0.609	0.476	0.505	0.732	1.196	1.627	1.911	1.443	1.114	1.571	2.790	6.630	14.62	26.53	40.17	45.17	31.94	16.20	3.717	0.489	0.471	0.188	0.241	0.134	0.194	0.050	0.232	0.094
275.0	51.52	46.80	68.92	52.70	73.36	117.7	408.6	623.5	604.0	 1782	 3941	9999.9	 9073	198.1	14.40	10.04	7.127	4.311	4.390	4.042	3.471	3.084	2.725	2.675	2.803	2.175	1.958	2.443	1.980	2.106	1.754	1.865	1.429	1.423	0.950	1.031	0.623	0.691	0.654	0.489	0.640	0.561	0.289	0.540	0.697	0.595	0.387	0.604	0.563	0.551	0.463	0.534	0.661	0.559	0.631	1.113	2.132	2.925	2.407	1.358	1.911	3.618	6.472	9.848	17.79	40.33	69.85	47.85	21.89	2.323	0.367	0.350	0.154	0.244	0.195	0.270	0.104
280.0	64.77	74.19	91.16	79.55	69.52	58.94	197.5	651.4	488.6	487.2	 1011	 5088	9999.9	 2540	113.0	14.05	8.823	6.292	4.137	4.748	3.268	3.340	3.177	3.180	2.628	2.735	2.497	2.265	1.719	3.016	1.581	2.008	1.453	1.443	1.318	0.864	0.743	0.796	0.702	0.477	0.551	0.827	0.505	0.485	0.847	0.605	0.583	0.843	0.614	0.468	0.705	0.649	0.599	0.594	0.385	0.606	1.158	2.202	3.718	2.961	1.626	1.424	2.024	2.570	4.522	11.70	31.53	64.21	85.36	42.42	10.58	0.740	0.263	0.435	0.102	0.224	0.213
285.0	89.30	104.6	124.0	115.1	84.98	48.00	103.0	384.4	775.6	360.3	349.9	 1378	 7025	9999.9	 1861	51.03	12.73	8.834	5.486	6.169	3.815	3.380	3.221	3.197	2.765	2.934	2.234	2.799	2.376	2.494	1.790	1.762	1.537	1.366	1.369	1.045	1.158	0.779	0.946	0.592	0.619	0.676	0.639	0.560	0.998	0.948	0.830	0.901	0.772	0.722	0.645	0.543	0.486	0.483	0.484	0.416	0.736	1.115	2.308	3.301	3.645	1.981	1.293	1.159	1.647	3.287	8.051	19.63	48.90	83.13	55.07	30.43	4.313	0.552	0.116	0.269	0.233
290.0	115.4	141.4	176.6	163.1	116.8	77.02	102.5	201.4	498.8	736.9	420.3	534.2	 1918	 6299	9999.9	 6876	102.1	13.29	8.179	7.068	4.717	4.073	3.528	4.035	3.448	3.203	2.408	2.816	2.833	2.378	2.100	2.003	1.663	1.524	1.406	1.131	0.957	1.080	0.727	0.803	0.735	0.737	0.765	0.624	0.864	1.022	0.855	1.080	1.088	0.924	0.837	0.712	0.596	0.518	0.697	0.600	0.698	0.970	1.288	1.610	2.663	3.367	3.587	2.752	1.671	1.883	2.898	5.491	12.44	24.94	39.19	64.00	60.97	56.79	20.57	4.657	0.390
295.0	149.3	175.2	252.9	207.7	170.4	126.0	137.1	188.0	294.8	554.9	 1115	540.9	772.7	 1691	 3530	9999.9	 9338	130.4	14.57	9.690	6.633	4.849	4.272	4.099	3.232	3.196	2.511	3.438	2.701	2.399	2.372	2.057	1.695	1.448	1.316	1.313	1.382	1.109	1.214	0.776	0.879	0.712	0.763	0.732	0.825	1.338	0.810	1.273	1.280	0.934	1.011	0.924	0.795	0.799	0.906	0.821	0.909	1.090	1.062	1.189	1.393	1.777	2.792	4.815	5.023	3.266	2.077	2.773	4.213	7.086	9.806	15.73	21.29	53.53	96.68	56.72	29.30
300.0	187.0	208.8	272.3	259.0	193.4	158.4	174.5	219.4	282.8	407.4	999.4	 1222	665.1	747.0	 1053	 4320	9999.9	 6664	88.17	11.59	8.370	5.970	5.435	3.996	3.523	3.837	2.873	2.708	2.465	2.135	2.225	2.065	2.013	1.673	1.592	1.246	1.543	1.071	1.336	0.907	0.873	0.783	0.731	1.032	1.028	1.109	0.997	1.317	1.482	0.997	1.038	1.161	0.985	1.018	1.000	0.850	1.058	1.040	1.301	1.182	1.333	1.562	1.908	3.198	4.605	6.813	4.127	3.061	2.789	3.603	4.128	5.156	6.075	14.10	37.64	77.65	110.9
305.0	194.6	226.6	312.9	297.9	213.4	184.2	193.0	259.7	318.8	396.4	706.4	 1430	 1075	633.7	565.4	 1189	 5933	9999.9	 1225	47.34	10.75	7.437	5.647	4.276	3.864	3.529	3.115	2.870	2.757	2.675	2.438	2.612	2.084	1.815	1.504	1.405	1.385	0.993	1.066	1.197	1.101	0.935	1.157	0.855	0.955	1.132	1.258	1.401	1.468	1.384	0.972	1.157	1.187	0.754	0.975	0.785	1.125	1.137	1.335	1.297	1.399	1.621	1.805	2.695	3.111	5.735	6.575	6.143	3.764	2.784	3.225	3.162	3.077	4.405	9.586	21.43	55.55
310.0	202.6	238.0	332.1	328.3	245.9	216.5	245.8	302.7	356.6	453.9	633.3	 1000	 1418	 1064	561.0	515.4	 1532	 5391	9999.9	 4933	74.06	11.61	8.131	5.742	4.775	4.395	3.964	2.990	2.937	2.820	2.567	2.651	2.438	1.688	1.623	1.380	1.242	1.452	1.190	1.221	1.039	0.954	1.029	1.092	0.924	1.250	1.201	1.445	1.444	1.355	1.109	1.103	1.209	1.097	1.025	1.058	1.290	1.273	1.627	1.641	1.725	1.909	2.286	2.198	2.746	3.660	4.680	5.562	6.509	5.435	4.052	2.975	2.473	2.558	3.378	5.672	13.64
315.0	216.8	257.1	352.9	375.9	293.6	241.3	277.7	328.6	408.0	529.2	667.8	861.4	 1076	 1464	962.8	460.0	545.2	 1341	 3101	9999.9	 7173	97.85	12.21	7.675	5.903	5.244	4.726	3.196	3.145	2.873	2.713	2.382	2.283	1.785	1.675	1.404	1.502	1.449	1.141	1.188	0.963	0.806	0.994	1.052	1.239	1.355	1.429	1.541	1.447	1.451	1.169	1.187	1.291	1.172	0.920	1.518	1.427	1.539	1.605	1.566	1.944	1.771	2.247	2.565	3.116	3.099	4.126	4.096	4.650	5.727	7.691	5.833	3.814	2.625	2.294	2.727	3.936
320.0	192.7	292.6	422.7	413.2	339.0	283.6	299.0	366.6	470.4	560.1	719.2	902.0	996.3	 1233	 1415	646.6	403.7	493.6	833.2	 3939	9999.9	 5448	66.13	9.685	6.974	6.189	4.426	3.750	4.086	3.016	2.572	2.644	2.158	2.026	1.807	1.315	1.575	1.410	1.086	1.031	1.077	1.101	1.108	1.116	1.361	1.533	1.479	1.838	1.767	1.519	1.264	1.386	1.195	1.277	1.313	1.583	1.318	1.844	1.735	1.762	2.104	2.119	2.343	2.767	3.243	3.267	4.125	3.805	4.102	5.194	6.172	7.240	6.966	4.022	2.619	2.054	2.460
325.0	221.2	350.4	503.4	494.3	368.3	313.0	310.6	411.5	501.5	615.1	783.8	926.9	 1024	 1077	 1336	 1073	468.5	354.8	357.9	 1034	 5528	9999.9	912.5	38.50	9.037	6.303	5.486	4.055	3.824	3.650	3.063	3.267	2.462	1.762	1.943	1.299	1.468	1.556	1.120	1.109	1.372	0.899	1.115	1.140	1.155	1.644	1.707	1.933	1.753	1.730	1.577	1.656	1.524	1.321	1.564	1.310	1.813	1.824	1.649	2.185	1.937	2.320	2.640	2.879	3.061	3.240	3.683	3.953	4.517	4.314	4.622	5.483	6.622	6.798	4.227	2.867	2.203
330.0	236.3	394.6	576.9	596.0	432.9	373.1	370.5	425.9	540.9	667.7	832.2	984.1	 1068	 1081	 1083	 1129	877.8	460.2	316.3	407.6	 1408	 4997	9999.9	 3800	59.58	10.50	7.202	5.096	4.419	3.927	3.278	3.033	2.469	1.813	1.966	1.484	1.454	1.406	1.189	1.416	1.193	1.351	1.176	1.115	1.521	1.562	1.823	2.047	2.222	2.095	1.908	1.830	1.760	1.606	1.651	1.458	1.763	1.742	1.969	2.250	2.339	2.591	2.943	3.084	3.440	3.484	4.036	4.633	4.696	4.575	4.856	4.727	4.582	5.536	5.432	5.047	4.408
335.0	255.6	436.2	626.1	658.9	523.0	441.3	420.6	480.0	574.4	720.7	902.6	 1058	 1159	 1148	 1060	960.4	 1029	860.5	424.5	345.4	500.5	 1236	 3099	9999.9	 5798	79.50	10.56	7.198	6.016	4.911	4.035	3.366	3.222	2.176	1.906	1.516	1.744	1.612	1.190	1.138	1.318	1.383	1.220	1.659	1.552	1.855	1.787	2.436	2.441	2.169	2.273	1.921	1.775	1.746	1.696	1.779	2.002	2.060	2.045	2.251	2.539	2.302	3.162	3.220	3.586	3.775	4.184	4.913	4.681	4.908	5.183	5.117	4.521	4.737	4.408	4.812	6.161
340.0	252.9	446.3	637.1	698.1	567.1	490.7	468.5	525.8	612.2	756.9	918.5	 1070	 1183	 1168	 1109	935.8	911.9	 1044	654.9	390.8	338.7	434.6	810.9	 4027	9999.9	 4435	56.96	9.524	6.824	5.602	4.734	3.271	3.220	2.742	2.117	1.677	1.400	1.468	1.420	1.301	1.271	1.314	1.158	1.261	1.335	1.848	2.098	2.214	2.257	2.538	2.125	2.019	2.184	2.371	1.600	2.011	2.234	2.303	2.240	2.199	2.427	2.392	3.119	3.831	3.543	3.909	4.465	4.545	5.264	6.416	5.035	5.133	4.872	5.031	4.163	4.113	4.786
345.0	275.2	440.5	633.8	723.4	610.8	542.2	529.6	561.6	663.0	791.7	933.8	 1085	 1184	 1179	 1120	974.5	856.9	927.4	932.4	525.2	362.4	308.4	336.9	 1042	 5629	9999.9	755.2	36.19	8.806	6.413	4.802	3.587	2.907	2.667	1.969	1.854	1.637	1.640	1.455	1.322	1.119	0.843	1.280	1.310	1.268	1.832	2.057	2.336	2.532	2.535	2.364	2.238	2.332	1.946	2.000	2.002	2.437	2.224	2.400	2.149	2.540	2.960	3.116	3.503	3.793	4.127	4.236	4.468	4.774	5.678	4.913	5.084	5.020	4.942	4.490	4.148	4.041
350.0	261.9	451.8	611.6	727.6	670.2	616.5	610.7	621.1	711.5	824.1	978.7	 1100	 1207	 1199	 1139	 1034	913.3	857.3	934.3	866.5	552.1	397.8	330.3	427.9	 1459	 5084	 9074	 3214	53.14	11.35	7.167	4.538	3.497	2.929	2.105	1.835	1.555	1.613	1.491	1.380	1.314	1.169	1.291	1.277	1.440	1.774	1.970	2.231	2.440	2.450	2.293	2.562	2.583	2.244	2.160	2.426	2.422	2.421	2.906	2.767	2.800	3.102	3.084	3.643	3.793	4.078	4.572	4.712	4.782	5.462	5.293	5.362	5.169	5.030	5.116	4.925	4.697
355.0	249.5	449.3	622.3	735.8	721.9	689.5	682.0	710.2	804.5	888.4	 1054	 1137	 1218	 1237	 1192	 1092	 1009	918.7	895.3	960.7	922.5	605.8	474.0	419.1	575.6	 1319	 3103	 9841	 4941	72.31	10.94	6.399	4.545	3.933	2.608	1.986	1.697	2.002	1.396	1.447	1.573	1.044	1.505	1.281	1.902	1.972	1.796	2.238	2.354	2.256	2.216	2.757	3.001	2.553	2.582	2.612	2.618	2.666	2.806	3.102	3.256	3.730	3.544	3.785	4.338	4.189	4.402	5.078	5.054	5.194	5.249	5.365	5.858	5.627	5.747	5.687	5.422
360.0	246.7	428.4	620.4	746.6	781.2	757.0	762.0	786.7	877.8	958.9	 1085	 1209	 1241	 1258	 1226	 1146	 1072	992.4	955.3	950.9	 1083	880.3	620.3	519.0	467.3	548.6	886.7	 4252	9999.9	 3756	49.32	9.234	6.038	3.981	2.934	2.036	2.284	1.925	1.511	1.564	1.423	1.065	1.558	1.463	1.892	1.826	1.585	2.535	1.993	2.520	2.268	2.791	2.738	2.790	2.938	2.766	2.905	3.074	3.029	2.786	3.438	3.756	3.908	3.973	4.581	4.380	4.878	5.148	5.215	5.526	5.651	4.820	5.525	6.163	5.799	5.976	5.672
365.0	234.8	440.1	591.5	727.0	813.0	814.0	830.1	832.0	916.6	 1046	 1151	 1250	 1260	 1269	 1261	 1168	 1121	 1064	 1033	999.1	 1064	 1116	815.1	632.1	532.1	450.3	437.0	 1151	 5814	9999.9	672.8	29.58	7.891	4.953	4.042	2.124	2.478	2.106	1.413	1.653	1.283	1.447	1.454	1.565	1.869	1.580	1.491	2.394	2.134	2.568	2.269	2.863	2.910	3.004	2.982	2.990	3.069	3.171	3.636	3.152	4.032	4.153	3.930	4.605	4.843	4.610	4.774	5.267	5.076	5.183	5.598	5.894	5.753	6.361	5.839	5.860	5.869
370.0	240.8	431.2	614.2	752.7	861.6	861.3	869.5	896.6	985.1	 1111	 1210	 1281	 1300	 1293	 1275	 1222	 1192	 1154	 1133	 1110	 1099	 1169	 1135	869.1	680.7	547.5	434.2	486.3	 1516	 5173	 8287	 2790	43.71	8.455	4.906	3.391	2.827	2.240	1.786	1.661	1.470	1.655	1.306	1.450	1.695	1.620	1.752	2.403	2.267	2.232	2.457	2.858	3.202	3.107	2.789	3.015	3.489	3.558	3.775	3.328	4.067	4.350	4.594	4.601	4.727	4.762	4.953	5.222	5.293	5.341	5.348	5.784	6.072	6.104	6.340	5.830	6.147
375.0	242.5	415.1	600.6	784.2	899.5	921.9	912.5	960.6	 1058	 1147	 1278	 1329	 1342	 1323	 1300	 1245	 1232	 1217	 1219	 1216	 1196	 1197	 1219	 1184	883.5	685.8	540.7	422.8	542.0	 1282	 3071	 9130	 4025	55.85	8.070	5.003	3.666	2.553	2.220	2.020	1.703	1.689	1.547	1.382	1.725	1.681	1.865	2.398	2.518	2.424	2.552	3.109	3.065	3.399	3.306	3.289	3.368	3.976	3.606	3.645	4.074	4.585	4.638	4.723	4.944	5.006	5.124	5.291	5.436	5.576	5.685	5.469	5.874	6.110	6.145	6.138	5.962
380.0	241.5	398.2	607.7	806.6	915.4	960.3	971.7	 1025	 1080	 1179	 1293	 1327	 1367	 1322	 1303	 1252	 1258	 1253	 1271	 1265	 1265	 1256	 1241	 1279	 1089	805.6	630.6	478.6	373.7	453.6	813.1	 4244	 9649	 2841	36.05	6.749	4.713	2.915	2.840	2.186	1.888	1.811	1.992	1.580	1.799	1.900	1.858	2.442	2.494	2.924	2.491	2.864	2.877	3.712	3.867	3.251	3.673	3.960	3.744	3.749	4.168	4.614	4.034	4.977	5.031	5.131	5.535	5.457	5.338	5.293	5.521	5.370	5.889	6.721	5.950	6.616	5.926
385.0	244.8	409.6	608.9	798.6	930.1	948.1	 1037	 1043	 1129	 1210	 1302	 1344	 1351	 1332	 1302	 1258	 1255	 1274	 1294	 1307	 1322	 1304	 1254	 1245	 1250	957.4	724.8	544.5	395.3	316.1	329.4	 1111	 5644	 8708	519.3	19.20	6.600	4.050	2.864	2.344	2.012	2.042	1.737	1.489	1.872	1.901	1.978	2.398	2.964	2.653	2.546	2.799	3.387	3.842	3.671	4.019	3.789	3.897	4.049	3.907	4.242	4.858	4.362	4.930	5.424	5.467	5.940	5.749	5.651	5.168	5.937	6.373	5.643	6.103	5.894	6.753	6.681
390.0	239.9	393.5	630.8	802.2	964.4	979.5	 1050	 1081	 1173	 1238	 1335	 1368	 1389	 1325	 1274	 1247	 1253	 1276	 1301	 1337	 1357	 1345	 1311	 1262	 1244	 1169	895.7	667.5	498.9	378.4	295.1	402.7	 1467	 4691	 6441	 2098	34.36	7.626	4.164	3.081	2.426	2.296	1.792	1.818	1.996	2.168	2.114	2.323	2.688	2.515	2.645	2.881	3.371	3.713	3.687	3.759	3.958	3.863	4.383	4.144	4.110	4.986	4.777	5.209	5.170	5.298	5.379	5.950	6.123	6.048	5.686	6.261	5.676	6.144	6.204	6.606	6.576
395.0	252.2	391.8	633.6	833.3	995.3	 1030	 1095	 1136	 1237	 1308	 1386	 1421	 1408	 1344	 1265	 1225	 1236	 1255	 1300	 1358	 1388	 1395	 1364	 1308	 1265	 1233	 1140	855.8	648.8	514.4	394.6	333.0	492.8	 1160	 2567	 7169	 3064	45.39	8.155	4.594	3.214	2.345	2.329	1.775	2.073	1.918	2.361	2.611	3.019	2.706	2.668	3.150	3.550	3.923	4.022	3.703	4.228	3.836	4.543	4.765	4.474	4.881	4.711	5.735	5.206	5.629	5.517	6.784	6.208	6.006	5.738	5.604	5.717	5.716	5.711	6.350	7.004
400.0	265.9	408.9	638.8	841.2	 1013	 1095	 1190	 1250	 1295	 1367	 1438	 1488	 1449	 1352	 1286	 1227	 1227	 1266	 1298	 1348	 1392	 1424	 1414	 1379	 1320	 1261	 1252	 1074	812.0	661.1	518.9	403.4	344.5	414.0	696.7	 3550	 7357	 2092	30.88	7.048	4.426	2.956	2.505	2.100	2.117	2.056	2.255	2.647	2.840	2.918	2.772	3.155	3.162	3.965	4.629	4.297	4.422	4.035	4.453	4.936	4.934	5.454	5.383	5.771	5.103	5.455	6.324	7.058	6.670	5.801	6.178	5.929	5.701	5.901	6.279	6.206	6.572
405.0	258.3	410.9	662.5	884.0	 1064	 1176	 1274	 1355	 1445	 1449	 1531	 1542	 1524	 1394	 1288	 1220	 1219	 1253	 1293	 1349	 1393	 1454	 1455	 1436	 1402	 1341	 1303	 1265	 1026	830.8	671.4	528.2	398.7	321.9	304.6	960.3	 4543	 6461	432.5	17.02	6.494	4.051	2.759	2.492	2.362	2.299	2.489	2.581	2.722	2.833	2.775	3.792	4.087	4.100	4.378	4.276	5.155	4.699	5.107	5.148	6.174	5.778	5.922	5.602	5.857	5.705	6.148	6.494	6.581	6.012	6.247	5.952	5.318	5.543	5.830	5.862	6.822
410.0	284.4	417.4	698.5	942.5	 1170	 1316	 1464	 1597	 1693	 1693	 1750	 1726	 1663	 1480	 1309	 1213	 1209	 1239	 1292	 1363	 1427	 1497	 1532	 1550	 1558	 1529	 1490	 1470	 1406	 1189	985.0	791.2	598.0	444.8	324.4	379.6	 1213	 3591	 4299	 1640	30.79	6.557	4.108	3.052	2.812	2.457	2.659	2.960	2.920	3.002	2.980	3.950	4.398	4.557	5.084	4.796	5.509	5.691	6.227	6.258	6.466	6.707	6.613	6.957	6.648	6.683	6.751	6.635	6.901	6.499	6.444	5.857	5.389	6.010	6.053	6.571	6.618
415.0	306.6	459.1	783.8	 1037	 1309	 1540	 1733	 1957	 2065	 2050	 2043	 1986	 1866	 1591	 1334	 1226	 1203	 1229	 1302	 1382	 1476	 1564	 1626	 1698	 1755	 1780	 1785	 1762	 1736	 1669	 1414	 1145	896.5	654.7	464.4	348.4	432.4	902.0	 1880	 5375	 2435	39.19	6.060	3.997	3.004	2.852	2.947	3.146	2.798	2.850	3.581	3.983	5.071	5.294	5.635	5.519	6.372	7.225	7.478	7.636	7.763	7.561	8.059	8.096	7.664	7.901	8.021	7.819	7.405	7.071	6.536	5.818	5.937	6.036	5.835	6.779	6.673
