Sample:	'1
File name:	y2041炜烨热电原水.FD3
Run date:	'09:06:29, 03/09/2024
Operator:	Administrator
Comment:	'

Instrument
Model:	F-2700 FL Spectrophotometer
Serial number:	23B8-004
ROM Version:	4J14000 07

Instrument parameters
Measurement type:	3-D scan
Data mode:	Fluorescence
EX  Start WL:	220.0 nm
EX  End WL:	600.0 nm
EX Sampling interval:	5.0 nm
EM  Start WL:	230.0 nm
EM  End WL:	650.0 nm
EM Sampling interval:	5.0 nm
Scan speed:	12000 nm/min
EX Slit:	5.0 nm
EM Slit:	5.0 nm
PMT Voltage:	700 V
Response:	Auto 
Corrected spectra:	Off
Contour interval:	50.000

Peak integration
Integration method:	Rectangular
Sensitivity:	1
Threshold:	1.000

Peaks
No.	ApexEX/EM(nm)	Height(Data)
1	225.0/585.0	18.72
2	225.0/615.0	15.72
3	230.0/340.0	428.2
4	230.0/500.0	188.0
5	235.0/405.0	262.0
6	235.0/510.0	160.8
7	240.0/400.0	260.3
8	240.0/525.0	152.8
9	245.0/270.0	383.9
10	245.0/405.0	260.3
11	245.0/535.0	130.1
12	250.0/275.0	476.5
13	250.0/425.0	240.8
14	250.0/550.0	114.9
15	255.0/280.0	587.1
16	255.0/435.0	233.1
17	255.0/560.0	107.9
18	260.0/285.0	554.6
19	260.0/570.0	88.38
20	265.0/585.0	87.28
21	270.0/300.0	783.9
22	270.0/595.0	74.63
23	275.0/305.0	872.8
24	275.0/335.0	358.3
25	275.0/610.0	61.21
26	280.0/310.0	730.9
27	280.0/625.0	54.13
28	285.0/315.0	729.5
29	285.0/635.0	41.34
30	290.0/325.0	616.0
31	295.0/330.0	461.3
32	300.0/335.0	412.2
33	305.0/340.0	358.1
34	310.0/350.0	264.0
35	315.0/355.0	243.5
36	320.0/360.0	245.4
37	330.0/375.0	185.9
38	335.0/380.0	200.9
39	340.0/385.0	174.8
40	350.0/400.0	153.5
41	355.0/405.0	140.2
42	365.0/420.0	118.5
43	370.0/425.0	104.6
44	380.0/440.0	79.85
45	385.0/445.0	70.16
46	395.0/460.0	49.97
47	400.0/465.0	44.55
48	405.0/470.0	35.67
49	410.0/480.0	30.00
50	415.0/485.0	27.34
51	420.0/490.0	22.67
52	425.0/495.0	20.46
53	430.0/505.0	18.10
54	435.0/510.0	15.42
55	440.0/515.0	13.33
56	445.0/525.0	11.49
57	450.0/530.0	9.598
58	460.0/545.0	6.000
59	470.0/560.0	3.729
60	485.0/265.0	2.232
61	495.0/270.0	2.193
62	505.0/275.0	3.459
63	510.0/280.0	3.579
64	520.0/285.0	3.939
65	530.0/290.0	3.544
66	540.0/295.0	4.851
67	545.0/300.0	4.976
68	550.0/305.0	4.890
69	560.0/310.0	4.331
70	575.0/315.0	4.331
71	580.0/320.0	4.256
72	585.0/325.0	4.074

Data points
	220.0	225.0	230.0	235.0	240.0	245.0	250.0	255.0	260.0	265.0	270.0	275.0	280.0	285.0	290.0	295.0	300.0	305.0	310.0	315.0	320.0	325.0	330.0	335.0	340.0	345.0	350.0	355.0	360.0	365.0	370.0	375.0	380.0	385.0	390.0	395.0	400.0	405.0	410.0	415.0	420.0	425.0	430.0	435.0	440.0	445.0	450.0	455.0	460.0	465.0	470.0	475.0	480.0	485.0	490.0	495.0	500.0	505.0	510.0	515.0	520.0	525.0	530.0	535.0	540.0	545.0	550.0	555.0	560.0	565.0	570.0	575.0	580.0	585.0	590.0	595.0	600.0
230.0	42.67	1742	5356	1747	56.93	6.006	5.015	3.605	3.191	3.138	2.589	2.683	2.214	1.951	1.697	1.548	1.275	1.007	1.057	1.061	0.849	0.731	0.788	0.676	0.657	0.502	0.471	0.424	0.465	0.409	0.466	0.312	0.354	0.369	0.282	0.279	0.227	0.250	0.196	0.216	0.291	0.393	0.469	0.298	0.206	0.229	1.891	9.317	16.46	12.37	5.015	0.833	0.189	0.104	0.139	0.111	0.105	0.088	0.104	0.075	0.074	0.073	0.045	0.042	0.032	0.036	0.049	0.031	0.041	-0.002	0.001	0.006	0.007	0.013	0.026	0.016	0.004
235.0	103.7	455.2	2812	5041	1994	104.8	6.834	4.179	3.989	3.699	3.027	2.631	2.133	2.054	1.975	1.705	1.493	1.120	1.134	1.072	0.847	0.771	0.918	0.693	0.786	0.535	0.509	0.520	0.603	0.458	0.396	0.381	0.304	0.428	0.275	0.318	0.233	0.305	0.264	0.227	0.279	0.266	0.400	0.479	0.557	0.286	0.573	2.396	5.816	11.16	15.00	16.40	8.865	1.845	0.205	0.189	0.079	0.067	0.103	0.100	0.079	0.072	0.076	0.061	0.021	0.057	0.053	0.050	0.050	0.010	-0.006	0.023	0.004	0.006	0.001	0.009	-0.010
240.0	157.7	199.4	760.3	3604	4586	470.4	48.03	6.809	5.059	5.323	3.585	3.494	2.193	2.299	2.061	1.876	1.511	1.025	1.053	1.125	0.969	0.821	0.857	0.781	0.684	0.565	0.525	0.442	0.467	0.409	0.462	0.397	0.333	0.400	0.314	0.291	0.265	0.289	0.256	0.272	0.255	0.209	0.232	0.355	0.823	0.813	0.549	0.728	1.440	3.191	7.435	18.15	24.05	17.89	7.272	1.003	0.140	0.080	0.102	0.065	0.077	0.065	0.073	0.054	0.066	0.056	0.064	0.037	0.007	0.058	-0.006	0.020	0.007	0.001	-0.006	-0.003	-0.015
245.0	110.9	230.0	244.1	1094	4690	3642	369.9	21.36	7.204	6.032	4.434	4.449	3.086	2.634	2.140	1.623	1.487	1.689	1.020	1.402	0.998	0.943	0.938	0.855	0.680	0.637	0.522	0.536	0.378	0.425	0.409	0.383	0.439	0.259	0.246	0.302	0.285	0.272	0.260	0.228	0.262	0.190	0.247	0.255	0.409	0.690	0.861	0.842	0.579	0.890	1.843	5.654	14.83	25.52	26.80	15.98	4.652	0.267	0.127	0.069	0.105	0.108	0.051	0.087	0.058	0.075	0.073	0.024	0.063	0.048	0.005	0.066	0.036	0.016	0.008	0.000	0.004
250.0	38.21	152.7	273.3	355.2	1376	3758	4752	1370	95.17	8.984	7.062	5.618	4.303	3.221	2.686	1.964	1.924	1.772	1.286	1.383	1.133	0.928	0.884	0.908	0.889	0.761	0.502	0.511	0.459	0.427	0.422	0.384	0.362	0.320	0.313	0.319	0.282	0.296	0.209	0.238	0.214	0.240	0.227	0.228	0.234	0.321	0.505	0.831	1.012	1.024	0.901	1.492	3.601	7.640	14.64	22.58	27.20	26.81	13.34	4.227	0.427	0.136	0.097	0.096	0.080	0.098	0.073	0.045	0.060	0.037	0.024	0.039	0.012	0.038	0.013	0.035	0.022
255.0	19.76	47.70	161.7	372.7	411.8	908.2	3302	7901	1987	114.9	10.39	7.617	5.716	4.935	3.015	2.687	2.147	1.783	1.318	1.561	1.315	1.009	1.069	0.888	0.841	0.692	0.461	0.545	0.630	0.559	0.382	0.461	0.398	0.367	0.291	0.398	0.251	0.272	0.276	0.221	0.242	0.246	0.228	0.225	0.229	0.199	0.287	0.378	0.482	0.893	1.685	1.706	1.304	1.865	3.499	5.355	9.230	21.80	42.32	30.30	20.18	4.505	0.266	0.131	0.097	0.108	0.076	0.066	0.087	0.069	0.060	0.032	0.001	0.030	0.005	0.054	0.034
260.0	14.71	19.89	59.13	279.5	374.3	264.4	913.3	5354	9249	1588	64.63	11.40	7.487	6.026	3.775	3.525	2.253	2.107	1.770	1.715	1.180	1.078	1.098	0.953	0.867	0.749	0.617	0.564	0.646	0.508	0.383	0.476	0.388	0.301	0.363	0.345	0.257	0.290	0.287	0.185	0.284	0.217	0.214	0.271	0.249	0.185	0.261	0.275	0.266	0.435	1.040	1.858	2.053	1.221	1.171	1.386	2.227	5.639	16.61	34.61	55.81	29.57	15.99	1.996	0.221	0.181	0.128	0.089	0.103	0.097	0.046	0.030	0.047	0.018	0.029	0.033	0.043
265.0	14.89	16.13	26.88	113.5	389.7	281.2	240.2	1595	8035	9999.9	1135	25.33	9.497	7.497	5.055	4.374	2.806	2.669	2.018	1.830	1.408	1.168	1.452	1.077	0.930	0.824	0.683	0.697	0.659	0.686	0.469	0.482	0.443	0.428	0.400	0.435	0.240	0.308	0.276	0.199	0.295	0.367	0.312	0.215	0.269	0.185	0.220	0.243	0.195	0.277	0.403	0.873	1.802	2.232	1.675	0.738	0.661	1.434	3.986	9.767	27.13	53.98	68.99	26.39	9.151	0.622	0.186	0.160	0.086	0.144	0.068	0.088	0.089	0.051	0.076	0.059	0.048
270.0	21.56	22.07	20.99	39.10	162.6	383.9	302.8	412.3	2286	7831	9999.9	3900	67.70	12.41	7.590	5.613	3.942	3.497	2.552	2.186	1.721	1.378	1.406	1.179	1.034	0.919	0.721	0.764	0.750	0.743	0.643	0.586	0.503	0.498	0.437	0.423	0.345	0.347	0.301	0.289	0.311	0.308	0.334	0.297	0.289	0.280	0.241	0.250	0.214	0.242	0.233	0.358	0.646	1.085	1.892	2.193	1.967	1.170	1.208	2.458	6.430	15.06	30.94	45.42	61.91	54.16	17.00	7.292	0.703	0.208	0.106	0.129	0.103	0.081	0.116	0.098	0.059
275.0	35.68	39.15	31.50	25.28	49.29	149.2	476.5	357.6	557.7	1855	5747	9999.9	4948	78.98	11.88	8.071	5.100	4.566	3.393	3.177	2.187	1.947	1.620	1.475	1.157	1.164	0.899	0.786	0.964	0.759	0.741	0.655	0.517	0.528	0.638	0.501	0.442	0.479	0.411	0.321	0.352	0.341	0.356	0.422	0.337	0.322	0.311	0.372	0.211	0.315	0.257	0.236	0.378	0.388	0.605	0.979	2.062	3.459	2.669	1.291	1.790	3.594	7.154	10.52	17.44	38.03	74.80	90.35	26.66	8.812	0.539	0.215	0.169	0.139	0.116	0.128	0.058
280.0	64.62	61.72	45.30	30.63	25.88	53.53	253.8	587.1	298.1	461.1	1506	8922	9999.9	1018	46.90	10.94	7.453	5.829	4.424	3.162	2.604	2.027	2.134	1.513	1.327	1.048	1.034	0.881	0.904	0.897	0.800	0.817	0.591	0.587	0.601	0.677	0.507	0.479	0.380	0.345	0.427	0.371	0.383	0.458	0.351	0.352	0.321	0.389	0.351	0.382	0.281	0.294	0.281	0.233	0.301	0.390	0.849	2.159	3.579	3.321	1.617	1.144	1.825	2.687	4.242	9.443	24.57	60.57	99.33	87.56	22.06	3.975	0.388	0.168	0.173	0.152	0.134
285.0	77.09	79.41	65.84	39.87	27.27	27.89	96.88	436.9	554.6	208.3	395.8	2548	9999.9	9999.9	726.2	22.14	10.11	7.523	4.757	4.029	3.043	2.396	2.373	1.754	1.642	1.235	1.057	1.029	1.040	1.070	0.725	0.835	0.823	0.572	0.660	0.624	0.508	0.507	0.467	0.467	0.383	0.396	0.508	0.362	0.552	0.433	0.480	0.545	0.438	0.426	0.291	0.292	0.266	0.246	0.245	0.266	0.419	0.857	1.562	3.236	3.939	2.392	1.037	0.983	1.309	2.551	5.919	15.46	39.87	80.77	104.2	32.29	16.00	1.631	0.274	0.233	0.194
290.0	105.7	116.6	99.07	61.96	39.30	32.63	50.74	160.1	474.2	470.1	223.8	654.5	2798	9999.9	9999.9	2745	42.89	11.66	7.076	5.497	3.809	3.205	2.650	2.116	1.838	1.563	1.338	1.142	1.099	1.081	0.963	0.883	0.942	0.766	0.756	0.683	0.591	0.586	0.488	0.469	0.480	0.504	0.535	0.485	0.518	0.543	0.557	0.602	0.570	0.485	0.394	0.389	0.325	0.293	0.267	0.272	0.341	0.488	0.606	1.170	2.127	3.175	3.544	2.762	1.419	1.157	1.763	3.935	9.471	20.30	38.11	57.17	81.45	66.59	60.62	11.63	2.335
295.0	118.4	157.0	138.1	86.14	52.74	48.67	56.33	84.87	184.0	499.6	653.9	297.9	725.9	2361	6192	9999.9	3792	48.94	11.30	8.545	5.370	3.728	3.481	2.901	2.227	1.678	1.363	1.467	1.418	1.053	1.147	0.809	0.814	0.847	0.816	0.776	0.662	0.783	0.666	0.556	0.456	0.519	0.583	0.482	0.568	0.666	0.717	0.737	0.689	0.584	0.480	0.483	0.443	0.397	0.349	0.339	0.385	0.499	0.468	0.708	0.980	1.301	1.936	3.547	4.851	2.887	1.450	1.571	2.682	5.217	9.115	13.35	20.14	32.08	95.03	109.9	34.38
300.0	140.9	186.1	161.3	111.8	68.04	62.93	71.96	83.44	126.6	266.9	783.9	537.3	303.0	637.3	1584	9121	9999.9	612.1	30.85	11.54	6.767	4.763	4.549	3.344	2.982	1.975	1.575	1.511	1.551	1.178	1.186	0.831	0.912	0.816	0.889	0.802	0.764	0.776	0.699	0.637	0.557	0.578	0.605	0.549	0.689	0.689	0.709	0.937	0.800	0.761	0.522	0.585	0.526	0.430	0.406	0.408	0.499	0.473	0.571	0.564	0.702	0.810	1.085	1.753	3.606	4.976	3.938	1.983	1.540	1.877	2.872	3.704	5.008	7.942	25.77	54.26	95.68
305.0	160.3	208.1	192.3	135.3	87.82	80.89	89.81	99.52	134.7	194.7	495.8	872.8	375.6	287.3	455.4	2509	9999.9	9999.9	470.4	19.11	9.200	6.401	5.484	4.119	3.271	2.460	1.957	1.845	1.668	1.512	1.234	1.063	1.195	0.961	0.942	0.945	0.789	0.880	0.697	0.697	0.731	0.669	0.658	0.736	0.767	0.845	0.865	0.985	0.841	0.785	0.644	0.698	0.611	0.481	0.565	0.506	0.555	0.503	0.740	0.706	0.793	0.827	0.936	1.286	1.925	3.094	4.890	4.717	2.885	1.731	1.467	1.688	1.926	2.487	6.421	13.01	30.52
310.0	175.7	222.9	213.3	155.0	104.5	97.63	109.8	125.6	157.7	202.1	317.5	601.2	730.9	384.3	231.2	645.6	2778	9999.9	9756	2055	31.62	9.617	7.117	5.779	4.083	3.041	2.390	2.154	1.952	1.672	1.374	1.242	1.241	1.074	1.105	1.021	0.832	0.874	0.777	0.847	0.788	0.778	0.678	0.791	0.777	0.882	0.960	1.035	0.945	0.833	0.766	0.717	0.673	0.586	0.662	0.505	0.687	0.633	0.762	0.831	0.882	1.021	1.116	1.194	1.384	1.840	2.464	3.375	4.331	4.022	3.040	1.794	1.395	1.373	2.025	3.513	7.393
315.0	200.7	249.8	245.2	166.6	124.0	110.9	124.8	142.5	175.8	215.0	288.9	380.6	539.9	729.5	303.1	246.5	687.1	2313	6020	9999.9	2979	36.71	10.40	7.847	5.561	3.548	2.758	2.615	2.083	1.830	1.740	1.398	1.380	1.142	1.134	1.118	0.866	0.960	0.845	0.832	0.779	0.826	0.865	0.845	0.916	0.878	0.905	1.243	1.051	0.994	0.850	0.926	0.686	0.700	0.638	0.641	0.920	0.828	0.804	1.082	1.006	1.155	1.100	1.403	1.416	1.563	1.849	2.130	2.550	3.079	4.302	4.331	2.493	1.652	1.321	1.590	2.344
320.0	220.0	299.6	286.3	193.6	136.1	122.0	139.5	155.5	188.8	232.8	298.6	352.7	390.3	631.2	550.2	200.6	228.8	569.3	1502	9050	9999.9	475.1	26.03	11.25	6.286	4.525	3.405	3.118	2.822	2.011	1.857	1.523	1.409	1.240	1.141	1.195	1.048	0.917	0.883	0.961	0.903	0.848	0.945	0.834	1.055	1.029	1.171	1.371	1.139	1.027	0.896	0.838	0.766	0.813	0.771	0.708	0.960	0.831	0.939	1.010	1.137	1.152	1.129	1.312	1.564	1.534	1.769	1.920	2.132	2.174	2.784	3.900	4.256	3.399	1.537	1.113	1.170
325.0	245.9	342.9	333.6	221.4	147.7	132.6	148.4	161.9	201.1	240.3	308.8	351.5	355.6	426.4	616.0	354.1	140.3	183.8	374.2	2448	9999.9	9999.9	398.1	18.21	8.300	6.067	3.895	3.583	2.916	2.348	1.967	1.841	1.438	1.274	1.203	1.133	1.135	1.129	0.919	1.027	0.947	1.014	0.921	0.978	1.106	1.282	1.351	1.489	1.271	1.232	1.032	1.025	0.887	0.848	0.852	0.706	0.822	0.905	1.016	0.966	1.094	1.219	1.445	1.311	1.568	1.678	1.735	1.824	2.071	1.927	2.058	2.450	3.008	4.074	3.441	1.884	1.208
330.0	259.1	369.5	374.7	272.0	183.3	149.4	151.0	168.5	209.0	249.8	318.7	357.8	353.7	345.1	390.1	461.3	274.9	110.0	128.9	582.8	2687	8480	9999.9	1714	28.16	8.831	5.784	4.493	3.796	2.910	2.657	2.135	1.726	1.575	1.361	1.252	1.103	1.076	1.013	0.948	0.931	1.034	0.943	1.103	1.156	1.343	1.355	1.649	1.449	1.359	1.233	1.232	1.063	0.955	0.840	0.846	0.984	1.014	1.031	0.989	1.138	1.297	1.332	1.390	1.445	1.568	1.784	2.036	2.011	1.915	2.065	1.953	1.972	2.411	2.800	3.129	2.674
335.0	263.2	400.0	415.0	307.2	216.2	173.9	161.7	177.8	217.4	252.7	320.4	358.3	353.9	327.5	289.4	297.5	412.2	224.4	87.21	170.2	630.3	1949	5949	9999.9	2782	33.01	7.933	6.178	4.952	3.827	3.033	2.499	2.180	1.787	1.558	1.516	1.213	1.167	1.063	0.948	1.012	1.084	1.016	1.030	1.237	1.529	1.490	1.794	1.719	1.500	1.290	1.285	1.135	1.025	0.946	0.995	1.104	0.971	0.958	1.105	1.105	1.303	1.425	1.376	1.553	1.700	1.821	1.950	1.938	1.971	2.008	1.906	1.665	1.717	1.805	1.799	2.298
340.0	292.1	383.5	428.2	334.2	226.6	183.6	175.1	185.0	215.9	249.1	311.1	346.8	343.9	323.5	264.5	228.1	299.8	358.1	129.4	84.01	176.6	464.7	1480	8889	9999.9	2051	21.89	7.911	6.068	4.582	3.623	2.978	2.272	1.939	1.834	1.586	1.400	1.462	1.067	1.139	0.930	1.000	1.091	0.927	1.147	1.454	1.570	1.788	1.610	1.655	1.472	1.530	1.152	1.116	1.059	0.927	0.943	1.015	1.082	1.182	1.172	1.258	1.262	1.467	1.556	1.806	1.872	1.889	1.940	1.891	1.900	1.876	1.623	1.682	1.475	1.377	1.542
345.0	273.6	361.1	406.8	347.1	246.6	191.6	177.1	185.2	207.0	242.0	297.1	326.8	327.2	309.8	252.7	208.2	199.5	319.5	251.6	80.17	78.91	137.6	358.9	2396	9999.9	9999.9	358.5	12.84	7.185	5.535	3.923	3.117	2.471	2.184	1.810	1.690	1.300	1.343	1.125	1.123	0.985	1.105	1.049	1.107	1.136	1.389	1.470	1.760	1.547	1.680	1.449	1.320	1.187	1.134	1.134	0.984	1.079	1.121	1.139	1.031	1.314	1.300	1.296	1.479	1.439	1.695	1.756	1.945	1.669	1.637	1.745	1.867	1.583	1.542	1.492	1.251	1.119
350.0	242.4	345.5	381.6	326.8	250.8	201.4	189.8	192.6	206.6	233.0	282.0	308.7	311.0	294.7	248.7	203.2	167.1	190.3	264.0	199.5	72.59	70.26	112.5	563.9	2732	7914	8953	1511	26.02	7.366	5.148	3.790	2.887	2.345	1.926	1.641	1.434	1.380	1.083	1.121	1.052	1.064	1.000	1.133	1.121	1.279	1.361	1.630	1.502	1.500	1.322	1.423	1.304	1.025	1.129	0.937	1.112	1.104	1.162	1.105	1.230	1.337	1.225	1.373	1.417	1.569	1.592	1.680	1.700	1.722	1.670	1.710	1.533	1.474	1.423	1.229	1.207
355.0	227.3	308.6	361.9	321.0	255.6	207.9	198.9	198.7	209.2	235.4	262.8	286.8	290.8	276.4	237.7	200.6	165.4	147.3	159.7	243.5	177.8	68.36	64.48	157.3	632.5	1813	4824	9999.9	2588	31.41	7.183	4.798	3.549	2.747	2.137	1.788	1.643	1.404	1.175	1.163	1.062	1.029	1.106	0.952	1.083	1.215	1.254	1.482	1.598	1.444	1.299	1.415	1.158	1.137	1.065	0.961	1.196	1.044	1.154	1.079	1.165	1.176	1.275	1.296	1.318	1.471	1.419	1.684	1.625	1.590	1.590	1.432	1.597	1.404	1.212	1.414	1.266
360.0	215.3	293.1	336.8	309.7	248.9	220.8	200.7	206.0	210.3	231.0	253.2	273.7	275.3	265.2	234.0	200.6	165.5	142.5	128.7	173.3	245.4	123.3	59.76	70.26	169.9	427.0	1199	7184	9999.9	2001	22.20	6.896	4.484	3.247	2.580	1.986	1.730	1.497	1.168	1.275	1.190	1.010	1.119	0.998	1.179	1.130	1.271	1.382	1.438	1.382	1.176	1.405	1.201	1.231	1.200	1.077	1.207	1.099	1.058	1.121	1.209	1.162	1.206	1.338	1.237	1.397	1.330	1.541	1.437	1.554	1.456	1.585	1.464	1.329	1.271	1.298	1.208
365.0	199.2	278.7	311.3	301.9	256.5	227.1	210.3	206.0	214.3	228.9	248.3	271.0	264.2	255.7	228.8	201.0	168.7	147.7	128.8	128.8	206.9	206.8	84.63	57.35	69.87	121.8	289.8	1940	9311	9999.9	348.6	12.51	6.038	4.146	3.036	2.471	1.838	1.529	1.334	1.326	1.350	1.047	1.026	1.036	1.066	1.038	1.215	1.345	1.415	1.375	1.236	1.405	1.311	1.190	1.217	1.086	1.195	1.157	1.128	1.192	1.116	1.063	1.201	1.311	1.300	1.255	1.285	1.467	1.420	1.448	1.590	1.414	1.395	1.292	1.248	1.195	1.191
370.0	179.0	257.2	297.6	289.5	265.7	241.7	221.9	216.2	219.6	230.3	243.8	254.9	253.7	243.8	222.1	198.7	174.0	153.0	135.3	123.6	139.1	195.1	177.0	83.25	56.03	58.84	89.97	454.7	2522	7845	9840	1379	22.85	5.995	4.185	3.167	2.212	2.144	1.503	1.349	1.274	1.092	1.097	1.067	1.068	1.062	1.152	1.272	1.334	1.210	1.244	1.337	1.263	1.336	1.264	1.153	1.193	1.220	1.126	1.221	1.226	1.129	1.249	1.295	1.295	1.335	1.364	1.337	1.345	1.398	1.341	1.389	1.285	1.249	1.343	1.223	1.158
375.0	186.9	243.0	277.5	274.1	267.0	242.7	230.9	222.2	220.4	228.8	245.8	243.0	244.3	232.4	215.3	195.8	175.9	156.0	143.9	129.6	120.7	131.8	185.9	167.7	73.09	51.32	50.14	125.3	581.6	1802	5504	9999.9	2272	27.58	5.997	4.060	2.971	2.499	1.612	1.658	1.422	1.360	1.242	1.220	1.223	1.191	1.188	1.287	1.245	1.145	1.227	1.363	1.333	1.327	1.248	1.224	1.162	1.419	1.270	1.285	1.220	1.132	1.143	1.186	1.284	1.218	1.276	1.354	1.230	1.289	1.381	1.361	1.428	1.394	1.411	1.144	1.180
380.0	175.1	229.7	277.2	271.7	266.6	253.5	232.3	232.3	223.6	230.9	240.1	243.1	236.2	222.9	207.1	192.3	174.2	163.1	148.2	133.6	119.3	114.4	137.7	200.9	119.9	56.58	46.07	55.31	153.2	421.5	1388	7123	9999.9	1638	18.39	4.889	3.596	2.906	2.104	1.823	1.414	1.427	1.208	1.245	1.198	1.150	1.142	1.218	1.271	1.142	1.180	1.348	1.241	1.240	1.246	1.235	1.204	1.229	1.334	1.258	1.162	1.265	1.236	1.289	1.220	1.354	1.271	1.163	1.225	1.255	1.303	1.331	1.429	1.189	1.299	1.223	1.510
385.0	168.3	228.0	266.6	269.7	265.9	253.0	244.0	237.5	231.7	230.5	235.7	241.4	232.7	222.0	204.1	190.9	175.1	162.9	147.5	138.6	122.7	112.2	112.2	160.8	174.8	82.65	49.89	42.90	60.15	115.1	328.1	1944	8671	8676	285.5	9.585	4.512	3.451	2.495	2.225	1.722	1.648	1.360	1.327	1.196	1.231	1.264	1.259	1.229	1.145	1.042	1.413	1.296	1.315	1.374	1.108	1.413	1.275	1.297	1.318	1.211	1.224	1.186	1.263	1.248	1.341	1.264	1.293	1.290	1.276	1.258	1.336	1.429	1.314	1.192	1.122	1.254
390.0	173.0	221.5	254.2	270.4	256.0	254.8	251.9	237.6	231.8	233.8	232.7	233.9	224.9	216.1	203.1	187.4	174.0	164.2	150.1	141.0	127.0	116.8	109.7	116.6	154.9	144.0	75.07	47.88	44.04	50.45	93.08	450.9	2360	6478	7892	1099	18.95	5.190	3.380	2.750	2.154	1.856	1.623	1.407	1.297	1.216	1.222	1.256	1.219	1.191	1.081	1.396	1.251	1.291	1.258	1.219	1.340	1.327	1.358	1.423	1.191	1.298	1.194	1.185	1.225	1.282	1.152	1.224	1.253	1.176	1.199	1.147	1.300	1.280	1.247	1.256	1.232
395.0	168.6	222.8	247.3	264.0	259.4	253.3	249.3	243.0	235.3	235.1	231.5	226.8	217.3	209.4	196.4	181.3	173.0	162.0	152.7	143.0	129.5	120.7	111.7	107.2	110.8	141.8	135.2	67.06	45.32	41.12	44.48	118.6	539.8	1491	4548	9067	1872	24.65	4.635	3.726	2.720	2.071	1.808	1.533	1.311	1.272	1.246	1.316	1.242	1.296	1.147	1.287	1.389	1.299	1.215	1.133	1.396	1.270	1.438	1.343	1.225	1.272	1.234	1.106	1.294	1.368	1.137	1.196	1.187	1.153	1.146	0.985	1.176	1.058	1.126	1.256	1.466
400.0	158.6	214.7	251.7	259.8	260.3	259.6	245.3	240.9	240.3	236.2	233.1	220.9	211.1	202.4	189.1	175.6	164.7	160.9	149.6	142.6	131.2	122.7	113.1	104.0	98.29	110.0	153.5	105.4	53.41	41.77	36.05	46.92	136.0	345.6	1152	5942	8303	1471	16.30	4.459	2.961	2.765	2.162	1.755	1.462	1.204	1.280	1.355	1.306	1.269	1.157	1.258	1.291	1.225	1.264	1.257	1.337	1.230	1.301	1.412	1.204	1.230	1.282	1.334	1.234	1.298	1.144	1.125	1.106	1.194	1.133	1.156	1.165	1.185	1.258	1.098	1.427
405.0	148.6	208.1	246.9	262.0	254.9	260.3	247.4	242.5	239.5	231.1	227.5	220.6	210.0	198.2	187.4	171.9	164.0	160.0	150.4	142.3	131.0	121.5	113.6	106.7	97.94	93.61	124.1	140.2	74.41	46.03	37.13	33.40	47.51	90.22	269.1	1614	6710	7645	256.5	9.432	3.823	2.992	2.426	1.708	1.584	1.405	1.237	1.396	1.211	1.225	1.192	1.218	1.273	1.231	1.293	1.165	1.289	1.316	1.532	1.350	1.245	1.301	1.288	1.324	1.119	1.282	1.122	1.152	1.268	1.218	1.099	1.112	1.230	1.231	1.180	1.108	1.073
