Sample:	'1
File name:	Default_20230215_174312.FD3
Run date:	'17:36:51, 02/15/2023
Operator:	dsjg
Comment:	'

Instrument
Model:	F-2700 FL Spectrophotometer
Serial number:	2198-001
ROM Version:	4J14000 07

Instrument parameters
Measurement type:	3-D scan
Data mode:	Fluorescence
EX  Start WL:	220.0 nm
EX  End WL:	600.0 nm
EX Sampling interval:	5.0 nm
EM  Start WL:	230.0 nm
EM  End WL:	650.0 nm
EM Sampling interval:	5.0 nm
Scan speed:	12000 nm/min
EX Slit:	5.0 nm
EM Slit:	5.0 nm
PMT Voltage:	700 V
Response:	Auto 
Corrected spectra:	Off
Contour interval:	50.000

Peak integration
Integration method:	Rectangular
Sensitivity:	1
Threshold:	1.000

Peaks
No.	ApexEX/EM(nm)	Height(Data)
1	225.0/330.0	 3060
2	225.0/565.0	31.35
3	225.0/635.0	114.0
4	250.0/545.0	84.98
5	255.0/280.0	139.3
6	265.0/585.0	39.81
7	285.0/325.0	 5806
8	285.0/635.0	227.1
9	330.0/405.0	871.9
10	460.0/330.0	10.19
11	575.0/325.0	30.70

Data points
	220.0	225.0	230.0	235.0	240.0	245.0	250.0	255.0	260.0	265.0	270.0	275.0	280.0	285.0	290.0	295.0	300.0	305.0	310.0	315.0	320.0	325.0	330.0	335.0	340.0	345.0	350.0	355.0	360.0	365.0	370.0	375.0	380.0	385.0	390.0	395.0	400.0	405.0	410.0	415.0	420.0	425.0	430.0	435.0	440.0	445.0	450.0	455.0	460.0	465.0	470.0	475.0	480.0	485.0	490.0	495.0	500.0	505.0	510.0	515.0	520.0	525.0	530.0	535.0	540.0	545.0	550.0	555.0	560.0	565.0	570.0	575.0	580.0	585.0	590.0	595.0	600.0
230.0	55.55	851.6	 1376	263.9	6.063	2.098	1.822	1.498	1.468	1.459	1.742	1.859	1.934	1.797	1.696	1.471	1.327	0.840	0.643	0.638	0.587	0.567	0.509	0.504	0.484	0.454	0.411	0.425	0.385	0.367	0.278	0.291	0.234	0.205	0.236	0.293	0.289	0.272	0.226	0.212	0.196	0.254	0.252	0.213	0.162	0.158	0.454	2.487	5.741	5.325	2.245	0.437	0.092	0.105	0.068	0.047	0.050	0.055	0.040	0.039	0.022	0.022	0.008	0.014	0.020	0.010	0.009	0.000	0.001	0.000	-0.002	-0.010	-0.016	0.011	-0.014	-0.012	0.001
235.0	30.82	259.9	 1158	 1550	304.1	10.03	2.576	2.111	2.096	1.805	1.669	1.916	2.154	2.010	1.440	1.398	1.386	0.847	0.767	0.676	0.665	0.660	0.517	0.530	0.465	0.449	0.389	0.473	0.362	0.374	0.357	0.309	0.197	0.232	0.221	0.243	0.259	0.316	0.271	0.182	0.204	0.190	0.220	0.200	0.263	0.198	0.218	0.663	1.867	3.750	5.875	7.234	4.092	0.851	0.109	0.064	0.053	0.051	0.043	0.053	0.041	0.044	0.021	0.051	0.026	0.002	0.003	-0.003	0.005	-0.024	-0.002	-0.001	0.008	-0.017	-0.024	0.002	-0.017
240.0	47.56	77.64	427.2	 1649	 1633	230.7	5.053	2.921	2.188	1.945	2.537	2.159	2.408	1.913	1.790	1.361	1.368	0.916	0.759	0.535	0.542	0.591	0.413	0.527	0.452	0.483	0.427	0.417	0.369	0.405	0.353	0.330	0.227	0.253	0.179	0.183	0.242	0.306	0.255	0.190	0.208	0.223	0.184	0.221	0.287	0.283	0.258	0.337	0.548	1.076	2.630	7.051	10.48	8.155	3.116	0.367	0.085	0.066	0.054	0.014	0.056	0.073	0.016	0.063	0.006	-0.024	0.022	-0.018	-0.005	-0.003	-0.021	-0.014	-0.012	-0.026	-0.021	-0.008	-0.040
245.0	47.09	67.70	109.9	706.1	 2148	 1564	155.9	3.933	3.127	2.447	2.796	2.344	2.637	2.296	1.803	1.640	1.350	0.926	0.778	0.625	0.649	0.601	0.551	0.502	0.530	0.555	0.444	0.455	0.373	0.385	0.336	0.229	0.261	0.249	0.133	0.238	0.191	0.253	0.270	0.249	0.267	0.195	0.184	0.171	0.233	0.254	0.381	0.366	0.314	0.387	0.696	2.254	5.921	11.11	12.05	7.401	1.896	0.159	0.052	0.068	0.013	0.030	0.024	0.054	0.005	0.014	0.026	0.007	-0.006	0.018	0.002	-0.014	0.013	-0.004	-0.004	-0.016	-0.006
250.0	20.35	56.41	82.69	185.7	826.8	 1984	 1968	629.9	27.21	3.643	3.354	3.119	2.870	2.299	2.180	1.796	1.403	1.137	0.848	0.662	0.792	0.646	0.587	0.520	0.492	0.518	0.500	0.434	0.418	0.442	0.324	0.296	0.349	0.234	0.167	0.196	0.240	0.195	0.246	0.243	0.223	0.201	0.160	0.220	0.190	0.221	0.266	0.313	0.409	0.386	0.369	0.610	1.537	3.464	6.401	10.08	12.68	11.25	6.263	1.813	0.166	0.115	0.018	0.063	0.044	0.039	0.032	0.040	0.020	0.022	0.018	-0.004	-0.006	-0.003	-0.004	-0.022	-0.016
255.0	6.865	18.59	72.56	114.5	202.2	567.1	 1967	 3039	238.8	27.45	4.074	3.942	3.277	2.628	2.546	2.213	1.727	1.334	0.920	0.860	0.788	0.729	0.578	0.619	0.573	0.627	0.568	0.608	0.412	0.410	0.375	0.264	0.305	0.237	0.155	0.182	0.188	0.195	0.184	0.185	0.259	0.206	0.182	0.203	0.184	0.218	0.206	0.206	0.207	0.343	0.437	0.533	0.568	0.885	1.539	2.409	4.496	10.05	17.87	18.73	9.759	2.183	0.092	0.074	0.025	0.028	0.039	0.041	0.053	0.016	-0.002	0.004	-0.001	-0.003	0.013	-0.008	-0.024
260.0	8.394	7.524	34.12	102.8	106.1	141.7	692.5	 2797	 3087	203.5	13.70	4.840	4.051	3.570	2.890	2.616	2.114	1.402	1.042	0.838	0.703	0.725	0.582	0.643	0.564	0.543	0.540	0.527	0.469	0.472	0.423	0.316	0.351	0.222	0.182	0.184	0.152	0.169	0.167	0.164	0.126	0.225	0.209	0.179	0.234	0.230	0.160	0.211	0.170	0.208	0.278	0.642	0.659	0.553	0.476	0.586	1.080	2.730	7.612	16.56	22.96	19.10	7.221	0.965	0.103	0.045	0.038	0.033	0.023	0.048	-0.001	-0.003	0.005	0.003	0.016	0.020	0.014
265.0	5.017	6.696	12.73	58.87	120.8	77.80	170.7	 1077	 3521	 3057	163.4	8.908	4.896	4.299	3.457	2.744	2.178	1.479	0.957	0.979	0.787	0.964	0.556	0.658	0.693	0.661	0.552	0.470	0.415	0.568	0.409	0.350	0.275	0.185	0.197	0.241	0.178	0.197	0.150	0.122	0.164	0.185	0.244	0.224	0.212	0.215	0.223	0.204	0.219	0.154	0.194	0.321	0.485	0.673	0.611	0.354	0.343	0.721	1.865	4.952	12.55	23.02	25.34	16.27	4.270	0.245	0.052	0.059	0.013	0.028	0.010	-0.004	0.025	0.017	0.035	-0.002	0.013
270.0	9.626	10.87	9.692	21.47	68.31	110.5	95.03	263.7	 1201	 3018	 3548	686.9	46.99	5.719	4.237	3.357	2.526	1.799	1.290	1.115	0.951	0.985	0.752	0.808	0.764	0.643	0.594	0.538	0.466	0.517	0.424	0.344	0.284	0.261	0.210	0.260	0.180	0.228	0.157	0.167	0.140	0.171	0.197	0.252	0.226	0.250	0.225	0.233	0.222	0.188	0.170	0.215	0.222	0.396	0.511	0.625	0.577	0.430	0.540	1.209	3.033	6.672	12.32	19.27	21.70	19.81	11.13	3.699	0.337	0.071	0.045	0.037	0.055	0.045	0.055	0.011	0.009
275.0	20.87	20.76	16.85	15.70	23.64	61.30	128.5	126.9	285.4	784.5	 2487	 4455	 1047	53.81	6.273	4.284	3.221	2.230	1.618	1.308	1.128	1.082	0.969	0.869	0.744	0.675	0.667	0.645	0.532	0.639	0.462	0.453	0.378	0.264	0.320	0.231	0.219	0.248	0.199	0.237	0.163	0.204	0.176	0.236	0.303	0.276	0.302	0.325	0.258	0.181	0.175	0.186	0.204	0.198	0.224	0.303	0.622	0.827	0.738	0.526	0.821	1.589	2.897	4.534	6.939	14.53	26.44	26.14	16.18	3.148	0.194	0.074	0.067	0.016	0.060	0.010	-0.012
280.0	34.84	38.70	27.82	16.92	15.30	25.56	95.62	139.3	117.1	201.1	766.4	 3141	 4647	833.6	31.82	5.501	3.929	2.669	1.879	1.529	1.420	1.040	1.117	0.874	0.832	0.683	0.707	0.639	0.705	0.551	0.481	0.531	0.424	0.322	0.296	0.201	0.365	0.231	0.265	0.214	0.259	0.205	0.224	0.199	0.312	0.323	0.328	0.313	0.279	0.274	0.223	0.217	0.190	0.157	0.147	0.220	0.303	0.573	0.823	0.909	0.656	0.579	0.785	1.183	1.780	3.889	9.962	20.86	31.76	24.34	10.52	1.049	0.094	0.062	0.062	0.028	0.048
285.0	49.90	59.28	43.85	25.75	15.87	18.87	48.39	127.8	140.7	93.63	212.7	 1049	 3673	 4500	616.3	12.44	4.986	3.582	2.250	1.888	1.447	1.402	1.181	0.918	0.869	0.680	0.716	0.777	0.603	0.541	0.499	0.435	0.357	0.329	0.329	0.308	0.279	0.327	0.239	0.292	0.261	0.210	0.192	0.251	0.326	0.359	0.448	0.312	0.389	0.313	0.340	0.244	0.190	0.179	0.174	0.195	0.213	0.308	0.412	0.759	1.106	0.850	0.490	0.524	0.629	1.094	2.509	6.010	14.74	27.02	34.19	19.87	4.995	0.221	0.073	0.048	0.078
290.0	78.85	97.34	76.24	46.81	29.97	28.97	40.66	82.96	157.2	173.3	151.7	324.8	 1166	 2953	 3929	 1824	36.02	7.585	3.929	2.369	1.747	1.644	1.367	1.124	0.996	0.833	0.772	0.750	0.737	0.558	0.534	0.463	0.457	0.403	0.353	0.353	0.342	0.329	0.363	0.319	0.307	0.300	0.301	0.305	0.333	0.423	0.470	0.452	0.504	0.403	0.369	0.331	0.265	0.220	0.241	0.230	0.233	0.290	0.330	0.467	0.689	0.937	1.074	1.043	0.836	0.739	1.007	1.802	3.819	7.887	14.65	21.40	23.92	23.55	11.91	3.728	0.222
295.0	157.3	202.6	171.1	103.0	73.94	72.14	87.41	118.5	178.3	294.5	379.1	355.9	524.6	941.2	 2076	 4678	 3017	51.80	9.930	3.874	2.557	2.064	1.587	1.320	1.265	1.032	1.018	0.837	0.900	0.627	0.634	0.501	0.512	0.483	0.428	0.391	0.390	0.510	0.452	0.409	0.370	0.345	0.359	0.401	0.514	0.584	0.695	0.773	0.818	0.714	0.616	0.547	0.530	0.413	0.387	0.367	0.517	0.564	0.584	0.677	0.853	0.974	1.219	1.711	2.224	1.968	1.538	1.702	2.236	3.159	4.637	6.228	8.418	15.95	30.13	28.64	17.59
300.0	356.0	457.1	384.2	251.7	181.0	181.8	235.1	271.5	461.7	658.6	928.2	 1002	954.7	949.5	 1177	 3025	 6041	544.4	44.64	7.999	3.566	2.293	1.868	1.645	1.617	1.157	1.269	0.954	0.946	0.728	0.743	0.601	0.681	0.433	0.505	0.530	0.549	0.570	0.619	0.657	0.552	0.707	0.548	0.802	0.959	1.173	1.369	1.499	1.664	1.400	1.198	1.123	1.039	0.789	0.829	0.879	1.090	1.233	1.478	1.659	2.122	2.394	2.833	3.476	4.415	4.780	5.052	4.875	5.126	5.203	5.435	5.480	5.831	7.653	13.92	26.00	41.94
305.0	743.6	927.6	743.8	497.0	364.8	376.8	528.0	720.0	 1053	 1451	 1623	 2329	 2336	 2124	 1988	 2196	 4493	 5940	463.9	22.91	6.011	3.406	2.686	2.185	2.214	1.542	1.362	1.059	1.152	0.883	0.850	0.720	0.728	0.641	0.664	0.832	0.845	0.930	1.004	1.070	0.944	1.088	1.114	1.406	1.871	2.368	2.805	3.098	3.130	2.732	2.222	1.957	1.778	1.533	1.636	1.787	2.091	2.520	3.001	3.518	4.518	5.306	6.249	7.619	8.620	9.669	10.86	11.67	11.68	11.13	11.19	10.91	10.71	10.89	10.75	13.51	23.61
310.0	 1292	 1666	 1397	870.3	582.8	599.1	783.7	 1074	 1503	 2107	 2736	 3527	 3877	 3687	 3317	 2726	 2774	 3933	 4033	 1707	28.17	5.797	3.928	3.095	2.608	1.945	1.848	1.554	1.382	1.168	1.041	0.909	0.874	0.724	0.846	1.181	1.362	1.345	1.513	1.539	1.528	1.639	1.802	2.214	2.889	3.849	4.758	5.462	5.520	4.495	3.491	3.466	2.875	2.453	2.489	2.669	3.032	3.847	4.492	5.337	6.241	7.556	8.939	10.81	12.44	14.37	15.78	17.98	19.27	19.31	19.26	18.54	18.20	17.69	15.21	13.60	14.60
315.0	 1855	 2373	 1996	 1252	819.0	785.0	995.1	 1318	 1818	 2592	 3509	 4473	 5065	 5083	 4562	 3548	 2654	 1943	 1902	 5091	 2698	34.39	5.848	4.285	3.114	2.558	2.234	1.623	1.660	1.396	1.152	1.036	0.902	0.923	1.021	1.359	1.716	1.721	1.638	1.876	2.011	2.263	2.400	3.044	4.029	5.471	6.479	7.738	7.476	6.304	4.898	4.611	3.976	3.216	3.389	3.382	3.996	4.682	5.732	6.168	7.532	9.326	11.27	13.42	15.52	18.01	20.06	22.76	24.04	25.77	26.11	26.01	25.25	23.33	20.78	17.04	15.69
320.0	 2161	 2800	 2324	 1444	924.1	868.4	 1094	 1438	 1967	 2803	 3850	 4917	 5608	 5701	 5217	 4003	 2783	 1543	742.7	 2449	 6040	 1921	23.40	5.764	3.873	2.775	2.447	2.005	2.013	1.627	1.225	1.128	1.061	0.938	1.086	1.607	1.897	1.885	1.842	2.050	2.054	2.524	2.995	3.524	4.480	6.312	7.280	8.993	9.028	7.322	5.585	5.306	4.575	3.858	3.617	3.805	4.312	5.045	6.271	6.955	7.876	10.12	12.19	14.53	16.68	19.56	22.34	24.83	26.85	28.57	28.78	30.25	29.03	26.26	23.04	18.99	16.03
325.0	 2290	 2983	 2563	 1557	979.7	886.0	 1090	 1440	 1936	 2759	 3837	 4949	 5707	 5806	 5399	 4167	 2806	 1435	464.5	744.0	 3458	 5965	359.7	13.12	5.214	3.719	3.007	2.083	2.075	1.741	1.487	1.138	1.063	0.988	1.150	1.671	1.861	2.087	2.006	2.033	2.026	2.706	2.941	3.638	4.876	6.889	7.870	9.579	9.961	8.118	5.999	5.931	4.608	4.059	3.547	3.823	4.353	5.071	6.212	6.928	7.901	9.693	12.01	14.05	16.59	19.44	22.43	24.57	27.31	28.93	29.88	30.70	29.94	27.80	24.57	19.99	16.45
330.0	 2298	 3060	 2753	 1784	 1133	902.3	 1035	 1333	 1788	 2546	 3566	 4626	 5378	 5544	 5102	 4048	 2727	 1371	464.2	334.0	980.7	 3176	 4713	 1426	24.13	5.399	3.689	2.880	2.309	1.916	1.622	1.501	1.192	1.110	1.303	1.515	1.928	1.963	1.885	1.965	2.028	2.516	2.936	3.577	4.835	6.880	7.961	9.726	10.19	8.658	6.913	6.625	5.503	4.541	4.001	3.887	4.217	4.780	5.809	6.518	7.413	8.961	10.86	13.01	15.30	18.06	20.48	23.28	25.60	27.40	28.50	28.81	28.22	26.14	23.69	19.84	16.42
335.0	 2214	 3019	 2839	 2025	 1345	955.8	970.4	 1223	 1595	 2285	 3174	 4130	 4824	 5010	 4604	 3658	 2579	 1382	556.1	339.0	400.6	847.4	 1905	 5565	 2332	30.07	5.212	3.569	3.076	2.164	1.760	1.637	1.428	1.140	1.245	1.631	1.890	1.874	1.940	1.889	1.991	2.427	2.754	3.663	4.749	6.240	7.829	9.584	10.13	9.087	7.475	7.597	6.923	5.580	4.676	3.970	4.062	4.717	5.463	5.996	6.869	8.021	9.833	11.30	13.68	16.21	18.43	20.71	23.17	25.24	25.84	25.60	26.01	23.58	21.33	18.38	15.72
340.0	 2052	 2827	 2731	 2073	 1374	924.0	903.6	 1107	 1429	 2008	 2801	 3653	 4277	 4474	 4130	 3281	 2335	 1378	643.0	393.9	318.7	350.4	571.4	 2730	 6350	 1696	19.78	4.399	3.592	2.593	2.112	1.634	1.316	1.300	1.389	1.580	1.888	1.810	1.841	1.700	1.868	2.394	2.603	3.289	4.611	6.084	7.611	9.132	9.447	8.551	7.397	7.717	6.842	5.861	4.613	3.837	3.735	4.170	4.929	5.482	6.359	7.197	8.788	10.28	12.30	14.30	16.20	18.53	20.81	21.82	23.09	23.23	23.19	21.49	19.16	16.69	13.87
345.0	 1834	 2570	 2547	 1973	 1341	872.8	810.8	989.1	 1250	 1747	 2440	 3156	 3714	 3904	 3609	 2901	 2080	 1292	735.8	460.2	340.3	273.5	257.7	775.4	 3970	 5861	303.7	9.324	4.245	3.061	2.214	1.747	1.527	1.331	1.450	1.510	1.734	1.815	1.663	1.625	1.880	2.190	2.629	3.050	4.076	5.312	6.615	8.395	8.556	8.009	7.068	7.455	6.640	5.774	4.675	3.556	3.594	3.789	4.492	4.843	5.625	6.154	7.387	9.052	10.53	12.49	14.08	15.73	17.52	19.27	20.06	20.53	20.22	19.16	16.98	15.01	12.31
350.0	 1559	 2227	 2311	 1867	 1330	839.8	726.3	850.8	 1047	 1437	 1979	 2557	 2996	 3160	 2956	 2426	 1777	 1158	786.5	585.1	417.6	307.5	227.1	272.5	 1051	 3355	 4684	 1259	20.65	4.388	3.045	2.397	1.716	1.347	1.371	1.345	1.654	1.552	1.504	1.502	1.660	1.962	2.358	2.757	3.531	4.630	5.561	7.023	7.542	7.140	6.583	7.166	6.397	5.637	4.459	3.311	3.217	3.424	3.802	4.285	4.641	5.279	6.257	7.379	8.574	9.940	11.44	12.85	14.45	15.35	16.53	16.90	16.35	15.71	14.11	12.79	10.69
355.0	 1268	 1863	 1988	 1677	 1265	797.2	653.1	732.2	893.5	 1181	 1579	 2010	 2346	 2487	 2348	 1965	 1502	 1045	764.5	661.0	526.3	359.6	253.2	188.4	300.5	798.3	 1964	 5504	 2051	27.09	4.944	3.290	2.391	1.586	1.395	1.428	1.540	1.423	1.407	1.410	1.590	1.752	1.905	2.387	2.952	3.844	4.545	5.787	6.371	6.218	5.962	6.335	6.275	5.491	4.207	2.957	2.958	3.054	3.304	3.822	4.135	4.410	5.083	6.229	7.152	8.160	8.976	10.03	11.40	12.27	12.98	13.43	13.02	12.26	11.67	10.53	9.118
360.0	 1099	 1589	 1741	 1525	 1162	738.2	604.6	668.4	786.7	 1014	 1330	 1676	 1941	 2058	 1961	 1673	 1314	968.1	746.3	647.4	579.1	416.9	279.0	185.4	151.6	231.8	508.7	 2869	 6033	325.9	18.05	4.655	2.916	1.862	1.579	1.542	1.608	1.395	1.469	1.366	1.657	1.590	1.732	2.167	2.568	3.562	3.939	5.185	5.620	5.388	5.303	5.738	5.682	4.996	3.983	2.972	2.830	2.839	3.103	3.251	3.750	3.963	4.326	5.428	5.875	6.905	7.585	8.779	9.382	9.960	10.60	11.06	10.98	10.65	9.881	8.913	8.129
365.0	957.7	 1373	 1535	 1373	 1085	704.7	573.3	633.9	716.3	896.4	 1152	 1424	 1638	 1744	 1667	 1450	 1177	914.0	731.6	635.5	577.2	482.4	319.8	210.7	143.5	128.8	169.8	781.5	 4126	 5386	279.3	10.44	4.359	2.435	1.879	1.597	1.317	1.362	1.420	1.329	1.383	1.445	1.452	1.943	2.158	3.043	3.519	4.442	5.155	4.957	4.753	5.356	5.001	4.774	3.833	2.730	2.763	2.749	2.803	3.010	3.393	3.592	3.885	4.785	5.250	5.804	6.580	7.291	7.843	8.597	9.293	9.417	9.523	8.989	8.466	8.144	6.957
370.0	818.9	 1158	 1313	 1234	 1033	704.2	580.3	597.4	660.2	795.6	994.8	 1197	 1366	 1438	 1376	 1217	 1036	853.5	725.7	645.6	575.1	519.1	424.7	292.3	210.3	171.6	153.5	265.7	 1131	 3549	 3732	 1123	20.87	6.186	2.780	1.968	1.602	1.427	1.401	1.390	1.425	1.402	1.452	1.692	2.003	2.609	3.078	3.851	4.339	4.254	4.226	4.805	4.752	4.400	3.803	2.818	2.708	2.615	2.747	2.919	3.082	3.237	3.699	4.111	4.685	4.990	5.692	6.061	6.437	7.124	7.612	7.636	7.850	7.363	7.296	6.969	6.289
375.0	688.4	987.4	 1144	 1136	 1004	743.2	606.2	592.9	633.6	734.2	908.8	 1052	 1206	 1226	 1144	 1031	919.5	809.2	728.9	675.5	618.1	559.0	526.4	455.7	344.1	293.9	269.4	260.6	402.0	927.7	 2076	 5452	 1740	27.08	5.263	2.683	2.025	1.595	1.492	1.407	1.352	1.432	1.361	1.690	1.880	2.284	2.625	3.163	3.676	3.724	3.833	4.367	4.558	4.438	3.813	3.042	2.848	2.691	2.932	2.928	2.920	3.010	3.441	3.833	4.085	4.869	4.820	5.358	5.581	6.444	6.543	6.429	6.352	6.436	6.025	5.840	5.509
380.0	628.5	901.9	 1071	 1098	 1023	792.6	639.0	605.3	638.5	740.0	888.9	 1009	 1171	 1156	 1018	925.3	857.6	786.3	736.1	705.6	671.3	623.2	597.0	588.0	500.2	398.8	382.6	358.9	327.6	411.4	705.7	 3188	 5429	277.4	15.39	3.459	2.410	1.755	1.647	1.547	1.435	1.399	1.408	1.594	1.814	2.146	2.494	2.842	3.398	3.459	3.643	4.371	4.615	4.441	4.200	3.223	3.119	2.849	3.032	2.947	2.859	3.034	3.455	3.732	4.011	4.533	4.799	4.998	5.640	6.385	6.433	6.141	5.640	5.547	5.429	5.430	5.098
385.0	581.1	837.4	 1022	 1074	 1067	854.2	681.2	627.8	645.7	733.8	885.0	995.0	 1163	 1130	954.5	863.3	818.1	780.9	751.7	743.3	722.8	691.4	674.7	674.6	647.5	563.7	535.3	470.2	387.3	373.0	429.0	 1050	 4071	 4288	220.7	5.891	3.173	2.285	1.829	1.648	1.582	1.497	1.409	1.584	1.810	2.072	2.313	2.799	3.262	3.382	3.466	4.254	4.573	4.743	4.352	3.475	3.348	3.043	3.201	2.985	3.025	3.053	3.334	3.762	4.058	4.495	4.679	4.871	5.462	6.377	6.361	5.724	5.470	5.238	5.138	5.092	4.939
390.0	554.8	761.3	930.8	 1010	 1014	846.2	693.5	627.1	621.7	682.6	805.6	890.6	 1028	 1013	848.8	794.9	778.3	773.1	765.8	770.6	766.9	754.8	746.7	740.2	723.3	686.9	617.1	519.3	406.4	354.3	344.1	424.9	 1160	 3039	 3028	861.5	13.70	3.041	2.278	1.889	1.800	1.522	1.554	1.669	1.732	1.950	2.159	2.664	3.070	3.043	3.182	3.975	4.254	4.399	4.321	3.517	3.346	3.118	2.975	2.987	2.892	3.152	3.139	3.288	3.760	4.124	4.199	4.293	4.850	5.514	5.543	5.065	4.609	4.628	4.619	4.694	4.710
395.0	500.6	700.9	842.7	927.4	956.7	837.3	706.5	625.0	607.7	644.6	736.7	799.0	911.2	897.0	767.4	745.3	746.7	768.1	784.6	800.0	811.3	807.7	814.8	801.8	769.9	750.0	707.1	569.1	431.4	356.1	319.5	275.3	346.5	729.6	 1723	 4220	 1330	16.61	3.092	2.300	2.010	1.766	1.617	1.735	1.684	1.904	1.972	2.519	2.780	2.874	2.971	3.694	4.152	4.174	4.000	3.483	3.536	3.356	2.935	2.910	2.909	2.862	3.109	2.910	3.401	3.532	3.774	3.927	4.306	4.821	4.924	4.406	4.191	4.345	4.343	4.553	4.702
400.0	506.5	672.2	832.8	890.0	956.0	849.3	714.9	623.7	597.3	627.8	714.8	758.7	877.5	847.4	728.7	710.2	730.4	769.1	795.4	813.9	836.2	842.7	852.8	847.3	817.5	781.9	761.5	634.9	474.3	386.2	340.6	264.4	178.7	206.3	446.1	 2524	 4141	234.5	9.359	2.590	2.381	1.896	1.764	1.809	1.759	1.992	1.895	2.560	2.793	2.826	2.785	3.565	3.974	4.121	4.063	3.676	3.641	3.335	3.019	3.061	2.757	2.857	2.799	3.038	3.427	3.471	3.565	3.615	4.317	4.666	4.856	4.112	4.044	4.114	4.011	4.401	4.621
405.0	487.8	652.6	792.7	871.8	929.5	849.7	719.6	632.1	596.3	619.8	697.2	746.4	859.7	827.1	704.7	688.7	715.4	761.5	794.0	822.8	844.9	859.0	871.9	870.8	842.6	801.0	773.5	682.3	515.9	413.2	365.2	279.8	151.3	95.83	122.8	687.6	 3098	 3283	184.6	4.445	2.504	1.925	1.940	1.906	1.754	1.937	1.963	2.362	2.729	2.670	2.905	3.299	3.853	3.986	4.041	3.645	3.493	3.298	3.210	2.981	2.936	2.921	2.958	2.940	3.277	3.618	3.353	3.325	3.899	4.766	4.619	4.148	3.897	4.032	3.854	4.307	4.718
410.0	474.1	616.0	741.2	812.4	866.2	804.5	700.4	616.7	577.8	582.3	644.1	681.6	772.9	756.4	659.5	654.7	690.9	736.6	775.5	806.4	827.5	839.2	852.1	853.4	821.0	778.6	726.8	644.1	520.7	408.1	341.8	256.5	138.0	74.20	55.90	171.6	826.5	 2368	 2466	756.0	11.68	2.771	2.303	1.997	1.863	1.987	1.993	2.312	2.501	2.570	2.695	3.180	3.589	3.794	3.859	3.408	3.275	3.196	3.081	2.954	2.875	2.807	2.725	2.885	2.946	3.225	3.198	3.091	3.433	4.211	3.997	3.675	3.534	3.582	3.776	4.055	4.454
415.0	437.5	573.1	686.0	741.7	775.3	744.4	666.2	591.3	549.0	540.3	587.9	605.5	670.3	671.4	611.6	613.3	656.4	698.3	740.8	764.1	785.1	791.4	801.2	797.3	766.2	723.9	663.1	571.5	475.5	397.2	312.7	224.3	127.3	72.93	47.25	61.15	200.2	550.5	 1402	 3287	 1075	15.18	2.878	2.299	2.038	1.924	1.965	2.186	2.399	2.321	2.410	2.976	3.180	3.476	3.443	3.180	3.113	3.054	2.949	2.834	2.646	2.765	2.466	2.783	2.725	2.856	2.900	2.841	3.032	3.630	3.586	3.160	3.322	3.478	3.600	3.820	4.081
420.0	428.8	543.8	643.6	697.9	723.7	706.1	640.5	573.3	527.6	521.7	554.5	571.3	620.0	616.4	574.0	586.0	624.0	665.3	706.5	729.0	740.7	751.7	758.8	753.5	723.2	683.2	620.7	534.3	437.6	381.7	312.4	215.2	129.0	77.15	50.17	40.91	65.18	136.2	355.0	 1931	 3198	217.1	8.899	2.535	2.291	2.106	2.039	2.197	2.292	2.264	2.305	2.853	3.091	3.217	3.335	3.030	3.026	2.948	2.896	2.503	2.558	2.624	2.556	2.569	2.453	2.685	2.685	2.663	3.077	3.203	3.292	3.159	3.006	3.353	3.478	3.727	3.766
