Sample:	'1
File name:	Default_20250722_113147.FD3
Run date:	'11:25:26, 07/22/2025
Operator:	Administrator
Comment:	'

Instrument
Model:	F-2700 FL Spectrophotometer
Serial number:	3064-004
ROM Version:	4J14000 07

Instrument parameters
Measurement type:	3-D scan
Data mode:	Fluorescence
EX  Start WL:	220.0 nm
EX  End WL:	600.0 nm
EX Sampling interval:	5.0 nm
EM  Start WL:	230.0 nm
EM  End WL:	650.0 nm
EM Sampling interval:	5.0 nm
Scan speed:	12000 nm/min
EX Slit:	5.0 nm
EM Slit:	5.0 nm
PMT Voltage:	700 V
Response:	Auto 
Corrected spectra:	Off
Contour interval:	50.000

Peak integration
Integration method:	Rectangular
Sensitivity:	1
Threshold:	1.000

Peaks
No.	ApexEX/EM(nm)	Height(Data)
1	225.0/575.0	48.78
2	230.0/570.0	48.28
3	230.0/585.0	46.20
4	235.0/345.0	 1159
5	235.0/580.0	47.37
6	235.0/600.0	43.09
7	235.0/625.0	34.55
8	240.0/520.0	255.2
9	240.0/605.0	36.24
10	245.0/265.0	341.1
11	245.0/530.0	230.1
12	245.0/635.0	29.93
13	250.0/545.0	225.1
14	255.0/280.0	694.1
15	255.0/555.0	207.2
16	260.0/285.0	977.0
17	260.0/570.0	185.1
18	265.0/290.0	 1137
19	265.0/580.0	190.0
20	270.0/295.0	 1610
21	270.0/590.0	168.3
22	275.0/305.0	 1986
23	275.0/605.0	169.8
24	280.0/310.0	 2022
25	280.0/615.0	144.1
26	285.0/315.0	 2096
27	285.0/330.0	 1938
28	285.0/630.0	128.6
29	290.0/325.0	 2063
30	290.0/645.0	105.0
31	320.0/360.0	913.6
32	325.0/365.0	884.2
33	335.0/380.0	855.2
34	340.0/385.0	828.8
35	350.0/400.0	735.4
36	355.0/405.0	702.5
37	435.0/510.0	70.82
38	460.0/345.0	4.437
39	460.0/545.0	28.64
40	485.0/265.0	2.075
41	495.0/270.0	2.014
42	500.0/365.0	5.135
43	505.0/275.0	3.324
44	520.0/285.0	4.479
45	530.0/290.0	4.840
46	540.0/295.0	6.867
47	545.0/300.0	7.726
48	555.0/305.0	8.633
49	560.0/310.0	8.722
50	565.0/340.0	7.928
51	570.0/315.0	9.139
52	575.0/320.0	9.442
53	580.0/325.0	9.440
54	580.0/365.0	8.087

Data points
	220.0	225.0	230.0	235.0	240.0	245.0	250.0	255.0	260.0	265.0	270.0	275.0	280.0	285.0	290.0	295.0	300.0	305.0	310.0	315.0	320.0	325.0	330.0	335.0	340.0	345.0	350.0	355.0	360.0	365.0	370.0	375.0	380.0	385.0	390.0	395.0	400.0	405.0	410.0	415.0	420.0	425.0	430.0	435.0	440.0	445.0	450.0	455.0	460.0	465.0	470.0	475.0	480.0	485.0	490.0	495.0	500.0	505.0	510.0	515.0	520.0	525.0	530.0	535.0	540.0	545.0	550.0	555.0	560.0	565.0	570.0	575.0	580.0	585.0	590.0	595.0	600.0
230.0	12.66	450.7	 3371	 2598	131.8	5.497	2.730	3.463	2.847	3.013	2.946	2.758	3.161	2.515	2.970	2.084	1.621	1.421	1.344	1.135	1.143	0.867	1.001	0.814	0.934	0.598	0.714	0.589	0.413	0.453	0.562	0.418	0.414	0.320	0.506	0.510	0.474	0.503	0.363	0.337	0.374	0.377	0.433	0.450	0.276	0.296	1.271	5.547	10.80	8.957	3.376	0.670	0.177	0.207	0.119	0.081	0.164	0.092	0.108	0.023	0.007	0.053	0.022	-0.029	0.000	0.019	-0.030	0.012	-0.006	-0.039	-0.043	-0.109	-0.125	-0.077	-0.112	-0.030	-0.112
235.0	53.31	121.4	 1295	 4765	 1159	207.2	8.107	6.850	4.070	3.381	4.536	3.168	4.625	2.058	2.918	2.064	1.687	1.761	1.491	0.718	1.673	0.997	1.122	0.778	0.774	0.665	0.939	0.749	0.779	0.822	0.650	0.453	0.217	0.423	0.517	0.331	0.594	0.457	0.296	0.384	0.339	0.397	0.407	0.464	0.471	0.197	0.485	1.484	3.744	6.926	9.318	9.812	4.586	1.290	0.242	0.112	0.269	0.138	0.133	0.017	0.079	0.154	-0.062	0.058	-0.025	-0.104	0.038	-0.083	-0.067	-0.078	0.145	-0.212	-0.194	-0.091	-0.117	-0.096	-0.176
240.0	60.96	81.01	323.2	 2630	 5187	 1002	90.72	4.488	3.565	5.459	4.586	2.284	4.037	2.571	2.867	2.468	2.139	1.420	1.604	0.988	1.035	1.491	1.191	0.955	0.948	0.993	0.992	0.734	0.752	1.027	0.645	0.435	0.403	0.291	0.469	0.259	0.463	0.618	0.581	0.370	0.286	0.345	0.350	0.325	0.619	0.486	0.259	0.534	1.012	2.021	5.069	11.66	14.70	10.03	3.181	0.440	0.148	0.292	0.065	-0.007	0.009	0.063	0.030	-0.012	0.089	-0.012	0.036	-0.099	-0.108	-0.006	0.025	-0.160	-0.109	-0.153	-0.010	-0.041	-0.159
245.0	30.49	108.3	138.2	683.9	 3479	 5500	800.6	38.44	5.743	5.889	4.470	4.052	4.075	4.447	3.107	2.484	2.339	1.814	1.485	1.381	1.552	1.006	1.140	0.788	0.716	0.931	0.954	0.754	0.741	0.884	0.753	0.614	0.426	0.287	0.430	0.211	0.232	0.493	0.419	0.423	0.294	0.363	0.263	0.193	0.400	0.740	0.611	0.611	0.454	0.704	1.417	3.701	9.452	16.98	16.50	8.269	2.377	0.202	0.083	0.069	-0.043	0.082	-0.009	0.002	0.042	0.035	0.029	0.066	-0.102	0.039	-0.089	-0.131	-0.046	-0.077	-0.091	-0.117	-0.194
250.0	11.11	53.45	143.6	258.1	905.3	 3121	 4932	 2793	230.3	9.256	7.322	6.367	5.286	3.852	3.864	2.454	2.379	2.210	1.500	1.339	1.375	1.299	1.200	1.270	0.737	1.148	0.756	0.854	0.469	0.852	0.558	0.383	0.417	0.285	0.262	0.368	0.329	0.365	0.457	0.373	0.342	0.412	0.365	0.291	0.346	0.402	0.471	0.646	0.771	0.768	0.794	1.038	2.411	5.062	9.119	13.98	16.22	14.70	7.974	2.544	0.162	0.102	0.040	-0.004	0.088	0.002	-0.024	0.032	-0.066	-0.041	-0.093	-0.069	-0.058	-0.129	-0.082	-0.172	-0.109
255.0	7.834	17.90	68.35	263.4	342.3	725.2	 1967	 6739	 4361	312.5	12.45	7.817	5.700	4.479	4.855	3.372	2.035	2.702	1.779	1.606	1.534	1.328	1.443	1.133	1.002	1.106	0.901	0.904	1.060	0.863	0.580	0.645	0.442	0.436	0.305	0.320	0.493	0.398	0.420	0.461	0.504	0.376	0.382	0.240	0.226	0.326	0.405	0.475	0.519	0.766	1.163	1.269	0.954	1.352	2.234	3.404	5.662	13.42	24.88	25.06	14.25	2.741	0.194	0.142	0.083	0.067	-0.062	-0.010	-0.065	0.000	0.016	0.026	-0.070	-0.151	-0.122	-0.157	-0.146
260.0	10.46	6.978	23.61	146.4	342.2	256.6	485.1	 3198	 9226	 3684	193.9	11.91	7.413	7.270	5.067	3.379	2.923	2.387	2.266	1.702	1.952	1.369	1.070	1.280	1.592	1.072	0.993	0.905	0.870	1.068	0.808	0.618	0.502	0.444	0.526	0.423	0.519	0.477	0.493	0.213	0.482	0.490	0.321	0.379	0.490	0.419	0.351	0.271	0.244	0.433	0.694	1.376	1.562	1.022	0.823	0.905	1.375	3.528	10.35	24.08	34.10	27.75	10.36	1.246	0.096	0.254	-0.014	-0.107	-0.089	0.011	0.051	0.075	-0.135	-0.156	-0.164	-0.092	-0.084
265.0	11.40	6.429	16.21	55.83	268.4	341.1	168.7	816.9	 5059	9999.9	 2868	87.78	12.42	8.635	5.516	5.646	3.477	3.032	2.611	2.002	2.136	1.587	1.130	1.215	1.168	1.413	0.712	0.982	0.906	0.850	0.831	0.871	0.520	0.353	0.444	0.659	0.537	0.462	0.477	0.346	0.321	0.478	0.426	0.318	0.408	0.306	0.334	0.327	0.346	0.232	0.373	0.601	1.343	2.075	1.554	0.728	0.404	1.028	2.556	7.017	16.75	34.27	39.91	23.67	5.620	0.338	0.076	-0.128	-0.070	0.053	0.027	-0.010	-0.057	-0.075	-0.106	-0.106	-0.110
270.0	41.71	28.86	19.98	28.97	96.98	306.7	393.7	291.8	 1302	 4805	 9417	 5540	185.8	13.26	9.473	6.119	4.428	3.460	2.636	2.155	1.968	1.824	1.510	1.568	1.245	1.243	0.891	1.125	0.992	0.960	0.951	0.840	0.723	0.743	0.384	0.472	0.578	0.607	0.591	0.409	0.410	0.372	0.563	0.568	0.646	0.455	0.483	0.370	0.457	0.382	0.312	0.327	0.551	1.096	1.671	2.014	1.735	1.128	0.857	1.764	4.255	9.889	19.13	30.15	37.09	33.09	19.34	4.942	0.330	0.161	-0.003	0.011	-0.013	-0.065	-0.045	-0.060	-0.028
275.0	119.6	99.59	83.32	60.85	55.03	125.2	399.2	581.2	467.5	 1238	 3239	9999.9	 9033	229.5	14.38	9.246	6.150	3.389	2.384	3.145	2.674	1.961	1.777	1.369	1.486	1.451	1.137	1.059	1.121	0.943	1.124	0.928	0.906	0.881	0.614	0.540	0.864	0.824	0.738	0.546	0.675	0.690	0.661	0.822	0.865	0.936	0.645	0.568	0.484	0.490	0.412	0.434	0.460	0.540	0.790	1.114	1.852	3.324	2.259	1.645	1.811	3.133	4.748	7.568	11.20	24.80	50.26	50.99	28.00	4.546	0.195	0.072	0.049	0.038	0.072	0.004	0.064
280.0	191.3	170.1	139.7	109.8	87.36	88.05	220.4	694.1	608.2	504.6	998.1	 4163	9999.9	 2604	142.2	10.47	7.344	5.285	3.530	3.177	2.753	2.068	1.825	1.654	1.802	1.446	1.220	1.003	0.950	0.957	0.938	1.382	0.884	0.735	0.670	0.774	0.982	1.144	1.032	1.158	0.986	1.062	1.157	0.942	1.272	1.048	1.151	1.091	0.852	0.598	0.596	0.646	0.482	0.683	0.533	0.710	0.970	2.134	3.378	3.748	2.158	1.710	2.136	2.761	3.510	7.015	19.11	42.82	67.96	46.39	16.66	1.106	0.158	0.030	0.041	0.182	0.085
285.0	259.9	254.0	235.0	180.8	118.0	99.83	159.2	446.5	977.0	563.4	590.6	 1304	 5485	9999.9	 1973	74.58	9.617	8.512	4.998	3.283	3.495	2.654	2.641	1.899	1.291	1.677	1.631	0.973	0.924	1.002	0.992	0.972	0.742	0.864	0.816	0.689	0.840	1.557	1.609	1.529	1.196	1.271	1.724	1.113	1.410	1.525	1.388	1.391	1.335	1.094	0.957	0.719	0.714	0.646	0.554	0.488	0.811	1.228	2.099	3.755	4.479	3.104	1.905	1.775	2.216	2.892	5.581	12.31	30.19	58.85	58.45	35.70	6.860	0.292	0.129	0.123	0.138
290.0	318.0	355.7	360.5	293.7	198.3	165.4	201.7	315.3	697.4	 1137	876.4	801.1	 1710	 4977	9999.9	 6487	111.5	12.74	7.438	5.654	3.971	2.801	2.811	2.380	1.973	1.935	1.730	1.141	1.222	0.955	1.035	1.118	0.821	0.796	0.927	0.985	1.153	1.807	1.686	1.701	1.515	1.680	1.809	1.693	1.850	1.710	1.667	1.823	1.492	1.286	1.153	1.018	0.938	0.851	0.828	0.864	0.811	1.137	1.417	2.186	3.041	3.856	4.840	4.288	3.397	3.027	2.974	4.534	8.708	16.16	27.42	45.37	48.86	49.54	23.04	5.832	0.365
295.0	354.3	434.5	447.9	405.4	295.0	257.6	282.0	355.5	549.3	943.7	 1610	 1082	 1005	 1520	 3103	9999.9	 8947	145.6	12.25	8.165	5.755	4.134	3.227	2.802	2.195	2.085	2.204	1.300	1.135	1.213	1.296	1.162	1.111	1.004	0.858	1.083	1.585	1.850	1.995	1.950	1.766	1.651	1.991	1.996	2.133	1.445	1.697	2.303	2.313	1.394	1.682	1.499	1.414	1.100	1.352	1.144	1.233	1.532	1.306	1.601	2.322	2.859	3.759	5.876	6.867	5.245	3.873	3.793	4.324	5.689	7.355	11.56	14.62	32.12	67.39	58.11	33.70
300.0	402.2	455.1	500.6	458.3	343.0	343.1	338.5	435.4	565.2	847.5	 1515	 1750	 1067	888.5	 1041	 3602	9999.9	 6343	101.1	10.67	6.498	4.685	3.411	3.456	2.502	2.551	2.220	1.239	1.303	1.395	1.458	1.001	0.907	1.142	1.189	1.377	1.636	2.120	1.769	2.185	1.774	1.681	1.786	2.077	2.022	2.128	2.076	2.690	2.004	1.748	1.774	1.827	1.445	1.243	1.168	1.400	1.754	1.407	1.596	1.718	2.494	2.909	3.159	4.163	6.014	7.726	6.672	4.749	3.884	3.890	3.681	4.220	4.820	8.530	23.16	50.87	84.84
305.0	376.9	484.1	567.7	507.8	401.6	381.4	412.2	515.1	627.0	863.7	 1267	 1986	 1594	933.0	721.9	 1105	 4705	9999.9	 1251	61.43	9.077	6.341	4.538	3.236	2.684	2.667	2.405	1.697	1.701	1.478	1.644	1.087	1.355	1.063	0.933	1.358	1.780	2.098	1.993	1.922	1.663	1.850	1.966	2.095	2.186	2.363	2.028	2.471	1.927	1.930	1.650	1.910	1.780	1.584	1.408	1.732	1.860	1.970	1.826	2.172	2.686	3.176	3.520	4.074	5.208	6.673	8.580	8.633	6.015	4.268	4.069	3.396	2.777	3.426	6.252	13.95	36.89
310.0	365.5	477.1	572.1	545.7	447.0	440.2	478.2	583.7	714.9	921.4	 1227	 1613	 2022	 1585	932.4	730.8	 1400	 4509	 8349	 4832	79.22	11.31	6.485	4.048	3.643	2.877	2.437	1.916	1.776	1.887	1.643	1.511	1.420	1.140	1.196	1.255	1.563	2.108	1.982	1.723	1.730	1.887	1.832	2.013	2.068	2.485	2.197	2.331	2.372	2.238	1.875	2.333	2.365	2.036	1.906	1.906	1.974	2.530	2.430	2.786	2.681	3.186	3.842	4.289	5.163	5.825	6.953	8.314	8.722	8.150	6.140	4.837	3.633	3.004	3.482	4.865	9.904
315.0	357.9	496.5	572.5	593.8	496.3	483.3	533.3	634.2	761.6	958.4	 1251	 1538	 1768	 2096	 1535	849.3	776.4	 1282	 2538	 9234	 6959	107.3	10.70	5.670	5.148	3.478	2.891	2.399	2.281	2.009	1.548	1.571	1.236	1.080	1.310	1.078	1.314	1.997	1.710	2.026	1.920	1.821	1.949	1.824	1.939	2.142	2.392	2.775	2.486	2.427	2.093	2.380	2.165	2.054	2.178	2.165	2.511	2.825	2.949	3.040	3.423	3.819	4.001	4.589	5.363	6.135	6.284	6.936	7.484	8.204	9.139	8.328	5.311	4.188	3.158	3.527	4.156
320.0	385.4	547.4	703.4	639.9	528.1	516.6	570.1	690.2	806.3	 1011	 1279	 1560	 1762	 1963	 2062	 1138	738.5	635.7	770.4	 3324	9999.9	 5295	77.01	7.704	7.135	3.818	3.348	2.682	2.555	1.941	1.539	1.454	1.311	1.145	1.123	1.032	1.149	1.694	1.718	1.736	1.971	2.084	1.863	2.117	2.064	2.745	3.080	3.424	2.875	2.435	2.253	2.417	2.158	2.402	2.405	2.436	2.996	2.986	3.035	3.512	3.417	3.823	4.192	4.519	5.171	5.632	6.804	6.603	6.889	7.894	8.547	9.442	8.715	6.182	4.057	3.903	3.458
325.0	424.5	619.7	853.7	813.3	624.2	554.3	589.3	700.8	860.8	 1032	 1336	 1633	 1815	 1901	 2063	 1631	870.1	551.7	427.7	908.6	 4637	9999.9	936.4	46.73	8.188	4.907	3.323	2.761	2.943	2.202	1.760	1.733	1.483	1.347	0.919	0.903	1.150	1.348	1.912	1.638	1.743	1.959	2.164	2.331	2.363	2.844	3.169	3.487	3.858	2.999	2.715	2.654	2.651	2.416	2.600	2.817	3.033	3.357	3.370	3.266	3.687	4.071	4.314	4.638	5.670	5.696	6.643	6.900	7.150	6.891	7.982	8.578	9.440	8.832	6.309	4.908	4.133
330.0	424.1	695.9	971.9	948.2	738.4	613.7	620.8	713.1	869.0	 1070	 1350	 1628	 1839	 1938	 1859	 1701	 1284	673.9	423.9	405.2	 1200	 4319	 8062	 3776	62.42	8.788	5.039	3.720	3.187	2.592	2.045	1.734	1.654	1.559	1.238	1.136	1.222	1.575	1.875	1.414	1.532	1.859	2.373	2.357	2.568	3.007	3.379	3.656	4.285	3.432	3.365	3.412	2.973	2.776	2.731	3.077	3.122	3.304	3.298	3.404	3.587	3.748	4.295	4.916	5.280	6.030	7.209	7.269	7.253	7.524	8.138	8.318	7.869	7.897	7.994	7.335	6.108
335.0	398.2	731.2	 1042	 1061	837.3	673.0	661.1	751.2	882.4	 1075	 1344	 1601	 1827	 1919	 1786	 1478	 1379	 1037	521.9	353.0	448.6	 1093	 2488	 8626	 5630	86.06	8.928	5.589	4.492	3.110	2.369	2.242	2.303	1.553	1.282	1.210	1.466	1.684	1.642	1.444	1.628	1.547	2.308	2.500	2.624	3.058	3.276	4.164	4.277	3.743	3.643	3.748	3.321	3.271	3.179	2.871	2.938	3.217	3.293	3.033	3.445	3.696	4.308	5.231	5.257	5.866	7.179	6.988	7.304	7.692	8.011	7.509	7.587	7.409	6.510	6.926	7.258
340.0	402.8	746.2	 1097	 1126	933.3	755.6	737.9	782.8	886.6	 1094	 1322	 1577	 1831	 1908	 1763	 1438	 1218	 1202	733.8	396.3	328.4	414.6	681.0	 3362	9999.9	 4305	61.85	8.168	5.373	3.669	2.801	2.421	2.209	1.440	1.462	1.444	1.383	1.622	1.488	1.425	1.651	1.625	2.026	1.978	2.369	2.827	3.153	3.909	4.344	4.032	3.557	3.784	3.359	3.268	3.414	3.217	2.991	3.341	3.856	3.586	3.387	3.746	4.461	5.017	5.794	5.724	6.753	6.702	7.149	7.928	7.880	7.309	7.390	6.729	6.540	6.085	5.673
345.0	411.9	704.9	 1074	 1159	986.9	824.9	792.8	825.7	925.3	 1104	 1312	 1555	 1752	 1852	 1715	 1421	 1136	 1072	 1005	521.5	352.4	310.4	306.7	890.1	 4855	9999.9	765.7	38.17	7.583	4.803	3.548	2.809	2.134	1.620	1.728	1.618	1.497	1.578	1.163	1.653	1.779	1.872	2.099	2.016	2.641	2.871	3.079	3.824	4.437	4.074	3.733	4.142	3.690	3.475	3.748	2.946	3.553	3.402	3.585	3.617	3.223	4.270	5.093	5.027	4.973	5.751	6.611	6.885	6.956	7.834	6.824	8.053	6.718	6.844	6.589	6.480	5.571
350.0	385.3	628.9	 1000	 1119	 1026	932.0	890.7	910.9	986.7	 1152	 1342	 1527	 1680	 1759	 1677	 1412	 1156	962.2	968.2	831.3	502.3	360.6	291.2	366.0	 1252	 4523	 7473	 3150	54.25	8.194	4.672	3.860	2.379	2.012	1.602	1.566	1.365	1.464	1.608	1.684	1.627	1.820	1.986	2.237	2.612	2.824	3.010	3.750	4.103	3.992	3.735	4.376	3.726	3.753	3.770	3.297	3.706	3.630	3.919	4.113	4.274	4.554	4.525	4.896	5.324	6.034	6.274	6.749	7.419	7.687	7.097	7.495	6.701	6.755	6.272	6.257	5.622
355.0	360.1	580.4	939.9	 1102	 1108	 1033	 1036	 1050	 1101	 1254	 1373	 1519	 1648	 1711	 1629	 1409	 1203	994.4	878.3	882.1	811.6	496.4	363.6	314.8	450.5	 1132	 2532	 8127	 4800	73.06	7.845	5.452	3.203	2.446	1.551	2.199	1.846	1.584	1.817	1.651	1.528	1.629	1.704	2.086	2.288	2.784	2.997	3.352	3.608	4.038	3.925	3.856	3.979	3.973	3.760	3.718	4.141	4.213	4.114	4.302	4.230	4.773	4.749	5.167	5.450	5.717	6.158	6.369	7.059	7.076	6.657	7.554	7.147	6.634	6.576	6.317	5.834
360.0	333.0	572.1	883.1	 1112	 1156	 1104	 1085	 1119	 1174	 1296	 1406	 1518	 1627	 1666	 1585	 1409	 1225	 1041	891.3	828.2	913.6	702.2	453.8	351.8	314.3	406.3	687.8	 3494	 9568	 3591	48.89	7.149	4.146	2.890	2.122	1.920	1.707	1.576	2.055	1.686	1.635	1.628	1.668	2.139	2.079	2.791	2.617	3.129	3.522	4.068	3.613	4.445	4.515	4.299	4.207	4.266	4.483	4.604	3.820	3.911	4.575	4.953	4.651	5.141	5.750	5.472	6.124	6.503	7.026	6.624	6.984	6.941	7.830	6.815	6.254	6.279	5.776
365.0	336.5	565.6	855.0	 1062	 1156	 1147	 1176	 1163	 1217	 1332	 1418	 1498	 1602	 1642	 1576	 1387	 1230	 1071	936.2	836.5	854.6	884.2	581.9	410.3	336.1	285.3	292.8	916.7	 5103	 9347	678.5	28.96	5.949	3.633	2.849	2.203	2.387	1.852	1.694	2.124	1.785	1.634	1.838	2.115	2.285	2.650	2.428	3.206	3.357	3.543	3.536	4.355	4.240	4.434	4.460	4.146	5.135	4.790	4.123	3.902	5.032	5.326	5.306	5.820	5.156	5.400	6.045	6.592	6.613	6.483	7.176	7.333	8.087	6.832	6.622	6.439	6.321
370.0	339.9	514.6	814.1	 1028	 1161	 1219	 1222	 1214	 1263	 1348	 1434	 1507	 1566	 1568	 1526	 1375	 1237	 1110	993.4	897.4	829.9	851.0	814.1	572.4	411.6	323.2	259.5	338.8	 1305	 4614	 7178	 2727	43.42	6.755	3.871	3.067	2.476	2.087	1.720	1.994	1.849	1.927	1.907	2.183	2.134	2.559	2.665	3.196	3.301	3.624	3.532	4.093	4.178	4.566	4.658	4.660	4.926	5.093	4.595	4.584	4.822	4.889	5.093	5.553	5.637	6.013	6.188	6.501	6.619	6.540	6.768	6.785	7.307	6.820	6.728	6.164	6.623
375.0	350.6	500.5	791.4	 1029	 1196	 1216	 1237	 1235	 1292	 1354	 1438	 1485	 1544	 1503	 1467	 1344	 1227	 1131	 1035	950.8	876.2	826.9	830.2	817.7	553.9	406.4	320.0	271.6	425.8	 1121	 2665	 7957	 3887	55.34	6.994	4.114	3.271	2.313	2.421	2.072	1.878	2.154	2.041	2.112	2.113	2.565	2.646	3.010	3.350	3.542	3.589	4.075	4.782	4.884	4.746	4.568	4.874	4.825	5.013	4.864	4.861	5.061	5.237	5.491	5.926	6.257	5.639	6.784	6.152	6.614	6.819	6.785	6.419	7.244	6.853	6.361	6.867
380.0	327.3	496.7	733.2	992.4	 1146	 1233	 1254	 1262	 1280	 1354	 1428	 1449	 1474	 1470	 1422	 1321	 1206	 1149	 1057	986.3	919.7	847.3	802.3	855.2	720.4	488.2	379.3	296.9	264.3	366.4	695.5	 3701	 8463	 2720	35.61	5.408	3.918	2.855	2.236	1.965	1.998	1.985	2.031	1.960	2.293	2.583	2.654	2.581	3.465	3.417	3.285	4.104	4.684	4.637	4.665	4.263	5.037	4.708	5.132	4.832	4.846	5.541	5.013	5.803	5.671	5.873	5.683	5.859	6.217	7.016	6.922	6.285	5.957	6.942	6.377	6.558	6.875
385.0	291.9	488.7	721.9	952.7	 1132	 1189	 1253	 1235	 1253	 1327	 1399	 1430	 1446	 1441	 1376	 1300	 1198	 1142	 1076	 1002	940.8	866.8	812.0	801.0	828.8	604.1	433.8	338.3	261.6	225.8	254.4	961.9	 4895	 7695	518.1	17.97	4.495	3.669	2.802	2.211	2.005	1.740	2.027	2.228	2.131	2.445	2.283	2.690	3.308	2.973	2.881	3.963	4.412	4.369	4.345	4.608	4.956	5.319	4.628	4.795	5.177	5.345	5.141	5.698	5.033	5.457	5.353	5.217	5.966	6.363	6.259	6.108	5.402	6.333	6.416	6.142	6.137
390.0	285.0	456.1	671.7	901.8	 1107	 1197	 1214	 1237	 1241	 1308	 1343	 1364	 1374	 1372	 1326	 1241	 1185	 1125	 1068	 1009	959.5	899.0	835.6	781.4	785.8	751.1	557.0	403.5	307.6	241.3	193.6	308.8	 1251	 4076	 4918	 2052	32.90	5.296	3.838	2.923	2.330	1.923	2.190	1.878	2.218	2.199	2.270	2.749	2.968	2.699	3.078	3.747	4.021	3.978	4.108	4.465	4.844	5.006	4.813	4.837	4.920	4.984	4.956	4.843	5.106	5.353	5.313	5.561	5.702	5.763	6.168	5.983	5.834	6.244	6.663	5.795	6.225
395.0	290.0	418.6	663.4	858.9	 1049	 1153	 1187	 1209	 1236	 1278	 1263	 1311	 1302	 1300	 1258	 1201	 1154	 1093	 1056	 1017	965.2	920.0	852.8	795.6	758.6	735.6	719.5	517.7	370.5	291.0	218.7	195.3	362.8	969.8	 2069	 6417	 2976	43.28	5.395	3.913	3.058	2.409	2.389	1.952	2.192	2.056	2.501	2.752	2.712	2.446	2.870	3.436	3.713	3.946	3.882	4.465	4.537	4.564	4.629	4.939	4.305	5.176	4.751	4.628	4.636	5.333	5.749	5.288	5.374	5.334	5.895	5.574	5.454	5.990	5.726	5.619	6.228
400.0	277.7	412.1	607.7	806.2	 1006	 1116	 1155	 1171	 1214	 1240	 1249	 1251	 1258	 1242	 1219	 1161	 1132	 1062	 1043	999.2	952.6	912.5	857.1	805.8	759.5	704.4	735.4	637.4	434.2	329.4	252.0	193.4	183.7	285.5	531.0	 3129	 6632	 2020	27.46	5.236	3.690	3.063	2.275	2.016	2.203	2.449	2.712	2.520	2.641	2.559	2.584	3.419	3.610	3.688	4.118	4.289	4.275	4.897	4.544	4.589	5.003	4.971	4.682	4.904	4.771	5.270	5.305	4.847	5.254	5.110	5.366	5.458	5.308	5.524	5.748	5.442	6.148
405.0	263.6	383.4	606.3	806.5	957.6	 1071	 1142	 1161	 1185	 1190	 1215	 1210	 1240	 1209	 1170	 1140	 1097	 1046	 1021	982.9	959.4	897.7	865.4	815.5	760.0	698.5	687.3	702.5	527.7	375.4	284.6	216.5	162.2	145.6	175.9	808.7	 4030	 6019	433.4	12.94	4.389	3.526	2.802	2.660	2.120	2.380	2.357	2.546	2.774	2.465	2.404	3.497	3.317	4.088	4.054	4.519	4.347	4.611	4.354	4.630	4.245	4.779	4.489	4.595	4.877	4.796	5.377	4.709	4.628	5.332	5.105	5.798	5.137	5.494	5.719	5.688	5.770
410.0	468.0	363.9	567.3	765.3	910.8	 1040	 1123	 1121	 1151	 1145	 1178	 1162	 1171	 1160	 1121	 1072	 1027	 1009	986.3	948.7	926.8	887.0	846.9	811.4	764.1	706.5	661.7	650.7	625.8	466.8	330.7	250.3	185.2	138.0	112.0	231.8	 1026	 3323	 4103	 1605	28.48	4.668	3.268	2.464	2.565	2.605	2.165	2.550	2.514	2.493	2.732	3.505	3.584	3.715	3.620	4.047	4.138	4.470	4.503	4.246	4.250	4.572	4.491	4.433	4.746	4.569	4.560	4.664	4.661	5.104	4.895	5.070	5.541	5.151	5.134	5.553	5.959
