Sample:	'1
File name:	H2025091001ÅË×¯¶þ´åÇÅ.FD3
Run date:	'15:03:30, 09/11/2025
Operator:	Administrator
Comment:	'

Instrument
Model:	F-2700 FL Spectrophotometer
Serial number:	23C7-003
ROM Version:	4J14000 07

Instrument parameters
Measurement type:	3-D scan
Data mode:	Fluorescence
EX  Start WL:	220.0 nm
EX  End WL:	600.0 nm
EX Sampling interval:	5.0 nm
EM  Start WL:	230.0 nm
EM  End WL:	650.0 nm
EM Sampling interval:	5.0 nm
Scan speed:	12000 nm/min
EX Slit:	5.0 nm
EM Slit:	5.0 nm
PMT Voltage:	700 V
Response:	Auto 
Corrected spectra:	Off
Contour interval:	50.000

Peak integration
Integration method:	Rectangular
Sensitivity:	1
Threshold:	1.000

Peaks
No.	ApexEX/EM(nm)	Height(Data)
1	225.0/320.0	375.1
2	225.0/585.0	39.38
3	225.0/600.0	39.15
4	230.0/310.0	379.5
5	230.0/345.0	446.0
6	230.0/570.0	39.83
7	230.0/595.0	36.97
8	235.0/510.0	200.9
9	245.0/395.0	564.6
10	245.0/405.0	572.3
11	245.0/535.0	151.9
12	250.0/410.0	576.3
13	250.0/545.0	122.9
14	255.0/280.0	364.4
15	255.0/415.0	570.2
16	255.0/560.0	106.5
17	260.0/285.0	388.0
18	260.0/570.0	92.02
19	265.0/585.0	91.61
20	270.0/300.0	1028
21	270.0/405.0	557.0
22	270.0/595.0	92.41
23	275.0/305.0	1258
24	275.0/380.0	554.3
25	275.0/395.0	556.3
26	275.0/610.0	89.37
27	280.0/310.0	1135
28	280.0/385.0	548.5
29	280.0/620.0	75.15
30	285.0/635.0	47.10
31	300.0/335.0	437.5
32	305.0/345.0	401.5
33	310.0/350.0	367.1
34	315.0/355.0	378.5
35	320.0/360.0	393.5
36	325.0/370.0	381.2
37	335.0/380.0	367.6
38	405.0/470.0	80.61
39	445.0/525.0	19.46
40	505.0/275.0	2.065
41	510.0/280.0	2.484
42	515.0/285.0	2.519
43	530.0/290.0	2.948
44	545.0/300.0	5.700
45	550.0/305.0	6.463
46	560.0/310.0	5.961
47	570.0/315.0	5.292
48	575.0/290.0	42.69
49	575.0/320.0	4.750
50	585.0/325.0	3.967

Data points
	220.0	225.0	230.0	235.0	240.0	245.0	250.0	255.0	260.0	265.0	270.0	275.0	280.0	285.0	290.0	295.0	300.0	305.0	310.0	315.0	320.0	325.0	330.0	335.0	340.0	345.0	350.0	355.0	360.0	365.0	370.0	375.0	380.0	385.0	390.0	395.0	400.0	405.0	410.0	415.0	420.0	425.0	430.0	435.0	440.0	445.0	450.0	455.0	460.0	465.0	470.0	475.0	480.0	485.0	490.0	495.0	500.0	505.0	510.0	515.0	520.0	525.0	530.0	535.0	540.0	545.0	550.0	555.0	560.0	565.0	570.0	575.0	580.0	585.0	590.0	595.0	600.0
230.0	28.38	503.9	1910	862.2	41.96	6.294	5.106	5.052	3.890	3.264	3.398	2.831	2.963	2.419	1.948	2.041	1.562	1.542	1.378	1.190	1.176	1.073	1.094	0.960	0.892	0.785	0.721	0.731	0.681	0.651	0.654	0.600	0.562	0.514	0.514	0.408	0.499	0.448	0.553	0.484	0.466	0.457	0.521	0.393	0.358	0.369	0.676	3.111	6.807	6.145	2.579	0.644	0.291	0.278	0.278	0.252	0.278	0.296	0.283	0.288	0.281	0.296	0.279	0.270	0.259	0.289	0.280	0.253	0.287	0.301	0.246	0.255	0.271	0.261	0.250	0.243	0.272
235.0	51.94	144.0	967.3	2257	468.1	73.79	6.331	5.096	4.343	3.725	4.167	2.903	2.933	2.512	2.068	1.774	1.687	1.448	1.345	1.367	1.029	0.977	1.111	0.999	0.721	0.837	0.726	0.717	0.751	0.687	0.687	0.626	0.570	0.521	0.581	0.441	0.480	0.513	0.540	0.487	0.434	0.495	0.420	0.572	0.458	0.452	0.389	1.011	2.422	4.658	7.439	8.426	4.637	1.261	0.277	0.254	0.302	0.303	0.255	0.285	0.291	0.270	0.312	0.308	0.263	0.304	0.238	0.281	0.246	0.274	0.241	0.316	0.279	0.398	0.278	0.297	0.244
240.0	68.29	85.90	260.6	1483	2646	397.3	32.45	8.486	5.120	4.104	4.271	2.977	3.414	2.479	2.432	1.905	1.889	1.657	1.487	1.363	1.185	1.011	1.038	0.864	0.825	0.947	0.766	0.748	0.786	0.653	0.599	0.581	0.564	0.482	0.550	0.412	0.563	0.465	0.542	0.478	0.442	0.436	0.435	0.486	0.420	0.590	0.411	0.576	0.772	1.420	3.678	9.030	12.51	9.173	3.594	0.639	0.321	0.317	0.236	0.306	0.275	0.245	0.273	0.385	0.255	0.297	0.214	0.241	0.270	0.293	0.254	0.351	0.253	0.345	0.282	0.296	0.244
245.0	50.11	111.5	103.8	430.6	2170	2864	306.3	17.00	6.423	4.380	4.446	3.541	3.799	2.705	2.482	2.287	1.737	1.650	1.494	1.381	1.298	1.177	1.025	0.892	0.946	0.809	0.862	0.646	0.764	0.654	0.753	0.574	0.570	0.570	0.444	0.534	0.498	0.430	0.574	0.497	0.484	0.483	0.474	0.421	0.376	0.581	0.562	0.604	0.558	0.581	1.035	3.106	7.981	13.79	14.82	7.936	2.354	0.424	0.297	0.299	0.397	0.254	0.303	0.322	0.306	0.210	0.255	0.353	0.280	0.261	0.310	0.280	0.306	0.320	0.250	0.344	0.252
250.0	27.60	76.99	143.0	168.3	614.7	2051	2858	1142	83.25	6.628	5.279	4.228	3.651	3.209	2.662	2.326	1.849	1.628	1.388	1.425	1.377	1.213	1.028	0.961	1.000	0.837	0.862	0.810	0.850	0.744	0.759	0.650	0.593	0.632	0.488	0.543	0.478	0.413	0.662	0.485	0.422	0.468	0.418	0.374	0.319	0.425	0.451	0.596	0.726	0.719	0.631	1.001	2.117	4.529	8.754	12.41	15.54	13.32	7.433	2.433	0.457	0.298	0.276	0.285	0.285	0.235	0.276	0.256	0.282	0.265	0.294	0.238	0.315	0.281	0.275	0.290	0.303
255.0	21.47	34.40	81.87	196.9	217.0	486.3	1640	4504	1626	98.36	7.518	5.605	4.713	3.731	3.124	2.485	1.814	1.838	1.610	1.533	1.302	1.216	1.096	1.150	1.083	0.963	0.926	0.872	0.703	0.870	0.761	0.695	0.575	0.557	0.570	0.486	0.446	0.414	0.608	0.500	0.461	0.429	0.494	0.430	0.348	0.361	0.359	0.388	0.420	0.631	0.912	1.015	0.927	1.372	2.223	3.170	5.852	13.69	23.48	22.20	11.17	2.382	0.402	0.285	0.291	0.255	0.325	0.257	0.332	0.287	0.309	0.246	0.280	0.290	0.333	0.275	0.345
260.0	21.04	22.24	33.17	142.0	220.8	155.2	429.9	2821	5004	1289	56.44	7.072	5.535	4.368	3.456	2.969	2.004	1.895	1.632	1.674	1.372	1.130	1.137	1.144	1.116	0.929	0.998	0.953	0.794	0.807	0.794	0.730	0.754	0.647	0.667	0.479	0.429	0.478	0.708	0.512	0.463	0.477	0.419	0.453	0.361	0.339	0.328	0.339	0.306	0.425	0.598	1.104	1.319	0.952	0.836	0.991	1.708	3.886	10.78	23.34	28.14	21.24	8.319	1.163	0.314	0.348	0.336	0.350	0.287	0.296	0.266	0.274	0.302	0.272	0.301	0.251	0.361
265.0	20.46	18.25	16.75	59.48	206.0	186.8	126.1	793.2	3842	5386	969.4	21.87	7.049	5.323	3.536	3.206	2.381	1.829	1.750	1.790	1.584	1.319	1.251	1.136	1.108	0.976	1.016	0.839	0.821	0.934	0.878	0.671	0.680	0.590	0.508	0.473	0.430	0.565	0.688	0.485	0.468	0.470	0.430	0.403	0.341	0.417	0.356	0.333	0.334	0.358	0.350	0.552	1.107	1.504	1.018	0.740	0.658	1.195	2.820	7.069	17.14	31.86	27.88	17.61	4.264	0.513	0.341	0.295	0.346	0.321	0.340	0.284	0.349	0.252	0.316	0.320	0.289
270.0	25.97	20.00	14.45	23.21	81.36	212.1	199.4	219.9	1066	3847	5919	2282	60.50	7.521	5.022	4.113	2.790	2.300	2.064	1.843	1.559	1.390	1.312	1.200	1.060	1.061	0.998	0.904	0.793	0.815	0.821	0.703	0.656	0.572	0.458	0.464	0.497	0.552	0.625	0.518	0.457	0.465	0.511	0.453	0.390	0.468	0.349	0.383	0.312	0.326	0.300	0.356	0.536	0.886	1.198	1.531	1.306	0.893	0.960	1.954	4.359	9.759	17.23	28.00	29.51	28.39	11.53	3.609	0.563	0.354	0.344	0.312	0.303	0.282	0.331	0.313	0.326
275.0	36.32	28.00	22.63	18.97	30.71	81.69	273.8	251.5	285.4	927.7	3188	8334	1098	68.83	7.163	5.809	3.451	2.957	2.721	1.945	1.752	1.496	1.470	1.188	1.126	1.079	1.214	0.892	0.965	0.876	0.739	0.833	0.706	0.580	0.665	0.553	0.541	0.580	0.780	0.542	0.495	0.610	0.559	0.450	0.456	0.440	0.371	0.358	0.337	0.326	0.252	0.306	0.320	0.437	0.580	0.846	1.468	2.065	1.565	1.025	1.335	2.480	4.342	6.924	10.98	26.91	46.71	27.95	17.24	3.502	0.446	0.381	0.326	0.282	0.325	0.298	0.366
280.0	48.06	45.89	40.90	25.01	26.07	37.00	150.3	364.4	209.8	265.1	870.8	5241	8373	862.9	36.21	7.731	4.242	3.570	2.513	2.091	1.708	1.800	1.405	1.384	1.259	1.119	1.242	0.991	1.066	0.855	0.732	0.723	0.761	0.716	0.596	0.625	0.531	0.589	0.751	0.630	0.531	0.588	0.507	0.457	0.481	0.472	0.414	0.492	0.401	0.377	0.289	0.287	0.313	0.427	0.426	0.459	0.728	1.601	2.484	1.847	1.088	1.004	1.477	1.936	3.037	7.352	19.52	38.95	58.16	25.98	10.91	1.276	0.377	0.360	0.334	0.329	0.321
285.0	74.50	86.50	67.81	46.89	34.13	33.23	72.12	275.0	388.0	185.0	311.1	1543	6858	7072	574.5	16.98	5.649	4.354	3.084	2.357	1.921	1.815	1.594	1.463	1.290	1.131	1.218	1.154	0.928	0.872	0.848	0.757	0.764	0.655	0.614	0.628	0.552	0.602	0.697	0.597	0.588	0.579	0.487	0.466	0.570	0.556	0.561	0.502	0.499	0.489	0.310	0.395	0.460	0.407	0.405	0.432	0.503	0.865	1.458	2.519	2.387	1.451	1.133	1.156	1.365	2.313	5.122	11.96	30.77	54.33	59.90	21.60	5.031	0.595	0.400	0.438	0.329
290.0	126.6	168.9	150.5	94.38	59.35	51.89	72.89	156.1	387.5	499.0	365.5	628.8	2055	5979	6796	2099	34.75	5.929	4.095	3.190	2.532	2.066	1.719	1.547	1.424	1.338	1.231	1.190	1.082	0.979	0.857	0.808	0.676	0.693	0.712	0.713	0.601	0.678	0.766	0.723	0.594	0.611	0.656	0.561	0.627	0.726	0.700	0.737	0.723	0.642	0.533	0.502	0.510	0.502	0.455	0.505	0.533	0.664	0.899	1.408	2.006	2.735	2.948	2.292	1.777	1.911	2.589	4.104	8.425	16.57	31.01	42.69	38.93	40.47	13.23	4.752	0.701
295.0	188.5	257.7	251.7	154.0	89.91	81.83	105.1	157.2	280.6	609.4	820.1	654.6	881.4	1604	3746	9999.9	607.6	40.96	6.044	4.297	3.328	2.607	1.953	1.809	1.535	1.345	1.380	1.278	1.071	1.175	1.017	0.936	0.882	0.753	0.772	0.707	0.679	0.792	0.845	0.797	0.563	0.655	0.685	0.613	0.768	0.762	0.939	1.075	1.079	0.958	0.655	0.691	0.638	0.560	0.556	0.643	0.725	0.751	0.933	1.113	1.511	1.838	2.837	4.262	4.360	3.292	2.810	3.178	4.216	5.714	8.499	10.67	13.45	34.70	61.91	67.56	20.69
300.0	221.9	322.3	313.4	201.2	118.2	99.52	124.7	183.2	288.5	523.6	1028	941.7	730.1	666.9	1035	7030	8571	499.7	22.75	5.645	4.146	2.737	2.369	2.008	1.788	1.588	1.501	1.367	1.075	1.145	1.048	0.925	0.833	0.843	0.835	0.695	0.663	0.773	0.910	0.815	0.712	0.689	0.747	0.686	0.795	0.890	0.954	1.240	1.239	0.938	0.752	0.774	0.767	0.676	0.692	0.636	0.795	0.912	0.987	1.189	1.426	1.820	2.371	3.329	4.985	5.700	4.277	3.663	3.754	3.862	3.767	3.791	4.049	9.222	23.23	59.63	77.62
305.0	249.3	349.8	367.9	225.8	139.1	115.9	151.5	207.3	328.1	515.6	911.0	1258	847.8	510.1	377.9	1904	6947	4414	357.2	10.85	5.040	3.311	2.684	2.216	1.882	1.505	1.440	1.285	1.138	1.228	1.128	1.018	0.877	0.877	0.895	0.697	0.716	0.912	1.046	0.881	0.764	0.729	0.798	0.695	0.871	0.969	1.065	1.313	1.326	0.959	0.874	0.798	0.788	0.658	0.785	0.741	0.820	0.994	1.077	1.344	1.644	1.999	2.241	3.039	3.829	5.189	6.463	5.665	4.399	3.665	3.097	2.391	2.000	2.884	5.960	16.08	36.01
310.0	266.4	374.9	379.5	240.9	155.3	133.0	168.2	234.4	347.1	532.9	797.1	1112	1135	602.3	263.5	515.7	1834	4773	5615	1465	24.70	5.005	3.575	2.784	2.178	1.920	1.651	1.407	1.295	1.269	1.219	1.031	0.864	0.846	0.824	0.738	0.724	0.755	1.046	0.847	0.826	0.774	0.827	0.761	0.867	1.065	1.095	1.403	1.346	1.196	0.927	0.896	0.838	0.790	0.807	0.818	0.886	1.110	1.261	1.466	1.765	2.033	2.305	2.970	3.540	4.067	4.873	5.710	5.961	5.190	3.641	2.404	1.796	1.768	2.135	4.327	8.835
315.0	250.9	369.1	374.4	250.7	158.1	146.5	179.9	239.7	343.5	512.2	732.2	891.9	973.0	858.1	322.9	226.5	478.6	1131	3172	7804	435.6	28.05	5.021	3.472	3.078	2.319	1.809	1.667	1.485	1.353	1.267	1.125	0.940	0.805	0.791	0.724	0.792	0.829	1.108	0.815	0.796	0.770	0.827	0.759	0.850	1.212	1.114	1.423	1.353	1.215	0.936	0.909	0.949	0.887	0.857	0.816	0.957	1.128	1.289	1.463	1.806	1.989	2.489	2.946	3.327	3.693	3.872	4.343	4.593	5.164	5.292	3.721	2.187	1.744	1.355	1.923	2.809
320.0	247.6	375.1	372.1	259.6	165.4	148.3	180.8	240.2	336.4	489.0	685.6	807.8	804.4	809.4	514.8	201.2	192.0	310.0	803.9	4686	7030	372.6	16.39	4.339	3.683	2.608	2.297	1.853	1.462	1.433	1.121	1.184	0.942	0.767	0.978	0.757	0.773	0.912	1.157	0.867	0.742	0.823	0.913	0.721	0.896	1.075	1.128	1.475	1.326	1.134	0.875	0.948	0.939	0.865	0.876	1.075	1.034	1.198	1.259	1.455	1.885	2.017	2.337	2.741	3.079	3.487	3.574	3.798	3.645	4.053	4.292	4.750	3.988	2.242	1.378	1.426	1.424
325.0	236.5	360.6	398.7	274.7	173.3	158.5	183.8	244.8	334.7	469.5	636.2	746.1	732.8	629.7	629.6	311.6	149.7	138.1	224.0	1232	5647	5906	281.2	8.069	4.385	3.126	2.444	2.191	1.616	1.506	1.262	1.370	1.019	0.840	0.927	0.831	0.745	0.955	1.075	0.951	0.784	0.820	0.861	0.796	0.938	0.962	1.205	1.398	1.483	1.259	0.928	1.079	0.952	0.898	0.884	0.933	1.049	1.225	1.340	1.485	1.784	1.922	2.225	2.815	3.014	3.512	3.444	3.486	3.527	3.575	3.378	3.407	3.918	3.967	2.429	1.494	1.188
330.0	239.4	380.1	413.1	308.1	208.7	176.6	192.0	246.9	325.1	443.3	595.1	686.6	672.9	540.2	473.0	459.9	274.7	132.0	114.6	321.4	1475	4395	4617	1258	21.31	4.320	3.003	2.351	1.795	1.725	1.369	1.404	1.070	0.942	0.878	0.806	0.767	0.867	1.206	0.937	0.837	0.878	0.859	0.846	0.898	0.979	1.200	1.541	1.533	1.390	1.039	1.121	1.086	1.021	0.990	0.984	1.129	1.217	1.303	1.424	1.717	1.908	2.153	2.477	2.829	3.196	3.334	3.281	3.226	3.307	3.077	2.836	2.757	3.165	3.216	3.025	2.396
335.0	229.0	382.9	429.9	347.3	251.8	210.6	215.8	249.9	316.4	420.6	546.1	622.9	627.0	517.6	400.0	365.9	437.5	241.4	120.1	141.9	380.0	1033	2590	6682	1946	26.58	4.344	3.336	2.369	2.046	1.915	1.445	1.216	1.067	0.931	0.839	0.869	0.883	1.318	0.908	0.862	0.971	0.941	0.747	0.803	1.158	1.258	1.521	1.575	1.448	1.183	1.242	1.290	1.087	1.069	1.031	1.156	1.199	1.290	1.390	1.544	1.968	2.084	2.386	2.637	3.016	2.968	2.916	3.197	3.127	2.631	2.619	2.677	2.510	2.447	2.603	3.479
340.0	226.2	370.3	439.4	367.9	285.3	234.1	235.0	255.4	315.1	405.9	527.2	593.2	597.5	505.1	397.4	329.1	380.5	386.5	176.9	123.9	154.1	283.8	666.0	3931	6631	340.8	16.82	4.313	2.964	2.158	1.861	1.506	1.327	1.195	0.936	0.882	0.884	0.810	1.259	0.936	0.911	0.928	0.950	0.761	0.825	1.000	1.279	1.550	1.608	1.501	1.320	1.452	1.310	1.228	1.216	1.169	1.354	1.224	1.440	1.361	1.602	1.779	2.147	2.315	2.641	2.601	2.973	2.821	3.150	3.088	2.818	2.692	2.668	2.330	2.210	2.445	2.360
345.0	235.5	358.2	446.0	390.8	301.5	259.4	253.6	276.7	322.8	403.1	496.7	557.6	572.8	503.1	411.5	334.7	313.9	401.5	301.0	150.6	127.5	135.6	202.2	1040	4871	5286	280.0	8.224	3.547	2.901	2.162	1.804	1.279	1.109	1.000	0.790	0.795	0.908	1.348	1.017	0.835	0.883	0.966	0.754	0.887	1.053	1.206	1.465	1.692	1.601	1.430	1.582	1.430	1.413	1.403	1.143	1.524	1.399	1.502	1.572	1.747	1.708	1.961	2.243	2.543	2.532	2.713	2.867	3.006	3.037	2.921	2.709	2.841	2.471	2.325	2.426	2.180
350.0	221.4	353.4	441.1	415.0	346.5	303.9	291.5	300.8	332.4	401.2	473.1	531.8	546.5	501.2	424.6	361.6	321.0	328.2	367.1	288.7	173.2	136.2	127.8	289.8	1268	3551	3833	1179	20.14	3.933	2.500	2.054	1.543	1.237	1.089	0.932	0.875	1.029	1.403	1.153	0.889	0.924	0.992	0.773	0.844	1.068	1.296	1.416	1.645	1.625	1.430	1.634	1.600	1.584	1.566	1.433	1.520	1.535	1.483	1.628	1.784	1.830	2.051	2.214	2.397	2.551	2.619	2.735	2.847	2.938	2.888	2.771	2.772	2.618	2.514	2.550	2.360
355.0	207.6	340.4	430.0	421.6	390.7	349.0	343.0	341.3	359.4	414.8	469.8	515.1	528.5	499.1	448.9	397.2	357.0	331.4	326.7	378.5	301.9	184.5	143.2	150.7	340.2	838.8	1940	5320	1875	25.95	4.199	2.555	1.889	1.749	1.207	1.027	0.939	1.061	1.405	1.041	0.889	0.890	1.025	0.741	0.892	1.045	1.222	1.402	1.621	1.488	1.457	1.685	1.763	1.684	1.706	1.674	1.785	1.768	1.782	1.707	1.961	2.016	2.083	2.331	2.420	2.472	2.582	2.563	2.787	2.747	2.907	2.799	2.642	2.762	2.794	2.636	2.512
360.0	201.8	338.9	428.7	436.2	423.9	383.9	385.7	371.3	386.5	430.7	478.8	517.6	528.9	505.6	465.1	418.7	389.2	361.6	331.7	353.4	393.5	257.0	173.3	141.9	152.6	238.0	495.2	2873	5494	330.4	17.78	3.502	2.463	1.861	1.267	1.054	1.051	1.096	1.687	1.207	1.000	0.862	1.109	0.708	0.908	1.052	1.196	1.543	1.569	1.658	1.522	1.738	1.858	1.738	1.798	1.777	1.799	1.905	1.922	1.938	1.920	2.059	2.154	2.373	2.396	2.365	2.686	2.627	2.800	2.845	2.683	2.808	2.659	2.855	3.038	2.844	2.828
365.0	213.0	335.7	437.0	455.9	435.1	423.3	414.7	401.9	414.2	456.1	493.2	523.6	527.3	514.2	479.7	446.9	412.3	386.7	358.0	342.5	386.0	359.4	221.6	162.2	129.9	120.1	157.1	743.6	3662	4777	283.8	8.899	3.274	1.905	1.579	1.257	1.107	1.217	1.839	1.228	0.945	1.009	1.167	0.782	0.984	1.143	1.185	1.528	1.754	1.660	1.650	1.892	2.002	1.898	1.999	1.968	2.025	1.982	2.050	2.221	2.081	2.092	2.262	2.311	2.507	2.491	2.670	2.613	2.714	2.668	2.886	2.834	2.750	2.907	3.082	2.962	3.061
370.0	213.6	328.8	446.6	477.3	473.8	466.7	454.1	444.6	449.0	476.3	511.6	529.3	531.2	518.5	495.8	470.8	439.3	420.7	396.6	369.9	364.2	381.2	333.7	218.8	153.6	117.9	101.6	212.3	933.7	2933	3422	1145	19.31	3.251	2.157	1.589	1.272	1.331	1.838	1.350	1.125	1.120	1.145	0.838	0.916	1.060	1.240	1.510	1.689	1.703	1.688	2.063	1.982	2.112	2.155	2.129	2.215	2.087	2.107	2.258	2.229	2.298	2.480	2.412	2.437	2.499	2.720	2.691	2.718	2.678	2.914	2.869	2.958	3.010	3.014	2.993	3.315
375.0	220.8	340.0	452.0	493.8	495.7	499.6	488.3	481.2	481.0	499.0	531.8	539.1	542.5	525.7	506.9	487.8	464.5	453.0	430.8	404.8	380.4	362.1	367.5	322.9	203.9	146.1	112.8	113.2	254.7	689.6	1519	4509	1835	24.84	3.183	2.053	1.535	1.575	1.982	1.528	1.218	1.298	1.207	0.869	0.915	1.012	1.337	1.494	1.618	1.616	1.763	1.944	2.084	2.204	2.141	2.180	2.363	2.210	2.386	2.573	2.443	2.303	2.345	2.674	2.557	2.503	2.866	2.941	2.528	2.805	2.835	2.900	2.953	3.163	3.014	3.267	3.173
380.0	217.2	346.6	449.0	506.0	518.3	518.8	516.7	506.1	503.5	518.3	540.4	554.3	543.9	531.8	513.1	490.2	475.3	463.7	447.5	423.1	397.5	366.1	348.5	367.6	270.8	174.9	134.7	107.9	115.9	194.3	381.0	2160	4560	1293	17.09	2.717	1.853	1.791	2.530	1.669	1.384	1.284	1.182	0.803	0.969	1.077	1.295	1.507	1.556	1.655	1.609	2.109	2.187	2.252	2.096	2.271	2.316	2.356	2.502	2.511	2.371	2.465	2.590	2.520	2.527	2.586	2.569	2.806	2.828	2.895	2.788	2.879	3.213	3.074	3.162	3.299	3.378
385.0	221.0	349.2	463.1	520.1	530.5	534.7	540.1	512.3	519.7	520.3	545.5	548.1	548.5	532.0	512.3	495.4	483.7	471.9	460.3	436.3	410.3	378.1	346.0	346.7	334.0	220.7	155.9	121.5	98.63	95.29	120.7	545.7	2636	4012	251.1	9.496	2.419	2.315	2.566	1.813	1.516	1.316	1.351	0.909	1.001	1.102	1.265	1.418	1.718	1.652	1.620	2.101	2.201	2.281	2.337	2.329	2.411	2.253	2.506	2.489	2.396	2.416	2.530	2.618	2.687	2.549	2.733	2.729	2.934	2.821	2.748	3.000	3.088	3.049	3.216	3.265	3.393
390.0	224.2	353.6	461.7	513.0	538.3	558.3	553.3	538.2	537.8	536.2	553.7	553.1	541.0	529.7	511.0	494.9	484.8	474.6	463.3	444.3	423.9	392.6	358.7	330.2	324.2	292.8	207.0	149.5	116.9	93.82	78.71	157.5	654.6	2065	2411	1035	16.92	3.774	3.741	2.446	1.715	1.491	1.469	1.065	0.999	1.212	1.268	1.467	1.773	1.644	1.748	2.183	2.234	2.383	2.396	2.437	2.576	2.557	2.573	2.588	2.541	2.635	2.438	2.701	2.649	2.564	2.616	2.611	2.753	2.890	2.893	2.816	3.064	3.247	3.251	3.193	3.558
395.0	224.2	352.5	460.9	523.5	536.6	564.6	556.7	554.1	544.4	540.9	555.0	556.3	534.8	526.3	508.4	489.5	479.8	469.1	464.8	445.5	428.9	405.7	372.8	338.4	310.4	298.7	282.4	196.0	145.2	116.1	88.95	85.42	179.7	484.4	902.7	3060	1583	26.55	6.903	3.325	2.297	1.770	1.601	1.064	1.008	1.219	1.296	1.502	1.818	1.691	1.747	2.246	2.258	2.479	2.390	2.613	2.649	2.461	2.690	2.671	2.502	2.626	2.640	2.586	2.646	2.646	2.486	2.662	2.698	2.821	2.920	2.827	2.948	3.172	3.129	3.383	3.408
400.0	234.1	360.2	462.1	517.7	548.6	560.8	569.2	562.1	555.8	554.7	555.4	549.7	533.6	522.0	506.9	484.1	471.3	465.7	456.1	445.2	428.5	407.8	378.9	350.6	315.5	288.8	296.4	250.5	173.3	135.7	103.8	79.72	82.78	136.8	226.0	1284	3250	1654	25.26	4.733	2.907	1.979	1.643	1.056	1.098	1.264	1.338	1.582	1.731	1.682	1.791	2.172	2.154	2.459	2.409	2.522	2.510	2.548	2.614	2.833	2.560	2.597	2.678	2.804	2.556	2.618	2.673	2.534	2.647	2.900	2.883	2.942	3.006	3.167	3.077	3.381	3.459
405.0	218.9	346.5	469.8	519.2	549.0	572.3	571.8	562.7	553.6	548.3	557.0	544.2	533.7	515.0	500.1	471.5	465.1	461.8	449.3	437.3	426.2	403.9	380.9	356.3	322.0	291.2	278.6	283.2	214.1	153.6	119.0	88.70	68.95	65.39	74.40	317.4	1614	5217	1533	16.37	3.974	2.274	1.838	1.173	1.142	1.142	1.411	1.575	1.740	1.692	1.781	2.166	2.178	2.455	2.541	2.655	2.485	2.649	2.591	2.873	2.496	2.804	2.737	2.706	2.540	2.714	2.596	2.694	2.623	2.905	2.800	3.062	3.101	2.976	3.096	3.244	3.177
410.0	223.5	338.1	461.0	516.7	544.9	566.3	576.3	569.1	557.2	549.1	549.5	531.9	521.8	505.1	478.1	461.5	447.8	446.3	436.3	424.3	413.1	396.3	380.2	358.1	326.6	297.8	275.5	266.0	256.9	198.1	141.6	105.7	78.37	59.68	48.85	92.50	392.0	2274	7562	2785	95.00	3.877	2.624	1.312	1.252	1.365	1.401	1.587	1.730	1.805	1.787	2.123	2.279	2.431	2.394	2.455	2.543	2.569	2.626	2.629	2.594	2.650	2.690	2.731	2.612	2.492	2.545	2.601	2.704	2.674	2.786	2.792	2.844	2.948	3.059	3.101	3.242
