Sample:	'1
File name:	G2025090911月河六路东032雨水井.FD3
Run date:	'15:28:32, 09/10/2025
Operator:	Administrator
Comment:	'

Instrument
Model:	F-2700 FL Spectrophotometer
Serial number:	24D1-003
ROM Version:	4J14000 07

Instrument parameters
Measurement type:	3-D scan
Data mode:	Fluorescence
EX  Start WL:	220.0 nm
EX  End WL:	600.0 nm
EX Sampling interval:	5.0 nm
EM  Start WL:	230.0 nm
EM  End WL:	650.0 nm
EM Sampling interval:	5.0 nm
Scan speed:	12000 nm/min
EX Slit:	5.0 nm
EM Slit:	5.0 nm
PMT Voltage:	700 V
Response:	Auto 
Corrected spectra:	Off
Contour interval:	50.000

Peak integration
Integration method:	Rectangular
Sensitivity:	1
Threshold:	1.000

Peaks
No.	ApexEX/EM(nm)	Height(Data)
1	230.0/340.0	4045
2	230.0/570.0	29.96
3	230.0/585.0	28.29
4	235.0/515.0	151.8
5	240.0/265.0	373.2
6	240.0/525.0	163.9
7	245.0/535.0	153.8
8	245.0/600.0	19.84
9	250.0/275.0	493.0
10	250.0/550.0	137.0
11	255.0/280.0	609.7
12	255.0/560.0	128.2
13	260.0/285.0	626.3
14	260.0/575.0	116.6
15	265.0/290.0	667.5
16	265.0/585.0	113.6
17	270.0/300.0	989.4
18	270.0/595.0	97.32
19	275.0/305.0	1146
20	275.0/610.0	87.89
21	280.0/340.0	2990
22	280.0/625.0	76.51
23	285.0/635.0	64.80
24	320.0/360.0	554.5
25	325.0/365.0	494.7
26	335.0/380.0	361.6
27	340.0/385.0	339.3
28	350.0/400.0	280.7
29	355.0/405.0	277.2
30	360.0/410.0	247.0
31	365.0/420.0	237.5
32	370.0/425.0	226.2
33	380.0/440.0	179.1
34	385.0/445.0	162.5
35	400.0/465.0	106.7
36	415.0/485.0	59.99
37	425.0/500.0	41.08
38	440.0/520.0	23.85
39	445.0/525.0	20.99
40	455.0/540.0	13.98
41	465.0/340.0	12.94
42	470.0/560.0	7.601
43	505.0/275.0	2.996
44	510.0/280.0	3.361
45	520.0/285.0	3.895
46	530.0/290.0	3.494
47	540.0/295.0	5.046
48	545.0/300.0	4.965
49	555.0/305.0	5.252
50	565.0/340.0	12.41

Data points
	220.0	225.0	230.0	235.0	240.0	245.0	250.0	255.0	260.0	265.0	270.0	275.0	280.0	285.0	290.0	295.0	300.0	305.0	310.0	315.0	320.0	325.0	330.0	335.0	340.0	345.0	350.0	355.0	360.0	365.0	370.0	375.0	380.0	385.0	390.0	395.0	400.0	405.0	410.0	415.0	420.0	425.0	430.0	435.0	440.0	445.0	450.0	455.0	460.0	465.0	470.0	475.0	480.0	485.0	490.0	495.0	500.0	505.0	510.0	515.0	520.0	525.0	530.0	535.0	540.0	545.0	550.0	555.0	560.0	565.0	570.0	575.0	580.0	585.0	590.0	595.0	600.0
230.0	26.19	238.7	880.4	295.7	20.76	9.208	7.793	6.813	5.786	5.488	5.155	4.719	4.410	3.679	3.206	2.609	2.356	1.978	1.986	1.588	1.668	1.493	1.398	1.188	1.251	1.211	1.101	1.094	0.995	1.054	0.940	0.918	0.923	0.778	0.826	0.710	0.667	0.584	0.596	0.613	0.623	0.626	0.527	0.558	0.573	0.531	0.609	1.132	2.701	3.138	1.684	0.614	0.454	0.421	0.461	0.453	0.467	0.449	0.442	0.473	0.439	0.401	0.429	0.481	0.472	0.460	0.505	0.478	0.464	0.469	0.531	0.481	0.485	0.417	0.497	0.490	0.546
235.0	35.88	83.98	776.9	2327	451.5	39.08	9.577	7.547	7.143	6.280	5.186	4.586	4.097	4.167	2.996	2.979	2.247	2.089	1.880	1.460	1.368	1.619	1.395	1.536	1.250	0.975	1.194	0.993	1.028	0.976	0.957	0.839	0.832	0.662	0.831	0.594	0.701	0.666	0.613	0.668	0.609	0.532	0.481	0.529	0.546	0.675	0.538	0.703	1.358	3.285	6.655	8.868	6.125	1.519	0.453	0.496	0.464	0.487	0.422	0.516	0.416	0.581	0.497	0.516	0.458	0.584	0.463	0.460	0.409	0.437	0.423	0.446	0.436	0.530	0.533	0.458	0.440
240.0	42.06	45.06	258.8	2344	3625	387.3	23.60	8.697	8.022	6.189	6.012	5.015	4.938	4.067	3.152	3.049	2.503	2.269	1.886	1.801	1.850	1.472	1.696	1.414	1.261	1.167	1.199	1.100	1.032	1.209	1.056	0.968	0.837	0.763	0.696	0.688	0.809	0.663	0.550	0.744	0.608	0.536	0.574	0.515	0.587	0.528	0.504	0.543	0.709	1.224	3.609	10.95	17.34	13.80	5.205	0.932	0.452	0.482	0.436	0.409	0.437	0.514	0.489	0.408	0.458	0.512	0.556	0.475	0.471	0.473	0.494	0.635	0.460	0.520	0.553	0.449	0.574
245.0	40.54	59.59	89.56	814.4	4207	3388	311.8	12.49	8.217	6.410	7.072	5.661	4.788	4.916	3.619	3.244	2.462	2.625	2.077	2.008	1.940	1.390	1.625	1.495	1.216	1.082	1.180	1.100	1.012	0.963	1.054	1.010	0.914	0.872	0.737	0.758	0.753	0.664	0.628	0.678	0.571	0.603	0.624	0.514	0.636	0.613	0.624	0.650	0.650	0.577	1.196	3.705	9.960	20.15	23.00	12.95	3.914	0.738	0.533	0.494	0.350	0.501	0.374	0.471	0.498	0.418	0.484	0.468	0.478	0.523	0.502	0.542	0.474	0.551	0.518	0.465	0.516
250.0	33.86	66.43	134.7	249.6	1314	4084	4777	1274	79.94	9.344	8.207	6.365	6.108	4.483	3.732	3.318	2.502	2.531	2.188	1.942	1.738	1.663	1.691	1.531	1.305	1.011	1.263	1.114	1.097	0.904	1.018	0.935	0.943	0.867	0.851	0.783	0.732	0.669	0.655	0.690	0.685	0.611	0.566	0.568	0.533	0.481	0.573	0.640	0.784	0.757	0.829	1.281	2.765	6.006	11.83	17.86	23.38	19.73	11.86	4.343	0.713	0.525	0.449	0.513	0.492	0.452	0.523	0.510	0.541	0.483	0.487	0.524	0.522	0.488	0.516	0.489	0.529
255.0	32.14	37.00	114.2	275.4	369.5	1013	3557	7929	1871	88.30	10.74	8.760	7.121	4.962	4.663	3.618	3.324	2.171	2.251	1.704	1.960	1.725	1.396	1.430	1.295	1.203	1.354	1.124	0.962	1.056	1.025	0.977	1.003	0.898	0.805	0.640	0.702	0.819	0.573	0.637	0.674	0.699	0.649	0.620	0.601	0.529	0.572	0.591	0.666	0.798	1.344	1.426	1.427	1.756	3.030	4.510	7.741	16.52	32.97	29.49	18.29	4.473	0.716	0.552	0.497	0.539	0.591	0.475	0.576	0.517	0.570	0.465	0.494	0.440	0.444	0.445	0.468
260.0	33.30	26.39	53.83	252.5	324.7	277.1	1014	5868	8753	1426	40.97	9.944	8.446	5.711	4.795	3.733	3.373	2.589	2.450	1.782	1.807	1.842	1.849	1.529	1.371	1.266	1.484	1.139	1.351	1.216	0.992	1.121	0.955	0.874	0.816	0.753	0.682	0.612	0.672	0.635	0.598	0.701	0.796	0.659	0.502	0.594	0.517	0.508	0.440	0.533	0.789	1.556	2.162	1.505	1.254	1.469	2.179	4.608	12.94	28.57	44.47	27.98	13.05	1.986	0.548	0.545	0.429	0.419	0.595	0.477	0.528	0.535	0.400	0.501	0.500	0.492	0.535
265.0	31.88	26.54	27.48	120.1	373.2	254.3	260.0	1775	7773	9139	231.3	20.12	10.59	6.908	5.608	4.147	3.729	3.068	2.732	2.066	1.872	1.732	1.706	1.671	1.367	1.460	1.479	1.149	1.206	1.178	1.061	0.904	0.897	0.779	0.865	0.757	0.672	0.595	0.614	0.607	0.667	0.614	0.670	0.663	0.648	0.641	0.526	0.606	0.513	0.470	0.481	0.859	1.665	2.137	1.987	1.072	0.925	1.461	3.383	8.188	21.06	38.58	50.77	24.40	7.663	0.801	0.511	0.496	0.542	0.538	0.595	0.542	0.480	0.440	0.557	0.489	0.581
270.0	36.60	31.31	27.14	47.42	167.7	373.0	296.9	450.0	2213	7078	9784	3840	78.58	9.504	6.917	4.943	3.998	3.295	3.056	2.400	1.964	1.960	1.824	1.788	1.567	1.403	1.476	1.275	1.171	1.140	1.264	0.878	0.913	0.843	0.809	0.718	0.703	0.592	0.596	0.642	0.619	0.623	0.692	0.614	0.668	0.656	0.526	0.543	0.546	0.466	0.374	0.624	0.847	1.091	1.766	2.102	2.099	1.453	1.305	2.284	5.378	10.75	21.80	33.82	33.34	38.77	16.11	7.031	0.827	0.535	0.659	0.540	0.594	0.505	0.612	0.571	0.547
275.0	39.43	50.33	46.47	38.80	55.47	153.7	493.0	367.4	547.0	1689	5008	9999.9	6376	96.77	10.97	7.038	5.361	3.520	3.076	2.428	2.569	2.181	1.916	1.752	1.636	1.450	1.450	1.178	1.161	1.216	1.312	1.078	0.956	0.851	0.796	0.755	0.807	0.658	0.804	0.688	0.705	0.641	0.570	0.567	0.602	0.639	0.605	0.639	0.651	0.465	0.456	0.565	0.572	0.670	0.812	1.057	2.206	2.996	2.689	1.784	1.749	2.906	5.427	8.322	10.27	25.08	51.29	66.31	24.75	7.003	0.795	0.588	0.634	0.539	0.606	0.563	0.564
280.0	48.44	63.22	71.23	44.47	35.92	60.51	279.7	609.7	313.7	444.9	1332	7084	9999.9	1175	62.19	9.059	6.286	4.694	3.477	2.830	2.735	2.387	2.179	1.615	1.609	1.584	1.599	1.378	1.168	1.060	1.152	1.131	1.185	1.044	0.945	0.717	0.908	0.650	0.755	0.573	0.730	0.609	0.522	0.564	0.711	0.681	0.512	0.685	0.667	0.589	0.466	0.533	0.514	0.412	0.676	0.630	1.062	1.931	3.361	3.329	2.007	1.472	1.831	2.592	2.972	6.674	17.24	43.63	68.32	33.27	18.37	2.589	0.658	0.663	0.668	0.485	0.574
285.0	47.20	79.63	88.90	62.24	38.26	38.53	109.2	455.9	626.3	249.3	398.6	1984	8196	9999.9	915.5	31.89	8.293	5.543	3.860	3.075	2.848	2.452	2.300	1.997	1.755	1.793	1.682	1.538	1.276	1.222	1.163	1.046	1.208	0.954	1.104	0.717	0.809	0.638	0.674	0.529	0.627	0.684	0.551	0.569	0.697	0.689	0.663	0.703	0.747	0.609	0.674	0.525	0.551	0.448	0.586	0.583	0.783	0.982	1.734	2.982	3.895	2.821	1.391	1.382	1.423	2.337	4.660	11.57	26.89	51.05	74.65	29.56	11.13	1.092	0.622	0.638	0.650
290.0	57.67	87.74	118.9	86.66	49.83	45.23	70.49	192.7	543.0	667.5	354.1	607.0	2185	6825	9328	3668	52.65	8.689	6.005	4.029	3.291	2.661	2.467	2.076	1.887	1.771	1.809	1.464	1.429	1.473	1.192	1.119	1.082	0.951	0.965	0.842	0.750	0.782	0.725	0.623	0.643	0.630	0.682	0.748	0.647	0.744	0.614	0.782	0.835	0.697	0.654	0.687	0.697	0.567	0.643	0.681	0.678	0.784	0.952	1.361	2.189	3.298	3.494	3.281	2.112	1.567	2.038	3.491	7.079	13.71	27.70	41.32	57.65	49.95	18.28	8.072	1.040
295.0	60.45	95.17	133.1	115.7	72.58	66.61	80.57	132.8	268.2	629.3	883.2	452.9	701.3	1682	3545	9999.9	5219	66.45	8.730	5.734	4.614	3.054	2.617	2.342	2.088	1.848	1.807	1.513	1.591	1.444	1.209	1.341	1.165	1.098	0.947	0.817	0.903	0.798	0.764	0.578	0.703	0.621	0.804	0.712	0.784	0.725	0.652	0.741	0.902	0.786	0.638	0.795	0.732	0.633	0.698	0.666	0.746	0.833	0.902	1.177	1.218	1.849	2.144	3.775	5.046	3.515	2.154	1.984	2.841	4.177	7.198	10.15	15.52	28.85	60.94	83.72	28.83
300.0	59.04	106.9	148.7	123.6	89.82	81.28	104.2	142.8	211.9	405.4	989.4	801.0	445.4	562.5	934.3	4975	9999.9	3741	44.35	7.851	5.246	3.627	3.091	2.479	2.334	1.984	1.806	1.735	1.846	1.519	1.460	1.251	1.219	1.006	0.929	0.920	0.881	0.793	0.933	0.728	0.668	0.679	0.760	0.672	0.707	0.611	0.612	0.867	0.915	0.791	0.726	0.864	0.813	0.740	0.828	0.713	0.914	1.003	0.949	1.062	1.192	1.224	1.640	2.419	4.015	4.965	4.261	2.756	2.100	2.282	2.912	3.309	4.258	7.671	19.29	52.10	83.87
305.0	60.09	108.9	163.5	135.2	107.0	101.2	130.9	164.1	233.3	342.8	679.9	1146	654.9	359.0	350.0	1283	6603	9999.9	614.1	26.66	6.976	4.947	3.568	2.935	2.618	2.229	1.696	1.869	1.669	1.578	1.309	1.366	1.314	1.088	1.018	0.883	0.750	0.774	0.811	0.729	0.759	0.617	0.782	0.639	0.624	0.669	0.664	0.830	0.872	0.844	0.850	0.834	0.934	0.856	0.844	0.843	1.024	0.974	1.044	1.244	1.299	1.324	1.611	2.017	2.558	3.514	4.921	5.252	3.272	2.267	2.227	1.982	2.001	2.692	5.129	13.39	31.40
310.0	58.51	123.0	180.0	160.8	130.2	127.1	156.5	201.3	274.9	373.9	530.0	854.4	1040	608.1	293.6	406.3	1652	5776	9999.9	2559	39.09	7.739	5.161	3.674	2.967	2.575	2.139	1.765	1.683	1.604	1.428	1.367	1.269	1.025	1.082	0.982	0.887	0.763	0.815	0.749	0.779	0.724	0.705	0.715	0.646	0.752	0.710	0.864	0.872	0.917	0.914	0.952	0.954	0.859	0.988	1.036	1.051	1.146	1.191	1.405	1.466	1.644	1.767	2.127	2.277	2.688	3.201	4.239	4.551	4.741	3.537	2.315	1.779	1.961	2.069	3.845	7.937
315.0	89.89	226.1	348.8	261.9	171.9	169.0	222.8	287.4	391.7	510.2	652.6	798.1	937.8	1139	623.6	325.9	512.3	1387	3363	9999.9	4003	52.27	8.272	5.266	3.569	2.812	2.513	1.928	1.918	1.749	1.564	1.320	1.360	1.091	1.034	1.035	0.949	0.785	0.818	0.681	0.659	0.863	0.688	0.778	0.816	0.821	0.960	1.281	1.513	1.334	1.147	1.153	1.161	1.094	1.248	1.113	1.257	1.508	1.637	1.596	2.016	2.142	2.409	2.648	2.943	3.042	3.461	3.656	3.729	4.402	5.451	5.187	3.531	2.426	2.041	2.222	2.927
320.0	176.6	630.4	870.3	591.9	330.9	300.3	365.0	511.7	691.1	908.4	1130	1287	1306	1398	1134	630.1	402.8	488.2	895.2	4485	9999.9	3045	38.56	7.429	4.303	3.381	2.706	1.987	1.934	1.790	1.654	1.600	1.353	1.120	1.046	0.906	0.936	0.925	0.858	0.877	0.723	0.744	0.710	0.796	0.811	1.136	1.552	2.609	3.621	3.392	2.609	2.244	1.733	1.776	1.572	1.838	1.855	2.142	2.559	2.692	3.024	3.259	3.529	4.433	4.627	4.820	4.969	5.356	5.400	5.775	6.052	6.928	6.878	4.668	3.644	2.789	2.690
325.0	297.5	1253	2312	1614	579.5	488.4	614.1	831.5	1114	1476	1830	2061	2059	1914	1830	1291	630.5	427.9	434.2	1241	6047	9999.9	487.2	26.00	5.911	4.132	3.321	2.602	2.168	2.119	1.839	1.587	1.449	1.457	1.078	0.946	0.950	0.982	0.909	0.816	0.736	0.924	0.777	0.829	1.023	1.447	2.465	4.519	7.110	7.466	5.657	4.670	3.462	2.846	2.466	2.466	2.609	3.040	3.455	3.998	4.435	4.881	5.815	6.394	7.084	7.778	8.107	8.250	8.694	8.775	8.498	8.555	8.919	8.836	6.924	5.014	3.768
330.0	367.3	1613	3290	2574	1214	780.8	819.0	1057	1410	1859	2299	2585	2593	2373	2053	1720	1063	579.4	435.5	531.8	1646	5390	8540	3964	33.03	6.312	4.379	3.457	2.533	2.250	2.009	1.827	1.578	1.449	1.288	1.043	1.064	0.909	0.941	0.858	0.865	0.896	0.767	0.855	1.157	1.706	2.854	5.899	9.752	10.41	8.902	7.597	6.038	4.077	3.747	3.195	3.543	3.785	4.294	4.814	5.729	6.406	7.197	7.669	9.017	9.370	10.15	10.34	10.69	10.58	10.97	10.19	9.794	9.310	8.979	8.302	6.835
335.0	407.7	1854	3798	3032	1523	962.5	954.4	1196	1584	2079	2555	2885	2881	2627	2209	1711	1320	813.5	504.6	415.7	614.8	1415	2997	9688	3286	43.97	5.993	4.531	3.699	2.697	2.257	1.884	1.594	1.372	1.202	1.110	1.062	1.005	0.994	0.998	0.923	0.887	0.986	0.932	1.166	1.906	3.087	6.596	11.14	12.12	10.10	9.385	7.481	4.945	4.375	3.719	4.070	4.308	4.733	5.416	6.292	6.931	7.955	8.949	9.790	10.83	11.30	11.81	11.26	12.00	11.48	11.29	10.51	9.939	8.589	7.933	7.994
340.0	423.8	1954	4045	3379	1700	1036	1016	1257	1662	2168	2665	2962	2990	2753	2295	1723	1238	1029	631.4	419.2	406.4	548.0	797.5	4256	9999.9	2620	31.71	5.735	4.164	3.303	2.607	2.163	1.550	1.555	1.302	1.132	0.982	0.957	1.060	0.903	0.859	0.881	0.851	0.931	1.198	1.812	3.246	6.923	11.48	12.94	11.52	10.15	8.122	5.709	4.650	4.084	4.331	4.330	5.092	5.693	6.179	7.250	8.211	9.187	9.967	10.82	11.82	12.31	12.19	12.41	11.78	11.21	10.58	9.704	8.748	7.909	7.144
345.0	394.7	1824	3895	3353	1737	1060	987.3	1210	1590	2047	2499	2792	2815	2601	2197	1654	1126	933.2	796.6	459.7	360.8	365.1	300.1	1069	5640	9291	411.0	20.00	5.277	3.696	2.806	2.188	1.667	1.646	1.420	1.233	0.975	1.135	0.909	0.784	0.798	0.887	0.840	0.993	1.201	1.971	3.414	6.712	10.47	12.86	11.26	10.13	8.329	5.708	4.794	4.048	4.184	4.516	4.821	5.377	5.987	6.864	7.863	8.563	9.429	10.11	11.02	11.38	11.13	11.95	11.89	10.73	10.40	9.473	8.403	7.282	6.425
350.0	329.3	1521	3264	2936	1597	984.3	919.5	1065	1383	1762	2139	2391	2422	2240	1912	1459	999.7	742.0	723.4	602.5	380.7	316.1	199.1	305.5	1393	4716	6931	3190	28.93	5.338	3.861	2.637	2.060	1.911	1.544	1.288	1.076	1.047	0.843	0.931	0.838	0.898	0.883	0.885	1.108	1.652	2.870	5.649	8.891	10.54	9.556	8.977	7.184	5.271	4.438	3.711	3.845	4.213	4.540	4.797	5.589	6.034	7.028	7.713	8.196	8.752	9.611	9.428	9.898	9.998	10.06	9.355	9.067	8.654	7.481	6.712	5.857
355.0	290.4	1246	2695	2485	1430	897.4	831.7	956.6	1198	1517	1821	2022	2043	1903	1623	1261	880.0	639.4	553.9	582.8	516.4	324.5	187.5	154.5	366.2	1095	2472	7885	2916	35.80	5.328	3.414	2.308	1.969	1.675	1.417	1.229	1.076	1.003	0.939	0.879	0.861	0.796	0.814	0.975	1.463	2.396	4.503	7.452	8.636	8.126	7.606	6.483	4.821	4.155	3.432	3.718	3.811	4.117	4.454	4.800	5.357	5.959	6.361	7.032	7.548	8.049	7.829	7.991	8.434	8.481	7.930	7.666	7.081	6.461	5.772	5.246
360.0	242.9	1051	2254	2173	1277	835.9	769.8	864.4	1059	1313	1563	1723	1758	1627	1412	1112	808.1	591.7	490.2	468.8	554.5	403.9	204.2	132.8	151.4	292.5	601.9	3518	8468	2113	25.91	4.654	2.974	2.385	1.737	1.605	1.266	1.071	1.142	0.952	0.851	0.984	0.820	0.770	0.867	1.412	2.072	4.002	6.457	7.618	6.842	7.059	6.004	4.558	3.822	3.160	3.594	3.622	3.826	3.708	4.247	4.609	5.156	5.652	5.912	6.237	6.775	6.967	7.221	7.348	7.196	7.189	6.626	6.346	5.885	5.316	4.879
365.0	197.6	853.0	1859	1832	1133	786.1	701.7	774.8	931.8	1145	1335	1482	1495	1389	1215	983.1	729.1	551.0	463.6	409.3	454.9	494.7	262.7	144.0	117.7	125.9	177.3	873.3	4786	7943	367.4	10.32	3.906	2.966	2.027	1.769	1.393	1.212	1.190	0.984	0.934	0.867	0.925	0.772	0.846	1.347	1.687	3.379	4.944	6.341	5.899	6.132	5.249	3.866	3.610	3.245	3.183	3.423	3.656	3.533	3.666	4.248	4.554	4.890	5.223	5.495	5.803	6.025	6.119	6.178	6.409	6.205	6.004	5.831	5.155	4.708	4.767
370.0	158.5	646.7	1423	1455	974.7	709.8	634.6	680.2	796.2	955.4	1108	1207	1224	1146	1016	828.4	634.9	504.4	437.7	387.1	367.9	428.7	380.5	211.3	134.3	107.0	96.69	234.4	1182	4568	6264	1372	21.34	3.992	2.619	2.012	1.532	1.367	1.180	1.095	0.968	0.891	0.928	0.825	0.914	1.066	1.471	2.598	4.030	5.100	4.723	5.113	4.492	3.646	3.380	2.831	2.922	2.881	2.962	3.212	3.289	3.541	4.011	4.167	4.687	4.514	4.745	4.841	5.338	5.307	5.345	5.131	5.205	4.896	4.393	4.129	4.027
375.0	132.2	486.5	1097	1168	844.9	630.7	583.3	590.5	674.6	797.5	930.0	999.3	1004	939.0	837.2	703.5	558.7	466.3	411.0	375.5	340.5	347.0	359.7	342.8	185.0	125.2	96.42	106.6	301.7	1053	2462	7121	2189	26.80	3.741	2.368	2.023	1.715	1.259	1.089	1.017	0.894	0.913	0.997	0.885	0.914	1.365	2.117	3.233	3.817	3.914	4.126	4.001	3.072	2.989	2.521	2.736	2.486	2.781	2.653	3.060	3.409	3.472	3.900	3.842	3.788	4.153	3.903	4.310	4.500	4.425	4.408	4.668	4.215	3.675	3.808	3.572
380.0	116.6	401.7	881.7	982.7	758.3	602.2	541.4	556.4	614.8	711.9	800.3	859.9	857.9	819.0	734.6	618.7	512.1	434.0	397.9	366.6	337.9	325.1	304.8	361.6	272.4	151.3	112.3	89.81	114.2	267.8	598.8	3940	6882	1549	17.02	3.309	2.226	1.918	1.289	1.131	1.069	0.843	1.024	0.946	0.878	0.974	1.221	1.764	2.586	3.008	3.255	3.597	3.190	2.943	2.778	2.273	2.426	2.579	2.581	2.685	2.794	2.867	2.874	3.334	3.303	3.574	3.450	3.633	3.707	3.689	4.048	3.848	4.007	3.681	3.392	3.390	3.486
385.0	104.1	327.4	723.2	842.2	694.1	564.3	512.2	519.5	562.0	640.5	707.1	765.0	753.1	727.1	649.6	558.5	473.6	415.1	381.5	357.2	334.3	318.5	286.7	304.8	339.3	208.9	130.3	98.01	84.36	101.7	165.8	1029	4711	5825	285.7	8.355	2.778	2.173	1.499	1.375	1.141	0.935	0.961	0.902	0.814	0.972	1.150	1.474	2.301	2.566	2.894	3.252	3.021	2.606	2.701	2.389	2.469	2.614	2.475	2.555	2.629	2.831	2.816	3.290	2.983	3.151	3.098	3.331	3.421	3.318	3.536	3.489	3.386	3.385	3.212	3.166	3.070
390.0	86.44	262.8	571.7	706.1	607.9	526.7	478.6	476.2	520.5	569.3	625.1	660.6	657.2	626.6	565.5	494.7	436.6	389.2	365.8	347.1	332.0	317.2	286.2	268.3	296.0	293.9	192.7	122.1	94.82	80.75	80.29	261.3	1216	3579	4515	1078	17.37	2.934	2.000	1.563	1.260	1.069	1.012	0.923	0.906	0.830	0.995	1.456	1.998	2.249	2.320	2.845	2.844	2.502	2.462	2.355	2.403	2.368	2.274	2.318	2.287	2.381	2.358	2.847	2.646	2.817	2.740	2.993	2.956	3.020	3.112	3.044	3.084	2.850	3.044	2.772	2.958
395.0	78.25	219.8	463.5	591.4	545.7	490.6	457.8	449.1	478.1	514.3	555.2	577.6	582.1	548.6	500.9	451.3	399.7	366.0	352.3	336.6	325.1	315.3	292.7	265.9	254.8	271.0	278.7	174.5	117.3	92.20	75.28	100.3	301.1	827.6	2001	4983	1770	22.68	3.212	2.020	1.596	1.360	1.189	0.925	0.901	0.963	0.979	1.242	1.697	1.980	2.104	2.479	2.462	2.389	2.336	2.204	2.258	2.045	2.306	1.997	2.219	2.294	2.451	2.450	2.522	2.648	2.633	2.386	2.765	2.724	2.749	2.825	2.895	2.948	2.635	2.740	2.694
400.0	72.52	199.1	418.5	536.5	512.3	468.7	450.6	431.4	451.5	480.7	526.9	531.6	531.6	505.1	466.1	419.2	380.1	350.7	339.8	330.7	319.1	312.6	294.3	271.3	248.8	240.2	280.7	240.2	143.6	105.5	84.85	71.74	103.7	211.0	492.1	2684	4939	1198	14.71	2.622	1.880	1.335	1.169	0.983	0.967	1.005	1.019	1.209	1.529	1.843	1.948	2.199	2.339	2.097	2.287	2.155	2.159	2.146	2.106	2.030	2.166	2.142	2.385	2.367	2.260	2.500	2.328	2.342	2.499	2.665	2.411	2.522	2.705	2.660	2.535	2.706	2.630
405.0	67.37	170.4	375.7	482.0	480.5	453.0	430.3	428.0	428.5	458.9	497.0	499.0	492.1	466.4	435.1	393.5	356.1	338.5	325.3	321.4	314.5	308.5	297.1	274.0	251.0	232.6	244.2	277.2	190.5	122.4	96.27	73.49	65.28	78.50	133.1	692.8	3230	4236	250.4	6.775	2.310	1.702	1.416	1.080	0.861	1.085	0.881	1.153	1.664	1.490	1.718	2.127	2.132	2.172	2.290	2.082	2.010	2.197	2.001	2.023	2.029	2.082	2.244	2.329	2.402	2.298	2.421	2.149	2.255	2.398	2.319	2.333	2.305	2.564	2.347	2.434	2.556
410.0	62.61	150.4	317.0	445.7	456.6	435.5	419.4	408.2	420.2	433.7	457.8	467.1	454.8	433.8	403.2	365.6	336.5	316.8	310.5	303.4	300.1	299.7	288.0	272.7	254.0	235.7	223.3	239.9	247.0	172.4	117.8	87.58	69.08	58.60	59.49	176.1	827.4	2549	2717	950.2	15.58	2.524	1.746	1.280	1.005	1.077	0.922	1.059	1.401	1.394	1.694	1.906	2.147	1.961	2.021	1.954	2.058	2.009	2.060	1.968	1.968	2.100	2.120	2.158	2.220	2.209	2.171	2.128	2.175	2.202	2.312	2.253	2.225	2.193	2.337	2.340	2.359
415.0	56.01	139.5	290.2	405.1	424.1	422.7	397.7	401.6	409.6	417.9	433.1	434.2	423.3	402.7	370.7	343.5	312.9	297.2	290.7	286.7	284.9	283.0	278.9	266.5	252.7	240.0	222.9	213.4	225.4	236.2	155.7	104.8	81.67	64.12	51.70	66.79	204.5	588.6	1305	3571	1452	19.64	2.506	1.636	1.345	1.195	0.935	1.064	1.386	1.442	1.541	1.980	1.848	1.946	1.887	1.775	2.135	1.838	1.906	1.831	1.942	2.008	1.996	2.106	2.200	2.012	1.966	2.103	2.062	2.156	2.047	2.048	2.153	1.985	2.206	2.348	2.184
