Sample:	'1
File name:	G2025072506月四会四泵站.FD3
Run date:	'10:18:29, 07/29/2025
Operator:	Administrator
Comment:	'

Instrument
Model:	F-2700 FL Spectrophotometer
Serial number:	23B8-004
ROM Version:	4J14000 07

Instrument parameters
Measurement type:	3-D scan
Data mode:	Fluorescence
EX  Start WL:	220.0 nm
EX  End WL:	600.0 nm
EX Sampling interval:	5.0 nm
EM  Start WL:	230.0 nm
EM  End WL:	650.0 nm
EM Sampling interval:	5.0 nm
Scan speed:	12000 nm/min
EX Slit:	5.0 nm
EM Slit:	5.0 nm
PMT Voltage:	700 V
Response:	Auto 
Corrected spectra:	Off
Contour interval:	50.000

Peak integration
Integration method:	Rectangular
Sensitivity:	1
Threshold:	1.000

Peaks
No.	ApexEX/EM(nm)	Height(Data)
1	225.0/585.0	43.20
2	225.0/605.0	37.85
3	225.0/625.0	32.38
4	230.0/340.0	2004
5	230.0/600.0	36.61
6	230.0/630.0	30.21
7	240.0/265.0	429.3
8	245.0/270.0	439.0
9	245.0/535.0	255.4
10	250.0/275.0	564.9
11	250.0/550.0	207.4
12	255.0/280.0	637.6
13	255.0/440.0	1246
14	255.0/560.0	171.9
15	260.0/290.0	639.5
16	260.0/575.0	133.1
17	265.0/295.0	835.1
18	265.0/585.0	124.3
19	270.0/300.0	1174
20	270.0/600.0	108.9
21	275.0/310.0	1310
22	275.0/410.0	1496
23	275.0/610.0	103.6
24	280.0/315.0	1289
25	280.0/340.0	1308
26	280.0/625.0	89.83
27	285.0/320.0	1374
28	285.0/640.0	69.35
29	290.0/325.0	1261
30	320.0/365.0	663.7
31	345.0/415.0	946.7
32	350.0/435.0	919.1
33	355.0/410.0	950.8
34	425.0/500.0	43.19
35	440.0/520.0	25.45
36	460.0/340.0	5.301
37	475.0/350.0	5.253
38	485.0/265.0	2.215
39	485.0/370.0	5.119
40	490.0/375.0	4.950
41	495.0/270.0	2.139
42	505.0/275.0	3.186
43	505.0/445.0	4.986
44	510.0/280.0	3.556
45	510.0/440.0	4.828
46	515.0/285.0	3.576
47	530.0/290.0	3.535
48	540.0/295.0	4.641
49	545.0/300.0	5.472
50	550.0/305.0	5.997
51	560.0/310.0	5.652
52	570.0/315.0	5.887
53	575.0/320.0	6.078
54	585.0/325.0	6.275

Data points
	220.0	225.0	230.0	235.0	240.0	245.0	250.0	255.0	260.0	265.0	270.0	275.0	280.0	285.0	290.0	295.0	300.0	305.0	310.0	315.0	320.0	325.0	330.0	335.0	340.0	345.0	350.0	355.0	360.0	365.0	370.0	375.0	380.0	385.0	390.0	395.0	400.0	405.0	410.0	415.0	420.0	425.0	430.0	435.0	440.0	445.0	450.0	455.0	460.0	465.0	470.0	475.0	480.0	485.0	490.0	495.0	500.0	505.0	510.0	515.0	520.0	525.0	530.0	535.0	540.0	545.0	550.0	555.0	560.0	565.0	570.0	575.0	580.0	585.0	590.0	595.0	600.0
230.0	43.55	1017	2329	718.3	32.00	6.293	5.688	4.581	3.617	3.043	3.360	2.832	2.665	2.334	1.927	1.585	1.456	1.227	1.225	1.197	1.036	0.930	0.852	0.714	0.780	0.683	0.666	0.657	0.585	0.650	0.612	0.524	0.494	0.452	0.436	0.435	0.378	0.339	0.350	0.304	0.328	0.343	0.368	0.313	0.272	0.302	1.312	5.021	7.585	4.762	1.653	0.412	0.222	0.213	0.202	0.216	0.190	0.216	0.210	0.225	0.210	0.200	0.202	0.198	0.229	0.215	0.186	0.201	0.214	0.219	0.219	0.232	0.216	0.257	0.217	0.213	0.193
235.0	84.30	285.1	1557	2624	594.6	44.19	5.925	5.552	4.773	4.763	3.676	3.373	2.815	2.431	1.760	1.650	1.382	1.341	1.081	1.122	1.012	0.891	0.774	0.825	0.701	0.629	0.607	0.689	0.601	0.608	0.604	0.498	0.537	0.448	0.458	0.414	0.415	0.364	0.337	0.256	0.369	0.266	0.426	0.367	0.390	0.297	0.457	1.447	3.305	6.132	8.081	7.646	2.782	0.570	0.217	0.221	0.261	0.190	0.218	0.227	0.214	0.218	0.252	0.204	0.230	0.217	0.209	0.193	0.206	0.196	0.219	0.257	0.226	0.195	0.184	0.213	0.209
240.0	114.7	135.0	481.0	2387	3007	445.3	20.90	6.501	5.997	4.645	3.871	3.445	3.020	2.744	2.207	1.895	1.595	1.431	1.290	1.161	1.036	0.992	0.897	1.001	0.904	0.655	0.553	0.719	0.629	0.712	0.567	0.574	0.571	0.470	0.455	0.390	0.379	0.361	0.370	0.263	0.283	0.273	0.323	0.382	0.508	0.533	0.391	0.574	0.922	1.999	5.362	11.33	12.21	7.411	2.415	0.439	0.231	0.234	0.249	0.225	0.180	0.210	0.250	0.217	0.192	0.215	0.246	0.203	0.229	0.258	0.211	0.219	0.196	0.225	0.182	0.206	0.232
245.0	92.69	171.8	169.7	857.1	3607	2591	312.7	9.839	5.558	5.473	4.110	3.306	3.255	2.878	1.978	2.077	1.477	1.476	1.246	1.265	1.142	0.904	0.947	1.034	0.906	0.608	0.731	0.669	0.654	0.706	0.560	0.631	0.481	0.462	0.438	0.378	0.384	0.298	0.383	0.317	0.274	0.343	0.314	0.321	0.347	0.491	0.651	0.735	0.403	0.634	1.448	4.085	10.14	15.99	13.65	6.788	1.543	0.332	0.243	0.246	0.209	0.206	0.246	0.280	0.230	0.261	0.270	0.236	0.257	0.239	0.204	0.208	0.255	0.218	0.264	0.222	0.265
250.0	48.09	148.4	239.1	283.1	1245	2879	3278	1052	54.48	6.972	4.995	4.584	3.534	3.353	2.492	2.075	1.596	1.698	1.298	1.194	0.937	1.122	0.903	1.006	0.906	0.759	0.793	0.745	0.717	0.626	0.592	0.599	0.550	0.464	0.444	0.440	0.401	0.366	0.375	0.354	0.291	0.383	0.307	0.351	0.299	0.367	0.484	0.780	0.909	0.726	0.719	1.193	2.678	5.675	10.24	14.95	17.46	14.10	7.068	1.810	0.381	0.237	0.240	0.266	0.261	0.243	0.222	0.235	0.233	0.273	0.233	0.220	0.218	0.212	0.249	0.190	0.254
255.0	27.84	57.34	186.5	345.7	372.2	763.0	2959	4905	1429	45.85	7.947	6.635	4.747	3.921	3.001	2.273	1.858	1.559	1.410	1.213	1.172	1.060	1.049	1.015	0.982	0.749	0.863	0.628	0.741	0.591	0.683	0.603	0.561	0.393	0.381	0.405	0.379	0.328	0.331	0.309	0.279	0.318	0.283	0.313	0.267	0.284	0.346	0.404	0.543	0.790	1.440	1.291	1.076	1.555	2.551	3.875	7.373	17.49	27.49	23.55	10.07	1.908	0.323	0.245	0.252	0.336	0.237	0.272	0.208	0.260	0.241	0.268	0.275	0.222	0.284	0.229	0.234
260.0	24.48	38.78	77.23	319.7	342.8	226.1	953.7	4511	5150	296.8	19.90	8.832	5.459	3.562	3.396	2.782	2.138	1.745	1.503	1.119	1.233	1.016	1.211	0.909	0.946	0.949	0.859	0.776	0.665	0.786	0.729	0.628	0.491	0.421	0.382	0.380	0.432	0.392	0.390	0.347	0.321	0.366	0.348	0.321	0.306	0.233	0.327	0.299	0.326	0.441	0.951	1.775	1.740	1.063	0.876	1.154	1.998	5.051	13.47	26.55	31.84	21.82	7.166	0.943	0.290	0.326	0.237	0.256	0.251	0.300	0.276	0.210	0.282	0.258	0.258	0.251	0.252
265.0	31.55	27.30	32.54	155.4	429.3	251.0	253.7	1647	6027	4689	223.2	13.69	6.206	4.968	3.789	2.576	2.468	1.997	1.657	1.224	1.169	1.123	1.222	0.923	0.969	0.955	0.943	0.833	0.669	0.753	0.706	0.729	0.503	0.490	0.373	0.492	0.437	0.349	0.331	0.317	0.272	0.402	0.344	0.371	0.302	0.300	0.253	0.274	0.246	0.300	0.468	0.986	1.891	2.215	1.308	0.703	0.746	1.473	3.402	8.263	20.12	35.39	31.31	17.76	3.774	0.465	0.220	0.260	0.246	0.274	0.250	0.256	0.233	0.227	0.256	0.219	0.266
270.0	41.34	33.18	26.13	56.82	216.7	439.0	300.2	430.5	2046	5364	4893	901.9	42.33	6.761	4.354	3.391	2.746	2.541	1.953	1.547	1.374	1.122	1.320	1.021	1.092	0.950	0.935	0.893	0.911	0.718	0.704	0.702	0.553	0.518	0.440	0.431	0.469	0.429	0.329	0.371	0.342	0.367	0.365	0.351	0.370	0.330	0.271	0.294	0.283	0.294	0.300	0.446	0.752	1.264	1.965	2.139	1.827	1.135	1.067	2.143	5.045	10.75	18.63	28.86	30.47	28.05	12.70	3.399	0.477	0.284	0.253	0.251	0.243	0.256	0.260	0.227	0.278
275.0	72.04	52.97	41.79	37.56	78.70	215.3	564.9	354.2	520.8	1426	4807	9429	1171	34.12	7.213	4.917	3.506	2.922	1.876	2.037	1.563	1.591	1.314	1.031	1.125	1.033	1.009	0.771	0.900	0.801	0.826	0.821	0.623	0.596	0.586	0.524	0.506	0.404	0.374	0.445	0.430	0.401	0.391	0.416	0.373	0.388	0.416	0.393	0.445	0.328	0.262	0.326	0.421	0.517	0.770	1.277	2.522	3.186	2.105	1.116	1.551	2.851	4.627	7.026	10.31	23.97	43.75	32.48	18.97	3.616	0.375	0.314	0.298	0.290	0.236	0.194	0.299
280.0	101.7	99.84	69.75	46.77	50.07	94.06	400.6	637.6	292.3	411.4	1536	8541	7197	173.1	14.90	6.012	3.974	3.639	2.300	2.038	1.931	1.639	1.407	1.321	0.984	1.025	1.056	0.833	0.855	0.854	0.711	0.784	0.647	0.647	0.664	0.597	0.512	0.425	0.398	0.422	0.375	0.427	0.455	0.483	0.442	0.431	0.461	0.448	0.444	0.370	0.329	0.340	0.376	0.351	0.460	0.635	1.126	2.349	3.556	2.870	1.456	1.164	1.624	2.108	2.834	6.452	16.70	34.12	50.86	30.41	12.60	1.342	0.283	0.333	0.288	0.230	0.255
285.0	135.0	148.9	100.5	61.78	54.85	68.08	181.6	632.3	403.5	243.0	472.5	2917	8470	5412	125.8	8.927	5.098	3.800	2.705	2.312	1.837	1.776	1.525	1.441	1.077	1.104	0.991	0.897	0.768	0.884	0.782	0.718	0.659	0.614	0.720	0.586	0.524	0.515	0.414	0.435	0.406	0.444	0.482	0.552	0.556	0.559	0.591	0.498	0.475	0.410	0.330	0.392	0.385	0.441	0.387	0.509	0.714	1.123	2.170	3.576	3.510	2.193	1.256	1.101	1.208	2.095	4.497	9.725	23.38	44.02	51.34	24.05	6.303	0.587	0.353	0.291	0.288
290.0	181.6	203.3	163.6	104.2	78.32	88.67	123.1	301.8	639.5	586.3	322.4	841.0	2767	6277	5706	495.2	23.81	5.466	3.639	2.739	2.044	1.890	1.799	1.403	1.238	1.198	0.999	1.089	0.904	0.868	0.751	0.788	0.733	0.691	0.823	0.653	0.654	0.587	0.538	0.512	0.498	0.573	0.489	0.564	0.661	0.625	0.605	0.714	0.637	0.535	0.481	0.496	0.462	0.496	0.456	0.562	0.611	0.767	0.985	1.616	2.392	3.369	3.535	2.626	1.622	1.322	1.942	3.100	6.150	12.22	22.19	30.70	32.39	33.16	16.17	5.267	0.629
295.0	210.8	257.1	221.9	163.8	132.2	127.6	149.6	216.2	367.8	835.1	778.9	492.1	840.7	1681	4803	6981	657.6	18.47	5.471	3.437	2.766	2.413	1.926	1.577	1.371	1.266	1.032	1.109	0.967	1.085	0.877	0.848	0.885	0.728	0.845	0.758	0.720	0.553	0.610	0.539	0.496	0.534	0.550	0.600	0.695	0.794	0.830	0.815	0.825	0.680	0.649	0.633	0.626	0.733	0.588	0.741	0.680	0.793	0.919	1.176	1.348	1.728	2.588	4.232	4.641	2.821	1.962	1.959	2.675	3.713	5.849	7.677	9.627	21.09	41.68	36.12	23.80
300.0	239.7	309.7	270.3	211.3	176.6	174.8	203.4	257.6	329.9	611.2	1174	717.8	519.0	600.4	1512	6357	5685	97.44	10.21	4.529	3.398	2.770	2.180	1.913	1.643	1.301	1.101	1.101	1.115	1.068	0.911	0.921	0.896	0.820	0.788	0.828	0.691	0.633	0.601	0.573	0.585	0.677	0.571	0.725	0.735	0.755	0.887	1.022	0.965	0.869	0.758	0.878	0.861	0.833	0.905	0.872	1.055	1.026	1.197	1.345	1.314	1.553	1.766	2.938	4.511	5.472	4.199	2.428	2.231	2.197	2.617	2.841	3.076	5.737	13.66	28.67	48.42
305.0	279.1	351.9	341.4	267.2	238.9	242.7	280.0	352.3	407.9	603.6	1090	1309	700.1	500.3	606.6	2218	7154	4231	73.48	6.685	4.175	3.098	2.476	2.185	1.880	1.393	1.471	1.150	1.282	1.087	1.047	0.851	0.756	0.845	0.855	0.827	0.670	0.622	0.661	0.631	0.576	0.558	0.561	0.711	0.719	0.915	0.921	0.950	1.065	0.940	0.861	0.947	1.101	1.099	1.038	1.063	1.239	1.509	1.640	1.676	1.748	2.080	2.091	2.390	3.347	4.643	5.997	5.464	3.695	2.660	2.461	2.156	2.273	2.669	4.329	8.069	19.43
310.0	291.7	390.4	405.5	335.0	299.4	313.8	365.6	444.4	537.8	674.8	910.9	1310	1265	714.9	515.8	755.3	2402	5109	4519	327.1	16.60	4.209	3.386	2.513	2.138	1.745	1.631	1.396	1.386	1.248	1.022	0.832	0.945	0.936	0.816	0.880	0.748	0.766	0.623	0.634	0.608	0.598	0.652	0.712	0.838	0.938	1.001	1.186	1.204	1.107	1.082	1.174	1.224	1.203	1.355	1.352	1.505	1.767	1.772	2.019	2.183	2.309	2.568	2.871	3.338	3.571	4.219	5.205	5.652	5.223	4.297	3.006	2.459	2.358	2.508	3.234	5.578
315.0	345.4	451.8	494.1	415.4	351.7	370.7	438.8	515.9	619.9	739.0	907.6	1076	1289	1214	646.0	493.1	793.0	1377	3795	4964	462.5	13.56	4.624	3.327	2.216	2.031	1.798	1.525	1.502	1.333	1.206	0.953	0.908	0.796	0.874	0.903	0.813	0.639	0.752	0.657	0.674	0.694	0.686	0.755	0.887	1.209	1.189	1.342	1.442	1.466	1.258	1.403	1.468	1.520	1.531	1.653	1.755	1.913	2.119	2.313	2.533	2.418	2.784	3.028	3.364	3.533	3.924	4.342	4.405	5.068	5.887	5.556	3.684	2.811	2.514	2.251	2.775
320.0	450.3	700.9	727.3	532.6	421.2	412.4	488.4	570.6	682.7	819.6	978.7	1115	1174	1374	983.4	526.5	489.7	497.4	1132	4686	4194	70.55	8.181	3.874	2.853	2.374	1.883	1.882	1.436	1.462	1.247	1.053	0.917	0.868	0.914	0.893	0.841	0.761	0.806	0.673	0.735	0.781	0.816	0.941	1.094	1.605	1.767	2.082	2.010	1.771	1.661	1.696	1.519	1.659	1.779	1.709	2.093	2.278	2.395	2.468	2.743	2.849	2.942	3.349	3.689	3.691	4.012	4.297	4.470	4.529	4.994	6.078	5.801	4.649	3.215	2.602	2.382
325.0	620.1	1023	1140	755.0	505.0	471.8	525.0	621.6	733.7	898.5	1063	1202	1193	1224	1261	714.3	469.7	336.6	368.3	1540	5184	3264	57.14	5.819	3.259	2.717	2.234	1.844	1.598	1.437	1.193	1.034	1.024	1.114	0.905	0.805	0.851	0.725	0.840	0.787	0.788	0.784	0.953	1.021	1.397	1.693	2.461	3.080	3.149	2.542	2.125	2.141	1.969	1.808	1.896	1.933	2.303	2.378	2.642	2.796	2.783	3.082	3.170	3.706	3.639	4.442	4.385	4.619	4.593	4.622	4.861	5.258	5.846	6.275	5.202	3.461	2.841
330.0	746.2	1269	1535	1102	709.1	561.4	559.5	662.5	768.2	933.9	1113	1238	1240	1158	1131	1018	642.7	366.8	255.3	458.7	1641	3746	4135	258.2	15.53	4.116	2.707	2.197	1.727	1.731	1.543	1.187	1.121	1.083	0.944	0.969	0.845	0.790	0.769	0.740	0.815	0.898	0.929	1.190	1.481	2.024	2.857	3.785	4.075	3.682	3.107	3.170	2.737	2.566	2.216	2.159	2.463	2.416	2.542	2.881	2.754	3.226	3.472	3.792	4.014	4.357	4.558	4.795	4.960	4.810	4.847	4.785	4.810	5.311	5.125	5.054	4.497
335.0	851.3	1453	1804	1423	997.8	712.7	623.7	707.8	801.5	986.2	1149	1292	1301	1209	1060	970.7	941.8	534.2	306.8	278.7	493.4	977.1	3316	3890	391.1	15.00	4.125	2.893	2.014	1.665	1.698	1.317	1.168	1.120	0.892	0.888	0.810	0.858	0.743	0.938	0.863	0.894	0.990	1.198	1.539	2.183	3.157	4.277	5.069	4.445	3.941	4.491	3.707	3.386	2.645	2.400	2.697	2.667	2.625	3.041	3.082	3.305	3.548	4.085	4.080	4.718	4.804	4.854	5.206	5.158	4.951	5.162	4.967	4.884	4.567	4.364	4.807
340.0	855.0	1559	2004	1608	1139	804.5	677.0	728.2	831.6	995.0	1164	1303	1308	1232	1072	903.7	927.5	761.8	392.6	279.0	272.0	333.2	966.9	3586	3452	309.2	7.452	3.803	2.513	2.079	1.710	1.477	1.382	1.108	0.961	0.824	0.786	0.913	0.764	0.885	0.782	0.934	1.040	1.318	1.775	2.423	3.477	4.477	5.301	4.865	4.549	4.824	4.292	3.670	3.218	2.631	3.056	2.859	2.856	2.999	3.311	3.504	3.555	4.125	4.376	4.554	4.971	4.872	5.188	5.220	5.229	4.861	4.758	4.673	4.589	4.177	4.258
345.0	785.8	1516	1965	1690	1235	888.8	722.3	743.2	829.4	987.4	1134	1273	1279	1215	1074	892.9	813.4	838.8	564.5	324.4	256.7	220.3	315.1	1151	4022	2976	50.61	5.312	3.020	2.572	1.823	1.538	1.296	1.410	1.063	0.925	0.915	0.897	0.770	0.897	0.805	0.985	0.898	1.327	1.606	2.452	3.307	4.325	5.210	4.901	4.660	5.111	4.674	3.921	3.306	3.047	2.865	2.691	2.920	3.021	3.267	3.529	3.582	3.903	4.144	4.372	4.697	4.585	5.089	4.968	5.024	5.043	5.060	5.000	4.526	4.110	3.945
350.0	757.4	1391	1842	1686	1332	986.8	797.3	783.1	841.1	951.4	1099	1220	1233	1186	1065	907.0	781.7	731.5	706.7	509.8	323.5	247.4	215.4	352.8	1241	3058	2782	228.7	15.69	3.486	2.186	1.729	1.422	1.337	1.108	0.985	1.004	0.919	0.813	0.796	0.816	0.925	0.895	1.245	1.606	2.289	2.941	3.994	4.855	4.816	4.749	5.253	4.790	4.359	3.674	3.492	3.243	3.005	3.134	3.210	3.279	3.541	3.716	3.918	3.918	4.292	4.481	4.457	4.814	4.894	4.741	4.880	4.800	5.021	4.405	4.334	4.090
355.0	681.1	1248	1728	1662	1405	1107	905.1	856.4	881.6	964.8	1089	1176	1194	1157	1067	928.1	819.6	714.8	654.3	678.6	486.8	317.2	246.6	215.7	364.8	771.8	2002	3321	371.5	15.76	3.253	2.052	1.812	1.490	1.166	1.171	0.977	1.022	0.769	0.787	0.854	0.846	0.914	1.174	1.656	1.947	2.703	3.705	4.428	4.387	4.562	5.115	4.952	4.582	4.036	3.694	3.802	3.400	3.395	3.503	3.309	3.571	3.959	4.148	4.186	4.279	4.207	4.339	4.565	4.701	4.668	5.270	4.694	4.805	4.644	4.483	4.290
360.0	636.3	1144	1610	1586	1431	1174	973.4	908.7	926.1	987.3	1077	1157	1171	1134	1059	937.8	838.9	734.0	644.9	653.6	642.4	412.1	288.2	219.7	200.2	252.5	571.0	2599	3090	297.7	8.358	2.674	2.036	1.586	1.452	1.191	0.985	0.972	0.798	0.706	0.954	0.840	0.961	1.065	1.456	1.980	2.309	3.456	3.983	4.135	4.418	5.208	4.972	4.987	4.244	4.048	3.794	3.767	3.480	3.536	3.609	3.736	3.859	4.100	4.059	4.129	4.160	4.625	4.353	4.722	4.710	4.922	4.580	4.504	4.487	4.600	4.209
365.0	610.5	1056	1484	1564	1458	1215	1029	947.0	949.5	1006	1082	1125	1140	1117	1046	947.4	854.3	766.8	670.5	617.4	663.7	562.9	349.9	256.1	192.5	162.6	199.3	786.7	3097	2631	49.66	5.412	2.676	2.345	1.473	1.209	1.114	0.875	0.948	0.849	0.840	0.853	0.964	1.133	1.421	1.735	2.275	2.972	3.847	3.961	4.120	4.967	4.654	5.061	4.270	4.062	3.984	3.912	3.727	3.614	3.801	3.774	4.145	4.162	4.272	4.349	4.361	4.478	4.444	4.521	4.455	4.625	4.621	4.509	4.664	4.757	4.483
370.0	578.4	971.2	1367	1498	1428	1252	1106	1013	980.1	1021	1075	1108	1111	1084	1025	943.3	871.2	793.7	709.8	641.2	615.7	624.9	508.7	334.6	241.0	184.2	149.9	248.2	919.8	2352	2488	209.0	14.87	3.054	2.013	1.622	1.182	1.075	0.944	0.912	0.886	0.930	0.941	1.087	1.308	1.634	2.061	2.890	3.463	3.663	4.029	4.815	4.760	5.119	4.579	4.357	4.209	4.003	4.081	3.942	3.866	3.945	4.009	3.944	4.184	4.356	4.332	4.181	4.283	4.096	4.302	4.343	4.428	4.444	4.545	4.594	4.469
375.0	521.5	887.0	1243	1416	1400	1274	1150	1057	1011	1031	1084	1093	1088	1057	994.0	933.4	867.5	806.9	745.9	679.4	624.9	584.6	602.6	484.6	315.9	237.9	180.7	161.8	277.9	591.4	1620	2910	332.4	15.72	3.275	2.181	1.433	1.252	1.036	1.035	0.830	0.868	0.940	1.070	1.299	1.675	1.933	2.727	3.238	3.284	3.877	4.832	4.767	4.906	4.950	4.564	4.585	4.162	3.882	3.869	4.085	4.158	3.844	3.911	4.079	4.015	4.158	4.391	4.433	4.511	4.288	4.189	4.267	4.516	4.259	4.259	4.654
380.0	477.9	820.5	1176	1365	1391	1291	1178	1078	1017	1036	1082	1082	1073	1036	964.9	914.8	855.6	813.0	752.3	698.8	642.7	590.4	577.4	584.2	414.1	288.3	220.0	169.1	155.7	197.2	455.9	2120	2584	257.9	8.392	3.211	2.239	1.392	1.045	1.004	0.830	0.906	0.972	0.976	1.222	1.637	1.857	2.572	3.118	3.226	3.710	4.665	4.767	4.825	4.819	4.605	4.764	4.377	4.113	3.929	4.379	4.056	3.937	4.104	4.106	4.034	4.247	4.283	4.377	4.185	4.050	3.980	4.098	4.669	4.311	4.571	4.183
385.0	453.7	771.4	1097	1315	1360	1286	1189	1103	1035	1046	1069	1059	1046	1008	945.7	895.2	844.3	800.8	762.3	707.0	662.8	609.4	560.8	577.8	522.0	349.5	260.4	201.6	156.0	129.9	161.3	624.8	2368	2105	41.11	6.577	3.407	2.019	1.203	1.219	0.947	0.885	1.009	1.065	1.171	1.543	1.822	2.680	2.900	2.945	3.484	4.284	4.693	4.783	4.563	4.486	4.741	4.510	4.151	4.100	4.014	3.680	4.107	4.134	4.088	4.080	4.156	4.164	4.084	4.180	4.165	4.158	4.071	4.344	4.368	4.003	4.337
390.0	452.2	727.9	1032	1248	1326	1274	1204	1102	1043	1051	1072	1058	1038	993.9	936.6	876.5	833.4	788.2	759.3	716.3	679.5	636.1	591.7	564.4	561.7	491.9	355.1	270.4	215.9	171.5	141.9	215.8	700.7	1764	1859	533.2	16.61	4.864	2.243	1.511	1.109	1.036	1.052	1.024	1.103	1.483	1.741	2.439	2.711	3.000	3.314	4.297	4.511	4.798	4.452	4.574	4.709	4.750	4.503	4.197	4.073	4.026	4.066	4.124	3.903	4.051	3.920	3.881	3.949	3.966	3.997	4.071	3.982	4.040	4.111	4.012	4.281
395.0	424.5	693.4	992.6	1169	1264	1256	1214	1139	1086	1092	1130	1121	1103	1044	964.7	887.7	836.2	787.3	761.0	736.0	710.2	687.8	655.4	633.0	604.8	609.5	508.8	415.0	342.5	287.6	235.3	206.8	274.9	494.3	1200	2365	281.9	20.98	5.075	2.318	1.523	1.091	1.088	1.062	1.194	1.439	1.654	2.229	2.665	3.022	3.257	4.017	4.393	4.378	4.488	4.418	4.494	4.631	4.638	4.417	4.162	3.909	4.268	4.230	4.222	4.099	3.836	3.974	4.100	3.967	4.013	3.969	3.977	4.093	4.240	4.172	4.407
400.0	414.4	654.9	958.3	1147	1248	1241	1220	1156	1135	1174	1230	1254	1212	1140	1039	933.7	851.6	799.7	775.4	766.2	758.1	750.5	738.0	721.0	703.2	698.3	709.7	610.2	480.2	433.4	369.9	302.5	261.0	264.1	418.6	1686	1991	228.7	12.83	3.774	2.115	1.328	1.221	1.111	1.186	1.548	1.663	2.212	2.516	3.058	3.164	3.892	4.512	4.331	4.547	4.453	4.748	4.683	4.628	4.563	4.124	4.324	4.086	4.442	4.330	4.173	4.239	4.230	4.187	4.181	3.956	3.932	4.198	4.027	4.017	4.342	3.956
405.0	391.5	656.0	890.8	1097	1213	1222	1216	1179	1191	1261	1355	1388	1340	1265	1133	992.3	887.4	816.9	790.3	798.0	801.0	813.3	824.7	833.7	826.3	821.3	845.6	828.2	691.6	604.2	532.3	427.3	352.6	285.1	273.1	594.2	1818	1600	38.51	6.273	2.491	1.556	1.312	1.321	1.375	1.534	1.594	2.166	2.653	2.825	3.117	4.022	4.559	4.453	4.500	4.775	4.870	4.807	4.649	4.680	4.371	4.413	4.432	4.315	4.448	4.396	4.574	4.522	4.267	4.434	4.137	4.203	4.228	3.949	4.166	4.349	4.084
410.0	384.8	601.5	862.1	1049	1178	1215	1216	1204	1239	1331	1439	1496	1457	1351	1203	1034	899.5	813.8	789.2	800.2	825.1	853.4	887.8	919.3	934.1	938.7	941.7	950.8	900.4	780.4	683.7	573.7	455.7	358.3	295.6	311.3	606.0	1332	1415	403.7	11.86	2.206	1.709	1.482	1.491	1.542	1.770	2.152	2.543	2.668	3.106	3.747	4.200	4.567	4.406	4.642	4.900	4.919	4.631	4.659	4.484	4.693	4.568	4.529	4.487	4.517	4.549	4.392	4.309	4.423	4.495	4.333	4.323	4.068	3.882	4.167	3.841
415.0	355.6	574.1	806.0	989.4	1114	1168	1185	1188	1239	1322	1417	1466	1416	1312	1167	996.6	855.0	774.7	751.4	765.0	792.1	832.4	870.3	906.1	932.0	946.7	941.3	924.7	921.9	858.2	722.4	603.5	479.7	374.5	304.2	249.8	252.3	367.5	863.4	1673	245.4	10.99	2.465	1.599	1.576	1.675	1.757	2.214	2.421	2.665	3.076	3.573	3.963	4.429	4.481	4.434	4.850	4.767	4.694	4.628	4.828	4.515	4.226	4.499	4.746	4.364	4.421	4.212	4.246	4.379	4.352	4.202	4.159	3.850	3.679	3.847	3.825
