Sample:	'1
File name:	L2025090910Ê¤ÀûÂ·ÇÅ.FD3
Run date:	'16:33:20, 09/09/2025
Operator:	Administrator
Comment:	'

Instrument
Model:	F-2700 FL Spectrophotometer
Serial number:	3064-004
ROM Version:	4J14000 07

Instrument parameters
Measurement type:	3-D scan
Data mode:	Fluorescence
EX  Start WL:	220.0 nm
EX  End WL:	600.0 nm
EX Sampling interval:	5.0 nm
EM  Start WL:	230.0 nm
EM  End WL:	650.0 nm
EM Sampling interval:	5.0 nm
Scan speed:	12000 nm/min
EX Slit:	5.0 nm
EM Slit:	5.0 nm
PMT Voltage:	700 V
Response:	Auto 
Corrected spectra:	Off
Contour interval:	50.000

Peak integration
Integration method:	Rectangular
Sensitivity:	1
Threshold:	1.000

Peaks
No.	ApexEX/EM(nm)	Height(Data)
1	225.0/585.0	44.92
2	225.0/620.0	32.01
3	225.0/635.0	30.40
4	230.0/575.0	44.90
5	230.0/615.0	31.13
6	230.0/625.0	30.14
7	235.0/350.0	752.9
8	235.0/510.0	218.2
9	235.0/605.0	33.50
10	240.0/520.0	226.5
11	240.0/595.0	32.21
12	245.0/265.0	345.6
13	245.0/530.0	210.5
14	245.0/630.0	24.14
15	250.0/545.0	198.9
16	255.0/280.0	653.2
17	255.0/555.0	185.5
18	260.0/285.0	840.8
19	260.0/570.0	160.5
20	265.0/290.0	879.3
21	265.0/580.0	153.9
22	270.0/295.0	 1201
23	270.0/385.0	 1011
24	270.0/590.0	138.3
25	275.0/305.0	 1486
26	275.0/375.0	 1023
27	275.0/605.0	140.1
28	280.0/310.0	 1433
29	280.0/345.0	 1067
30	280.0/360.0	 1042
31	280.0/615.0	115.4
32	285.0/315.0	 1414
33	285.0/335.0	 1066
34	285.0/630.0	93.34
35	290.0/320.0	 1334
36	290.0/645.0	75.74
37	295.0/330.0	 1059
38	300.0/335.0	911.7
39	305.0/340.0	905.0
40	310.0/345.0	773.5
41	315.0/355.0	675.7
42	320.0/360.0	746.4
43	325.0/365.0	723.7
44	335.0/380.0	685.3
45	340.0/385.0	662.0
46	350.0/400.0	574.5
47	355.0/405.0	556.0
48	365.0/420.0	458.7
49	370.0/425.0	431.2
50	380.0/285.0	9.718
51	410.0/475.0	132.7
52	415.0/485.0	113.4
53	430.0/505.0	69.94
54	440.0/515.0	48.46
55	445.0/525.0	42.02
56	450.0/530.0	34.80
57	460.0/340.0	3.912
58	460.0/545.0	23.13
59	505.0/275.0	3.398
60	510.0/280.0	3.842
61	520.0/285.0	4.064
62	520.0/350.0	4.856
63	530.0/290.0	4.263
64	545.0/300.0	6.921
65	550.0/305.0	7.573
66	560.0/310.0	6.890
67	570.0/315.0	7.557
68	575.0/320.0	7.241
69	580.0/325.0	6.886
70	590.0/330.0	5.914

Data points
	220.0	225.0	230.0	235.0	240.0	245.0	250.0	255.0	260.0	265.0	270.0	275.0	280.0	285.0	290.0	295.0	300.0	305.0	310.0	315.0	320.0	325.0	330.0	335.0	340.0	345.0	350.0	355.0	360.0	365.0	370.0	375.0	380.0	385.0	390.0	395.0	400.0	405.0	410.0	415.0	420.0	425.0	430.0	435.0	440.0	445.0	450.0	455.0	460.0	465.0	470.0	475.0	480.0	485.0	490.0	495.0	500.0	505.0	510.0	515.0	520.0	525.0	530.0	535.0	540.0	545.0	550.0	555.0	560.0	565.0	570.0	575.0	580.0	585.0	590.0	595.0	600.0
230.0	33.94	901.0	 5242	 2235	219.9	14.81	10.39	8.304	9.528	7.679	5.970	6.392	5.200	5.573	4.032	3.644	3.017	2.863	2.508	2.153	2.245	2.073	1.671	1.812	1.830	1.549	1.557	1.364	1.359	1.277	1.254	1.321	1.059	1.046	0.796	1.072	1.080	0.958	0.864	0.931	0.910	1.011	1.024	0.948	0.689	0.716	1.969	6.529	9.637	6.982	2.827	0.799	0.544	0.605	0.466	0.426	0.564	0.473	0.567	0.472	0.464	0.542	0.487	0.446	0.450	0.488	0.440	0.473	0.435	0.455	0.369	0.445	0.479	0.423	0.444	0.401	0.430
235.0	75.17	236.4	 2372	 5521	 3725	268.4	10.56	8.464	8.641	6.891	8.545	8.754	4.672	6.309	4.383	3.250	2.883	2.632	2.496	1.947	2.927	2.069	1.511	1.980	1.728	1.811	1.741	1.120	1.645	1.486	1.171	1.019	1.184	1.079	0.960	1.048	0.985	0.731	0.982	0.822	0.683	0.892	0.987	0.940	0.975	0.874	0.924	2.050	4.107	7.134	9.594	8.873	4.305	1.035	0.513	0.453	0.608	0.627	0.681	0.413	0.512	0.516	0.561	0.455	0.401	0.382	0.414	0.593	0.339	0.331	0.486	0.621	0.516	0.425	0.376	0.401	0.388
240.0	72.08	123.1	610.7	 3554	 7397	 2316	98.71	12.00	12.03	10.64	8.893	7.942	5.909	6.030	4.420	4.438	3.056	3.405	3.131	2.545	2.765	2.504	1.808	1.741	1.477	1.975	1.420	1.241	1.541	1.256	1.073	0.986	0.917	1.024	1.018	0.780	0.973	0.875	1.017	0.832	0.687	0.892	0.756	0.830	0.894	1.210	0.880	0.992	1.486	2.597	5.845	12.70	14.37	8.949	3.015	0.635	0.506	0.574	0.514	0.597	0.531	0.496	0.629	0.568	0.460	0.620	0.424	0.451	0.442	0.389	0.437	0.441	0.505	0.381	0.387	0.484	0.435
245.0	48.97	119.7	211.8	992.6	 5179	 5657	800.4	37.85	11.92	11.15	10.25	10.08	6.521	5.969	4.716	5.193	2.931	2.944	2.967	2.628	2.261	2.782	1.957	1.760	1.559	1.681	1.144	1.300	1.270	1.466	1.312	1.214	0.719	1.212	0.977	1.036	0.845	0.929	0.916	0.620	0.871	0.788	0.593	0.822	0.867	1.009	1.296	1.064	0.908	1.169	1.816	5.013	11.46	17.40	14.86	7.593	2.002	0.502	0.420	0.534	0.525	0.643	0.617	0.612	0.391	0.615	0.501	0.460	0.399	0.546	0.631	0.630	0.478	0.541	0.425	0.699	0.483
250.0	29.35	77.52	178.2	333.3	 1386	 3718	 5354	 2601	206.4	14.16	11.60	10.20	7.050	7.040	5.312	5.166	3.465	3.294	3.095	2.367	2.589	2.261	1.962	1.684	1.594	1.554	1.362	1.429	1.169	1.313	1.086	1.208	1.095	1.147	0.977	0.788	0.934	0.949	0.881	0.707	0.920	0.765	0.720	0.827	0.694	0.949	1.048	1.257	1.348	1.153	1.011	1.654	3.325	5.990	10.44	15.73	17.79	14.41	7.586	2.030	0.703	0.647	0.627	0.391	0.595	0.484	0.418	0.593	0.519	0.502	0.542	0.555	0.397	0.465	0.537	0.703	0.536
255.0	25.39	42.24	102.1	276.9	448.2	888.4	 2382	 7372	 3892	256.1	14.18	13.89	8.149	8.440	6.753	5.170	4.270	3.864	2.844	2.864	2.644	2.266	1.687	1.707	1.762	1.914	1.432	1.406	1.344	1.603	1.064	1.332	1.089	1.125	1.144	0.989	0.825	0.855	0.809	0.776	0.870	0.730	0.776	0.817	0.939	0.915	0.717	0.776	0.793	1.169	1.562	1.710	1.499	1.858	3.061	4.220	8.094	18.87	30.24	25.86	10.26	2.091	0.572	0.467	0.594	0.543	0.516	0.583	0.412	0.597	0.701	0.556	0.412	0.402	0.548	0.616	0.466
260.0	29.91	28.79	52.79	180.2	373.0	289.7	599.3	 3939	 8821	 3245	126.3	16.61	10.63	9.522	7.319	6.331	4.032	3.979	2.872	3.165	2.755	2.425	2.212	2.053	1.522	1.877	1.931	1.551	1.393	1.438	1.154	1.086	1.231	1.174	1.002	0.906	0.839	0.851	0.802	1.041	0.907	0.888	0.793	0.839	0.932	0.764	0.599	0.681	0.817	0.783	1.062	1.898	1.899	1.452	1.248	1.476	2.440	5.987	15.76	30.79	38.37	24.80	7.297	1.032	0.510	0.612	0.569	0.677	0.449	0.490	0.447	0.764	0.384	0.327	0.429	0.401	0.540
265.0	42.37	32.05	41.83	75.83	298.0	345.6	191.1	 1059	 5535	 9961	 2453	54.38	15.90	10.91	7.488	5.630	5.831	4.334	3.388	3.180	3.314	3.174	2.350	2.243	1.734	1.656	1.857	1.484	1.818	1.716	1.523	1.274	1.233	0.904	0.934	1.024	1.100	0.925	0.787	0.890	0.758	0.794	0.884	0.975	0.896	0.830	0.826	0.740	0.642	0.797	0.769	1.231	1.773	2.407	1.632	1.053	1.013	1.820	4.226	10.48	25.82	42.18	42.60	19.52	3.309	0.564	0.730	0.655	0.404	0.420	0.545	0.584	0.468	0.512	0.408	0.422	0.489
270.0	56.44	36.07	44.33	42.91	113.8	324.3	386.3	333.1	 1451	 5310	 9977	 5543	163.5	15.52	11.54	7.137	6.635	4.799	4.155	3.398	3.390	2.976	2.542	2.358	2.050	1.851	1.883	1.595	1.515	1.532	1.629	1.292	1.546	1.242	1.034	0.927	1.237	1.126	0.870	0.832	0.821	0.821	0.965	0.942	0.947	0.892	0.773	0.843	0.822	0.702	0.659	0.847	0.888	1.383	2.121	2.351	2.068	1.492	1.502	2.942	6.826	14.19	26.26	38.18	44.29	31.17	16.00	3.373	0.728	0.473	0.589	0.491	0.436	0.527	0.473	0.534	0.484
275.0	76.52	72.02	67.62	49.97	59.88	113.0	408.3	554.2	418.9	 1267	 3866	9999.9	 8583	198.5	17.01	10.11	7.910	5.885	4.269	4.336	3.969	3.158	3.127	2.586	1.765	2.088	2.025	1.476	1.845	1.616	1.328	1.534	5.739	1.120	1.235	1.042	1.143	1.108	1.052	1.068	1.025	0.953	0.994	1.076	1.012	0.926	0.793	0.905	0.773	0.700	0.520	0.664	0.780	0.895	1.032	1.232	2.668	3.398	2.386	1.455	2.106	3.748	6.830	9.675	18.09	41.12	66.91	47.07	21.58	2.295	0.779	0.467	0.594	0.403	0.436	0.498	0.465
280.0	100.0	108.5	97.55	66.03	46.58	57.85	190.8	653.2	486.7	382.5	 1012	 5110	9999.9	 2499	108.8	13.30	9.145	7.500	5.573	4.847	4.010	3.580	3.338	2.502	2.505	2.172	2.115	2.155	1.893	1.479	1.431	1.613	8.636	1.432	1.138	0.939	1.238	1.223	1.188	0.988	1.124	0.993	1.088	1.016	1.212	1.175	1.126	1.109	0.723	0.795	0.713	0.619	0.752	0.698	0.734	0.725	1.551	2.768	3.842	3.191	1.856	1.523	2.392	2.881	5.204	11.91	30.71	61.46	80.33	41.36	10.18	1.052	0.545	0.481	0.582	0.535	0.421
285.0	110.1	131.8	126.2	98.16	53.05	52.75	98.18	379.8	840.8	386.6	382.7	 1406	 6844	9999.9	 1824	48.14	11.73	8.861	6.598	5.717	4.563	3.163	3.666	2.675	2.459	2.273	2.205	2.138	1.719	1.803	1.479	1.493	9.718	1.216	1.175	1.173	1.248	1.194	1.283	1.179	1.172	1.160	0.933	1.178	1.206	1.256	1.140	1.254	1.069	1.002	0.915	0.646	0.819	0.667	0.845	0.825	1.061	1.466	2.355	3.949	4.064	2.578	1.592	1.452	1.946	3.918	8.124	18.66	46.11	78.71	54.77	30.16	4.563	0.676	0.488	0.529	0.561
290.0	162.2	194.0	192.3	145.4	91.60	75.89	90.22	190.9	538.8	879.3	449.3	588.4	 1893	 6094	9999.9	 6110	100.6	12.18	8.708	6.917	5.148	4.221	3.390	3.499	2.492	2.356	2.344	2.146	1.856	1.998	1.682	1.775	5.335	1.279	1.347	1.268	1.166	1.328	1.620	1.356	1.258	1.392	1.382	1.513	1.239	1.515	1.500	1.563	1.252	1.212	0.980	0.966	0.910	0.799	0.886	0.905	1.097	1.041	1.570	1.987	3.053	4.053	4.263	3.077	2.226	2.201	3.266	5.672	12.04	23.74	36.80	59.22	228.0	51.24	20.29	3.999	0.595
295.0	197.9	243.2	253.5	190.9	143.9	115.2	127.6	174.1	300.6	627.8	 1201	689.3	762.3	 1613	 3439	9999.9	 8800	125.6	12.99	7.989	6.549	5.063	3.882	3.861	2.939	3.067	2.646	2.372	2.166	2.176	1.822	1.670	2.570	1.407	1.290	1.573	1.216	1.702	1.466	1.612	1.521	1.317	1.667	1.461	1.450	1.665	1.558	1.530	1.389	1.411	1.027	1.145	1.113	0.941	0.892	1.016	1.215	0.942	1.540	1.500	1.902	2.056	3.240	5.652	5.713	3.458	2.778	3.145	4.415	6.923	9.481	14.30	180.7	48.47	87.33	55.36	27.65
300.0	214.5	260.7	297.2	229.5	166.0	146.4	161.3	211.1	275.9	431.9	 1067	 1310	644.6	680.4	986.3	 4185	9999.9	 6152	83.68	12.08	7.318	6.532	4.488	3.709	3.123	3.056	2.454	2.003	2.567	2.238	1.945	1.408	1.821	1.569	1.121	1.492	1.664	1.625	1.781	1.648	1.515	1.399	1.693	1.373	1.619	1.869	1.917	1.724	1.492	1.411	1.160	1.220	1.301	1.185	0.961	1.299	1.284	1.270	1.406	1.561	1.884	1.931	2.266	3.510	6.050	6.921	5.209	3.133	3.348	3.362	3.981	4.617	42.31	12.88	34.03	71.07	100.4
305.0	224.2	277.7	317.9	286.5	202.2	179.9	201.3	247.3	311.8	420.2	757.7	 1486	 1076	568.1	492.3	 1140	 5647	9999.9	 1191	44.77	10.60	7.226	5.293	4.439	3.673	3.214	2.407	2.742	2.188	2.214	1.901	2.033	1.773	1.451	1.701	1.322	1.976	1.520	1.729	1.718	1.483	1.641	1.658	1.597	1.769	1.761	2.198	1.937	1.618	1.663	1.398	1.459	1.292	1.417	1.241	1.548	1.458	1.460	1.623	1.700	1.918	2.012	2.296	2.826	3.957	5.618	7.573	5.894	4.282	2.853	3.111	2.699	10.98	4.252	8.730	20.06	49.25
310.0	222.5	298.8	341.1	299.8	228.1	213.1	240.9	293.4	364.8	472.2	662.7	 1014	 1433	 1015	498.1	473.6	 1467	 5131	 9246	 4802	73.79	11.04	7.070	5.359	4.459	3.491	3.036	2.751	2.293	2.447	1.964	2.108	1.691	1.810	1.548	1.424	1.692	1.677	1.619	2.004	1.655	1.578	1.744	1.692	1.983	1.754	1.985	1.851	1.892	1.727	1.406	1.583	1.560	1.588	1.340	1.404	1.725	1.658	1.665	1.984	2.062	2.237	2.405	2.771	3.142	4.002	5.182	5.605	6.890	5.910	3.983	2.861	4.157	2.588	3.371	5.740	12.36
315.0	249.7	316.1	380.0	343.2	258.5	230.1	279.8	332.2	412.7	531.7	678.6	875.9	 1057	 1414	887.8	416.8	525.5	 1277	 2851	9999.9	 6977	98.14	10.84	7.406	5.133	4.002	3.207	3.375	2.690	2.572	2.220	2.037	1.907	2.076	1.507	1.507	1.629	1.589	1.616	1.921	1.750	1.551	1.743	1.572	1.627	1.943	1.973	1.760	2.110	1.579	1.346	1.729	1.660	1.609	1.479	1.429	1.809	1.837	1.884	2.388	2.165	2.503	2.588	3.098	3.379	3.502	4.205	4.327	4.770	6.161	7.557	5.031	3.557	2.465	2.454	2.966	4.301
320.0	296.8	365.7	479.3	400.4	302.9	253.9	306.2	357.9	459.5	587.6	721.0	863.6	957.6	 1156	 1334	592.3	370.8	453.0	753.1	 3770	9999.9	 5129	63.80	9.949	6.285	5.334	3.572	3.592	2.867	2.943	2.208	2.030	1.851	1.858	1.765	1.146	1.806	1.787	1.964	1.819	1.735	1.761	1.726	1.697	1.878	2.129	2.268	2.402	2.418	1.733	1.600	1.615	1.651	1.655	1.815	1.764	1.823	2.110	1.887	2.422	2.472	2.597	2.961	3.153	3.619	3.552	3.810	3.855	4.414	4.936	6.112	7.241	6.489	4.112	2.490	2.570	2.565
325.0	345.3	444.4	587.8	532.0	368.4	288.3	335.4	387.9	484.5	626.5	785.7	924.3	992.5	 1023	 1266	 1011	427.5	305.8	303.9	963.7	 5325	9999.9	901.2	36.75	8.299	6.113	4.541	3.603	3.296	3.084	2.735	1.825	1.869	1.911	1.792	1.337	1.879	1.879	1.696	1.910	1.694	1.684	2.107	1.796	1.967	1.889	2.684	2.908	2.679	2.388	2.146	1.902	1.771	1.313	1.679	1.783	1.945	1.988	1.837	2.332	2.418	2.536	2.978	3.453	3.567	3.759	4.255	4.095	4.606	4.769	5.076	5.499	6.886	6.470	4.725	2.989	2.517
330.0	370.2	477.9	676.0	642.5	453.4	335.0	353.6	419.5	520.0	651.0	818.1	948.0	 1035	 1027	994.2	 1059	810.5	383.0	249.0	342.0	 1327	 4702	 9119	 3712	57.36	9.238	5.747	4.315	3.786	3.401	2.866	2.292	1.946	1.863	1.816	1.483	1.761	1.854	1.790	2.020	1.524	1.712	2.009	1.885	1.950	2.446	2.588	2.938	3.143	2.868	2.562	2.352	1.984	1.761	1.917	1.726	1.991	1.981	2.329	2.500	2.493	2.669	3.067	3.690	3.554	3.767	4.283	4.395	4.689	4.650	4.536	4.867	5.023	5.140	5.914	5.557	4.273
335.0	350.9	521.8	719.8	709.1	518.0	410.0	395.3	450.6	557.8	685.8	848.5	985.0	 1050	 1066	940.0	829.2	911.7	738.2	322.2	254.5	422.2	 1143	 2831	 9729	 5573	78.83	9.287	6.432	4.401	3.897	2.973	2.877	2.351	2.036	1.921	1.917	1.973	1.859	1.802	1.940	1.696	1.705	1.895	2.322	1.843	2.399	2.980	3.098	3.301	2.899	2.749	2.405	2.446	2.172	1.747	1.998	2.166	2.287	2.343	2.384	2.710	2.749	2.969	3.629	3.774	3.792	4.564	4.204	4.538	4.750	4.711	4.752	4.443	4.785	4.437	4.455	5.837
340.0	341.6	504.5	727.5	746.8	557.7	465.7	467.4	486.2	573.8	697.3	859.5	995.5	 1062	 1056	948.4	801.4	741.6	905.0	512.4	270.9	249.8	370.4	725.0	 3815	9999.9	 4223	54.50	8.479	6.047	4.053	4.450	3.202	2.706	2.077	2.104	1.951	2.052	1.818	1.875	1.684	1.887	1.857	2.110	2.212	1.832	2.740	2.658	3.400	3.912	3.304	2.796	2.751	2.810	2.176	2.265	2.211	2.196	2.273	2.435	2.736	3.090	2.955	3.040	3.830	3.980	4.339	4.409	4.194	4.484	4.645	4.703	5.010	4.671	4.295	4.451	3.873	4.408
345.0	301.6	490.7	740.1	749.5	598.0	507.7	503.3	502.9	594.1	717.5	863.2	972.9	 1067	 1048	949.3	802.4	667.5	757.2	773.5	375.9	248.1	231.0	268.4	962.1	 5298	9999.9	743.8	32.01	7.489	5.176	4.732	3.391	2.885	2.532	2.139	1.843	2.063	1.978	2.022	1.844	1.770	1.919	2.113	1.855	2.128	2.148	2.796	3.264	3.605	3.260	2.886	2.834	2.965	2.455	2.135	2.118	2.324	2.420	2.365	2.804	3.976	3.068	3.723	3.670	4.236	3.983	4.348	4.225	4.743	5.026	4.486	4.431	4.463	4.037	4.074	3.850	3.631
350.0	307.0	455.4	666.1	752.9	668.8	582.2	569.4	585.1	660.8	746.9	875.0	955.1	 1028	 1034	957.4	832.4	688.9	632.3	710.1	662.0	370.1	254.6	215.2	331.4	 1322	 4824	 8259	 3132	50.53	8.162	5.550	3.919	3.152	2.845	2.204	1.741	2.052	1.932	1.890	1.966	1.830	1.851	1.855	1.898	2.123	2.338	2.571	3.071	3.347	3.042	2.564	3.012	2.900	2.680	2.294	2.449	2.677	2.591	2.968	3.011	4.856	3.313	3.661	3.726	3.608	4.258	4.135	4.539	4.497	4.694	4.915	4.251	4.328	4.290	4.002	4.269	3.968
355.0	303.0	422.1	644.8	738.9	699.7	693.0	675.2	666.7	745.0	808.5	898.1	966.1	 1040	 1018	967.5	855.1	731.4	639.9	592.7	675.7	668.5	365.0	257.9	240.9	416.3	 1162	 2784	 9064	 4722	68.78	7.146	5.252	3.708	3.073	2.723	1.849	2.128	2.163	1.856	2.011	1.654	1.794	1.875	1.950	1.873	2.507	2.704	2.998	3.155	2.993	2.579	3.137	3.334	2.839	3.010	2.603	2.811	2.821	3.073	3.616	4.380	3.434	4.251	3.842	3.871	4.256	4.549	4.403	4.777	4.855	4.717	4.340	4.721	4.277	4.563	4.470	3.877
360.0	287.5	420.7	627.2	736.6	721.1	738.9	736.9	738.4	787.9	869.2	931.2	990.2	 1042	 1028	973.0	892.3	756.9	668.7	600.8	592.1	746.4	557.4	317.6	253.5	243.6	371.1	710.5	 3869	9999.9	 3575	45.05	7.218	3.972	3.382	3.026	2.519	2.024	2.259	1.986	1.903	1.725	1.989	2.002	1.861	2.184	2.648	2.386	2.782	3.022	3.060	2.707	3.161	3.186	2.894	3.092	3.005	3.499	3.340	3.278	3.513	3.773	3.928	4.031	4.420	4.004	4.418	4.631	4.269	4.491	4.557	4.741	4.560	4.791	4.879	4.512	4.515	4.532
365.0	262.6	409.9	612.5	717.9	768.1	770.8	805.8	801.8	832.7	895.5	949.0	 1018	 1021	 1026	992.6	895.5	791.8	703.5	626.7	580.6	659.1	723.7	440.4	291.9	243.6	221.5	258.2	976.1	 5518	9999.9	661.6	24.94	5.528	3.978	3.090	2.600	2.267	2.281	1.785	2.062	1.982	2.097	2.423	1.991	2.045	2.363	2.306	2.938	2.710	2.769	2.403	3.089	3.032	3.081	3.160	3.206	3.494	3.435	3.728	3.919	3.836	4.189	4.061	4.120	4.173	4.112	4.666	4.165	4.363	4.988	4.618	4.389	4.865	4.633	4.500	4.795	4.282
370.0	259.4	383.1	557.5	699.9	762.2	792.5	833.5	845.6	875.3	932.4	984.3	 1016	 1016	 1022	986.1	904.5	817.6	740.5	677.8	619.8	601.5	662.6	652.0	426.2	295.5	232.2	194.0	314.5	 1375	 4949	 7662	 2747	41.78	6.388	4.303	2.957	2.681	2.353	1.997	1.809	2.055	2.047	1.961	2.163	2.245	2.202	2.245	2.720	2.569	2.843	2.724	3.157	3.382	3.477	3.438	3.161	3.875	3.785	3.725	4.051	4.071	3.887	4.190	4.274	4.359	4.267	4.184	4.183	4.695	4.871	4.669	4.725	4.815	4.673	4.340	4.658	4.339
375.0	279.8	369.9	566.0	668.0	771.8	837.6	864.6	879.2	898.2	965.2	997.3	 1023	 1014	 1004	972.7	891.1	830.4	783.3	716.9	668.3	621.3	598.5	647.1	651.2	397.0	286.8	223.8	205.1	394.8	 1171	 2827	 8662	 3892	53.07	6.457	4.274	3.285	2.775	2.476	2.270	1.951	2.150	1.706	1.764	2.039	2.015	2.501	2.466	2.752	2.481	2.597	3.060	3.290	3.591	3.708	3.645	3.737	3.604	3.939	4.297	3.873	4.101	4.252	4.280	4.758	4.072	4.348	4.299	5.151	4.555	4.971	4.934	5.095	5.273	4.347	4.800	5.052
380.0	240.5	343.5	547.1	665.2	743.4	830.4	881.5	883.1	935.0	973.9	998.2	 1010	 1007	998.4	966.9	894.6	830.5	777.9	737.0	695.9	651.0	602.7	589.5	685.3	555.3	345.0	262.0	207.4	206.5	341.5	705.3	 3998	 9058	 2709	32.57	5.801	3.773	3.644	2.665	2.279	1.982	2.267	1.947	1.876	2.085	2.324	2.580	2.633	2.416	2.498	2.332	3.451	3.485	3.456	3.478	3.563	3.662	3.683	4.191	4.086	3.952	4.080	4.317	4.158	4.686	3.886	4.514	4.700	4.580	4.618	5.129	4.589	5.060	4.865	4.606	4.455	5.333
385.0	229.7	348.0	517.8	675.9	770.7	841.7	887.2	890.0	912.4	953.9	 1011	 1008	 1003	965.8	948.6	877.6	814.6	787.5	748.1	716.0	668.5	619.3	581.4	608.8	662.0	444.3	305.5	238.8	186.6	178.2	228.3	 1004	 5265	 8162	508.0	15.71	5.121	3.473	2.872	2.428	2.433	2.355	1.989	1.959	2.052	2.258	2.210	2.911	2.359	2.540	2.522	3.214	3.179	3.756	3.438	3.667	3.787	3.574	4.016	3.902	3.901	3.824	4.684	4.008	4.374	3.898	4.288	4.724	4.690	4.504	4.434	4.655	4.813	4.548	4.545	4.411	4.554
390.0	234.9	347.6	509.2	659.6	750.4	837.1	899.9	903.8	920.1	939.0	976.9	981.9	960.4	934.6	911.9	862.7	814.5	782.5	755.1	721.2	680.9	643.4	598.4	573.6	602.6	589.5	415.3	283.1	216.4	175.0	149.7	293.1	 1325	 4373	 5126	 2047	32.01	5.183	3.524	2.960	2.352	2.363	1.935	1.999	2.150	2.421	2.367	2.367	2.234	2.298	2.423	3.204	3.393	3.519	3.429	3.568	3.936	3.845	3.901	3.784	3.667	3.703	4.058	4.249	4.271	4.029	4.198	4.681	4.256	4.193	4.335	4.562	4.743	4.474	4.613	4.610	4.745
395.0	246.7	332.5	454.8	632.1	713.1	810.5	890.9	881.4	912.9	924.3	957.1	943.7	942.8	923.7	873.1	829.5	809.2	770.0	735.7	719.0	687.4	651.0	612.8	582.1	544.8	566.7	564.6	370.1	263.2	210.8	161.5	156.6	357.5	 1022	 2185	 6795	 2961	42.07	5.636	3.586	3.596	2.431	2.661	2.277	2.196	2.445	2.233	2.206	2.504	2.308	2.657	3.025	3.116	3.332	3.609	3.482	4.035	3.709	3.885	3.456	3.986	4.124	3.717	4.003	4.522	4.068	3.835	4.340	4.604	4.039	4.259	4.281	4.090	4.599	4.573	4.625	4.802
400.0	255.0	329.3	448.3	604.0	708.1	800.9	887.3	855.0	895.9	912.1	923.8	932.1	939.4	894.0	854.5	804.6	789.9	758.0	737.9	722.5	695.8	655.7	624.5	590.2	540.8	528.0	574.5	481.5	309.0	239.5	184.6	145.9	154.8	280.9	546.2	 3340	 6931	 2014	25.67	4.659	4.209	2.985	2.589	2.113	2.221	2.601	2.290	2.372	2.494	2.224	2.532	2.743	3.159	3.215	3.377	3.067	3.845	3.785	3.923	3.950	3.882	3.858	3.969	4.153	4.485	3.950	4.067	3.986	4.372	4.011	4.024	3.798	3.986	4.315	4.298	4.199	4.749
405.0	254.7	326.3	442.9	552.9	693.2	765.5	866.0	862.7	883.2	894.3	901.6	897.4	895.4	865.5	845.2	790.2	758.3	732.5	726.7	711.1	680.5	653.7	626.9	588.0	551.8	511.7	517.0	556.0	395.1	270.2	209.3	161.3	125.6	126.3	166.7	844.9	 4267	 6200	423.2	11.35	4.593	3.312	2.826	2.459	2.176	2.372	2.507	2.422	2.259	2.233	2.229	2.848	3.174	2.726	2.808	3.384	3.950	4.121	4.203	3.948	3.595	3.802	3.775	3.779	3.816	3.600	4.155	3.939	3.933	4.043	3.781	3.618	4.361	4.249	4.182	4.206	4.910
