Sample:	'1
File name:	W110413»ãÊ¢Ñ­»·Ë®.FD3
Run date:	'14:01:45, 11/05/2024
Operator:	horiz
Comment:	'

Instrument
Model:	F-2700 FL Spectrophotometer
Serial number:	23B8-004
ROM Version:	4J14000 07

Instrument parameters
Measurement type:	3-D scan
Data mode:	Fluorescence
EX  Start WL:	220.0 nm
EX  End WL:	600.0 nm
EX Sampling interval:	5.0 nm
EM  Start WL:	230.0 nm
EM  End WL:	650.0 nm
EM Sampling interval:	5.0 nm
Scan speed:	12000 nm/min
EX Slit:	5.0 nm
EM Slit:	5.0 nm
PMT Voltage:	700 V
Response:	Auto 
Corrected spectra:	Off
Contour interval:	50.000

Peak integration
Integration method:	Rectangular
Sensitivity:	1
Threshold:	1.000

Peaks
No.	ApexEX/EM(nm)	Height(Data)
1	225.0/310.0	636.8
2	225.0/565.0	57.02
3	225.0/575.0	55.22
4	225.0/595.0	60.88
5	225.0/610.0	58.68
6	225.0/630.0	48.74
7	230.0/355.0	960.7
8	230.0/500.0	332.6
9	235.0/370.0	980.4
10	235.0/380.0	977.1
11	240.0/265.0	347.9
12	240.0/405.0	941.4
13	240.0/525.0	250.0
14	245.0/270.0	341.6
15	245.0/535.0	211.9
16	250.0/275.0	446.5
17	250.0/550.0	162.5
18	255.0/285.0	498.4
19	255.0/560.0	142.9
20	260.0/290.0	564.1
21	260.0/575.0	116.3
22	265.0/585.0	116.2
23	270.0/300.0	1334
24	270.0/600.0	118.6
25	275.0/305.0	1430
26	275.0/610.0	104.0
27	280.0/625.0	81.72
28	285.0/635.0	50.64
29	300.0/335.0	496.9
30	305.0/345.0	458.1
31	310.0/350.0	404.7
32	315.0/355.0	418.3
33	320.0/365.0	443.5
34	325.0/370.0	439.4
35	330.0/375.0	434.8
36	335.0/380.0	433.2
37	445.0/525.0	21.03
38	495.0/270.0	1.913
39	505.0/275.0	2.607
40	510.0/280.0	3.195
41	515.0/285.0	3.333
42	525.0/290.0	3.394
43	545.0/300.0	6.641
44	550.0/305.0	7.157
45	560.0/310.0	6.723
46	575.0/290.0	37.86
47	575.0/320.0	5.113
48	585.0/325.0	4.656

Wavelength data
No.	EX/EM(nm)	Height(Data)	

Data points
	220.0	225.0	230.0	235.0	240.0	245.0	250.0	255.0	260.0	265.0	270.0	275.0	280.0	285.0	290.0	295.0	300.0	305.0	310.0	315.0	320.0	325.0	330.0	335.0	340.0	345.0	350.0	355.0	360.0	365.0	370.0	375.0	380.0	385.0	390.0	395.0	400.0	405.0	410.0	415.0	420.0	425.0	430.0	435.0	440.0	445.0	450.0	455.0	460.0	465.0	470.0	475.0	480.0	485.0	490.0	495.0	500.0	505.0	510.0	515.0	520.0	525.0	530.0	535.0	540.0	545.0	550.0	555.0	560.0	565.0	570.0	575.0	580.0	585.0	590.0	595.0	600.0
230.0	51.27	802.0	2063	624.7	30.31	7.189	5.128	4.627	3.921	3.392	3.082	3.134	2.638	2.012	1.738	1.595	1.298	1.118	1.089	0.983	0.872	0.797	0.860	0.756	0.711	0.700	0.721	0.590	0.633	0.573	0.565	0.512	0.444	0.451	0.408	0.401	0.463	0.417	0.387	0.369	0.419	0.421	0.471	0.398	0.340	0.354	0.932	3.615	6.244	4.422	1.799	0.460	0.291	0.254	0.259	0.239	0.280	0.269	0.259	0.268	0.244	0.254	0.262	0.252	0.275	0.264	0.250	0.266	0.263	0.267	0.274	0.267	0.268	0.295	0.268	0.280	0.287
235.0	98.91	232.1	1242	2123	520.5	38.27	6.682	5.865	4.444	3.803	3.256	2.937	2.774	2.093	1.662	1.494	1.324	1.090	1.168	1.094	0.805	0.804	0.813	0.683	0.728	0.698	0.704	0.540	0.598	0.635	0.568	0.504	0.546	0.438	0.438	0.377	0.445	0.381	0.408	0.394	0.389	0.369	0.398	0.478	0.524	0.434	0.456	1.127	2.618	4.461	6.993	6.816	2.934	0.674	0.296	0.301	0.317	0.267	0.290	0.283	0.220	0.252	0.289	0.271	0.283	0.233	0.259	0.280	0.256	0.257	0.250	0.253	0.253	0.285	0.240	0.325	0.299
240.0	141.4	145.8	392.2	1829	2279	391.5	21.03	6.187	6.229	4.452	4.023	3.676	2.867	2.327	1.782	1.868	1.381	1.165	1.204	0.982	0.848	0.853	0.940	0.711	0.784	0.730	0.667	0.675	0.585	0.682	0.534	0.493	0.463	0.474	0.488	0.418	0.395	0.452	0.423	0.406	0.355	0.380	0.355	0.479	0.618	0.711	0.459	0.531	0.838	1.524	4.215	9.221	11.06	7.190	2.396	0.486	0.353	0.330	0.287	0.289	0.222	0.228	0.293	0.238	0.246	0.251	0.234	0.282	0.262	0.271	0.265	0.259	0.242	0.248	0.227	0.348	0.295
245.0	119.9	202.6	148.7	633.2	2566	2319	278.5	9.912	6.113	4.743	4.592	3.786	2.779	2.834	1.870	1.828	1.637	1.251	1.275	1.146	1.103	0.832	0.805	0.720	0.826	0.672	0.682	0.632	0.571	0.661	0.605	0.489	0.516	0.421	0.437	0.386	0.402	0.403	0.413	0.395	0.387	0.419	0.348	0.371	0.479	0.708	0.690	0.679	0.513	0.543	1.193	3.434	8.451	13.52	12.90	6.029	1.356	0.369	0.288	0.285	0.237	0.276	0.297	0.254	0.267	0.254	0.226	0.294	0.279	0.268	0.249	0.254	0.287	0.302	0.275	0.277	0.275
250.0	58.24	151.2	230.2	221.9	855.0	2496	2821	885.0	45.67	6.506	5.260	4.127	3.214	2.738	2.170	1.938	1.614	1.472	1.198	1.230	1.000	0.864	0.849	0.793	0.842	0.716	0.729	0.610	0.611	0.686	0.582	0.483	0.493	0.432	0.448	0.437	0.409	0.368	0.433	0.434	0.416	0.397	0.377	0.372	0.360	0.459	0.524	0.741	0.818	0.774	0.655	1.057	2.281	4.781	8.759	12.63	15.49	12.39	6.427	1.614	0.329	0.280	0.309	0.296	0.299	0.261	0.281	0.303	0.303	0.288	0.268	0.284	0.298	0.300	0.307	0.295	0.305
255.0	39.09	56.00	176.4	301.9	267.5	655.4	2471	4401	1156	37.80	7.001	5.073	4.292	3.326	2.514	2.233	1.743	1.622	1.317	1.081	1.041	0.975	0.928	0.860	0.932	0.776	0.825	0.730	0.664	0.670	0.613	0.545	0.494	0.492	0.488	0.483	0.420	0.388	0.405	0.425	0.397	0.374	0.407	0.366	0.366	0.418	0.346	0.449	0.540	0.826	1.139	1.192	0.852	1.316	2.223	3.340	7.002	15.38	25.67	21.88	9.115	1.639	0.410	0.280	0.329	0.295	0.327	0.298	0.306	0.293	0.315	0.278	0.289	0.289	0.254	0.310	0.348
260.0	33.82	31.94	75.90	268.1	277.7	192.5	789.2	4082	4468	237.6	16.50	7.342	4.855	3.753	2.458	2.506	1.877	1.516	1.181	1.100	1.129	1.169	0.932	0.873	1.078	0.758	0.853	0.793	0.748	0.665	0.663	0.607	0.502	0.498	0.533	0.457	0.405	0.390	0.396	0.383	0.437	0.437	0.376	0.423	0.348	0.377	0.351	0.363	0.366	0.469	0.883	1.715	1.427	1.073	0.823	1.061	1.939	4.578	13.12	25.69	29.62	20.22	6.658	0.864	0.310	0.304	0.328	0.286	0.301	0.362	0.297	0.291	0.312	0.269	0.251	0.307	0.356
265.0	41.10	26.51	34.00	133.4	347.9	210.9	209.9	1507	5428	4001	174.7	9.866	6.318	4.245	2.887	2.788	1.913	1.728	1.441	1.351	1.163	1.174	1.084	0.890	0.977	0.789	0.784	0.784	0.741	0.704	0.624	0.643	0.603	0.564	0.513	0.450	0.424	0.429	0.398	0.426	0.384	0.401	0.361	0.432	0.350	0.403	0.313	0.393	0.293	0.314	0.452	0.987	1.714	1.798	1.133	0.616	0.787	1.327	3.421	8.447	20.13	34.29	28.94	16.06	3.259	0.493	0.337	0.334	0.283	0.321	0.259	0.273	0.272	0.277	0.286	0.325	0.327
270.0	44.31	28.84	24.26	46.11	176.2	341.6	234.1	385.7	1889	5009	4181	699.0	32.66	5.684	3.977	3.301	2.648	1.985	1.765	1.425	1.310	1.162	1.135	0.951	0.974	0.872	0.901	0.770	0.730	0.783	0.676	0.698	0.610	0.557	0.514	0.475	0.487	0.469	0.411	0.452	0.431	0.412	0.396	0.426	0.377	0.397	0.323	0.353	0.315	0.310	0.330	0.512	0.798	1.121	1.658	1.913	1.559	0.892	1.137	2.220	5.075	10.80	18.49	27.68	29.97	26.83	11.84	3.200	0.573	0.327	0.290	0.381	0.338	0.346	0.304	0.330	0.334
275.0	51.74	46.43	33.80	29.36	57.31	172.5	446.5	274.2	460.8	1343	4575	7815	911.4	22.52	5.790	4.084	3.216	2.390	2.058	1.772	1.377	1.440	1.159	1.017	0.968	0.862	1.010	0.858	0.689	0.894	0.729	0.660	0.607	0.614	0.605	0.578	0.523	0.531	0.449	0.492	0.492	0.419	0.464	0.450	0.456	0.437	0.379	0.373	0.340	0.355	0.332	0.400	0.518	0.542	0.676	1.138	2.386	2.607	1.680	0.972	1.529	2.796	4.485	6.815	10.93	26.02	43.88	30.16	17.94	3.102	0.469	0.438	0.394	0.386	0.329	0.294	0.323
280.0	76.42	82.10	56.39	38.00	35.30	68.69	309.2	493.9	211.3	355.9	1510	7801	6560	131.0	11.40	5.542	3.867	2.798	2.511	1.653	1.707	1.482	1.277	1.049	0.929	0.928	1.039	0.827	0.879	0.844	0.781	0.755	0.674	0.644	0.612	0.632	0.543	0.528	0.495	0.483	0.469	0.493	0.488	0.504	0.426	0.552	0.532	0.457	0.380	0.325	0.385	0.393	0.434	0.364	0.489	0.674	1.042	2.059	3.195	2.221	1.107	1.109	1.408	1.989	2.947	7.171	17.95	37.24	54.64	28.01	12.63	1.499	0.463	0.420	0.331	0.336	0.351
285.0	118.1	133.1	102.4	53.78	39.07	43.86	141.9	498.4	315.3	195.6	454.5	2889	8727	4416	91.39	8.966	5.054	3.475	2.851	2.070	1.834	1.610	1.429	1.112	1.113	0.963	0.981	0.829	0.816	0.790	0.793	0.791	0.717	0.730	0.753	0.655	0.589	0.606	0.560	0.530	0.469	0.570	0.525	0.506	0.627	0.596	0.623	0.511	0.497	0.368	0.401	0.457	0.435	0.421	0.438	0.467	0.624	1.020	2.053	3.333	3.130	1.792	0.961	1.146	1.382	2.354	4.925	11.18	27.66	46.48	52.68	24.21	7.007	0.817	0.388	0.418	0.352
290.0	236.3	267.3	222.0	115.8	65.58	61.18	98.94	260.6	564.1	519.8	411.0	957.9	3121	6054	4686	382.1	18.63	5.112	3.574	2.394	2.207	1.770	1.754	1.302	1.308	1.099	1.093	0.875	0.949	0.873	0.783	0.691	0.713	0.767	0.813	0.775	0.679	0.726	0.690	0.625	0.605	0.636	0.589	0.619	0.667	0.803	0.870	0.775	0.804	0.655	0.520	0.555	0.469	0.483	0.509	0.498	0.616	0.736	1.087	1.620	2.629	3.394	3.376	2.623	1.896	1.906	2.631	3.894	7.788	13.95	24.21	37.86	34.55	35.14	16.21	6.032	0.869
295.0	384.7	437.0	347.0	196.0	105.1	98.01	123.7	217.9	406.6	877.1	902.7	760.9	1114	1732	4684	5942	511.4	12.42	5.259	3.365	2.731	2.166	2.023	1.574	1.409	1.240	1.217	1.028	1.012	0.843	0.910	0.771	0.672	0.841	0.946	0.836	0.840	0.820	0.788	0.664	0.646	0.733	0.809	0.764	0.881	1.031	1.118	1.304	1.059	0.893	0.680	0.698	0.591	0.621	0.613	0.654	0.777	0.748	1.145	1.270	1.700	2.289	3.007	4.866	5.225	3.803	3.007	3.281	4.018	5.162	6.922	9.771	10.74	23.25	45.71	52.22	24.11
300.0	447.2	531.7	440.2	242.4	141.3	129.9	157.9	248.1	399.1	783.3	1334	977.5	771.4	651.0	1504	7439	4846	74.55	8.933	4.153	3.268	2.788	2.481	1.791	1.512	1.422	1.285	1.010	1.173	0.937	0.971	0.807	0.782	0.846	0.954	1.058	0.997	0.911	0.848	0.746	0.724	0.728	0.821	0.927	1.061	1.098	1.325	1.436	1.306	1.077	0.819	0.793	0.757	0.752	0.617	0.733	0.864	0.853	1.158	1.258	1.607	2.115	2.490	3.750	5.547	6.641	5.303	3.915	3.703	3.910	3.500	3.756	3.425	6.353	15.45	34.42	52.43
305.0	496.3	626.1	502.5	289.0	166.1	160.8	206.5	300.5	455.4	739.0	1265	1430	840.1	474.5	479.0	2626	7575	3507	57.44	5.935	4.103	3.122	2.651	1.874	1.770	1.610	1.494	1.109	1.070	1.083	1.045	0.946	0.821	0.937	0.974	1.168	0.998	0.985	0.866	0.751	0.807	0.827	0.872	0.955	1.065	1.226	1.483	1.537	1.405	1.172	0.977	0.957	0.877	0.841	0.785	0.839	1.084	1.035	1.493	1.742	1.979	2.152	2.666	3.435	4.267	5.679	7.157	6.394	4.818	4.137	3.264	2.805	2.023	2.532	4.259	9.166	20.91
310.0	521.4	636.8	547.4	316.4	199.7	187.0	238.1	341.5	503.3	744.7	1065	1391	1215	556.7	292.3	700.7	2520	4846	4645	259.3	12.89	4.290	3.563	2.480	1.879	1.801	1.632	1.265	1.197	1.158	1.056	0.903	0.939	0.988	1.071	1.087	1.075	0.968	0.881	0.860	0.838	0.906	0.899	1.047	1.070	1.269	1.495	1.606	1.551	1.163	1.006	1.069	0.870	0.919	0.914	1.020	1.176	1.202	1.488	1.782	2.069	2.503	2.866	3.370	4.036	4.554	5.431	6.138	6.723	6.094	4.277	2.767	2.117	1.928	1.943	3.059	5.483
315.0	521.7	632.3	553.3	336.7	229.2	210.2	258.2	351.5	500.5	712.4	947.8	1092	1158	860.3	324.2	289.6	659.2	1249	4272	3996	375.5	10.60	5.297	2.915	2.426	2.046	1.896	1.417	1.290	1.290	1.111	1.026	0.990	0.911	0.933	0.935	0.948	0.998	0.825	0.768	0.770	0.925	0.911	0.982	1.068	1.354	1.565	1.664	1.525	1.294	0.993	1.073	0.986	0.988	1.024	1.099	1.194	1.376	1.513	1.910	1.995	2.484	2.700	3.375	3.797	4.241	4.574	4.853	4.884	5.871	5.756	4.853	3.072	2.001	1.710	1.757	2.167
320.0	531.0	637.3	588.7	367.8	247.1	226.4	269.0	356.4	498.0	684.6	898.0	977.7	935.2	916.6	521.5	232.6	266.3	351.5	1253	4296	3551	57.40	7.998	3.678	2.994	2.312	2.125	1.613	1.485	1.479	1.199	1.146	0.947	0.951	0.950	0.979	0.961	0.965	0.905	0.697	0.766	1.019	0.913	0.957	1.123	1.373	1.523	1.744	1.639	1.308	1.064	1.165	1.114	1.100	1.000	1.191	1.328	1.469	1.642	1.911	1.990	2.314	2.678	3.253	3.688	3.961	4.127	4.484	4.384	4.357	4.486	5.113	4.987	3.540	2.158	1.602	1.631
325.0	528.9	715.5	693.1	440.5	278.2	251.7	291.3	362.0	493.2	662.8	848.1	911.4	835.3	732.5	705.0	328.6	200.3	167.8	333.5	1455	5077	2939	48.77	4.864	3.773	2.715	2.179	1.635	1.643	1.481	1.286	1.095	1.011	0.978	0.930	1.007	0.940	0.920	0.831	0.859	0.841	0.899	0.863	1.105	1.238	1.348	1.646	1.791	1.832	1.515	1.337	1.347	1.241	1.067	1.133	1.251	1.285	1.503	1.765	1.891	2.007	2.393	2.622	3.148	3.534	3.703	4.098	4.158	3.962	4.052	3.741	3.622	4.059	4.656	3.473	2.170	1.691
330.0	570.5	764.1	789.7	566.4	371.5	315.3	326.2	383.8	481.3	623.8	773.1	839.4	765.9	604.4	568.9	528.9	295.5	153.3	147.2	376.1	1630	4040	4277	214.9	12.99	3.904	3.247	2.001	1.779	1.673	1.376	1.130	0.991	0.978	1.040	0.953	0.944	0.888	0.843	0.791	0.859	0.879	0.878	1.101	1.214	1.565	1.791	2.064	2.248	1.908	1.707	1.633	1.458	1.309	1.361	1.433	1.452	1.607	1.788	1.878	2.030	2.292	2.594	2.911	3.413	3.470	3.755	3.734	3.785	3.881	3.523	3.270	3.003	3.267	3.451	3.683	3.158
335.0	552.8	795.9	877.1	711.6	484.0	408.4	398.5	421.1	484.9	607.5	716.3	778.9	722.4	573.2	463.4	460.0	496.9	241.1	135.6	155.9	413.7	1015	3573	3281	338.4	12.20	4.354	2.369	2.063	1.901	1.532	1.323	1.086	0.970	1.114	0.909	1.062	0.864	0.895	0.864	0.965	0.842	0.839	1.077	1.341	1.577	1.829	2.253	2.391	2.177	2.041	2.295	1.944	1.809	1.700	1.816	1.771	1.759	1.882	1.912	2.162	2.408	2.555	2.974	3.176	3.287	3.406	3.449	3.707	3.568	3.492	2.943	2.784	2.681	2.675	2.763	3.179
340.0	563.1	825.6	929.7	787.4	585.4	477.3	447.0	465.3	507.8	597.3	682.6	731.6	686.9	568.5	452.2	390.8	473.0	395.8	174.8	126.5	160.4	277.2	1021	3405	3067	266.3	7.845	3.232	2.546	1.924	1.772	1.444	1.123	0.943	1.006	0.947	0.891	0.856	0.791	0.796	0.902	0.797	0.985	1.024	1.352	1.598	1.979	2.322	2.405	2.325	2.164	2.390	2.211	2.078	2.112	1.899	1.960	2.146	2.068	2.088	2.251	2.379	2.729	2.817	2.985	3.015	3.426	3.258	3.378	3.497	3.415	2.992	2.839	2.613	2.571	2.546	2.493
345.0	566.8	842.3	947.4	849.9	666.1	553.7	511.6	498.3	524.2	595.2	651.3	694.1	663.5	559.8	455.2	382.3	377.9	458.1	291.7	150.3	124.9	132.0	280.8	1105	4107	2661	45.97	4.631	3.033	2.559	2.101	1.614	1.249	1.022	0.934	1.019	0.895	0.884	0.828	0.852	0.883	0.853	1.006	1.081	1.318	1.590	1.952	2.334	2.550	2.392	2.392	2.610	2.683	2.289	2.185	2.016	2.116	2.294	2.202	2.267	2.284	2.504	2.647	2.690	2.755	3.010	3.185	3.069	3.277	3.215	3.189	3.021	2.764	2.804	2.414	2.453	2.458
350.0	553.2	823.0	955.5	907.9	752.7	659.9	592.4	556.0	556.8	595.1	635.6	657.3	631.2	565.7	478.1	410.0	364.2	379.9	404.7	284.2	169.3	136.6	146.1	305.7	1276	3095	3912	199.6	14.72	3.483	2.362	1.903	1.458	1.163	1.065	1.030	0.987	0.899	0.914	0.860	0.882	0.837	0.903	1.071	1.335	1.660	1.978	2.343	2.488	2.402	2.454	2.899	2.765	2.643	2.549	2.646	2.466	2.520	2.455	2.633	2.450	2.657	2.659	2.874	2.933	2.850	3.017	3.048	3.094	3.108	2.902	3.085	2.866	2.890	2.672	2.594	2.584
355.0	557.3	819.5	960.7	917.5	830.0	754.7	674.3	621.4	603.4	607.8	630.2	636.3	621.4	571.7	500.1	441.1	402.4	370.4	365.7	418.3	298.7	187.9	155.6	160.6	348.5	770.6	2767	2949	344.0	16.76	3.372	2.466	1.695	1.348	1.224	1.100	1.030	0.949	0.801	0.902	0.794	0.864	0.830	1.045	1.305	1.698	1.798	2.110	2.455	2.490	2.543	2.924	2.983	2.917	2.967	2.848	2.895	2.884	2.735	2.782	2.637	2.760	2.702	2.779	2.842	2.906	2.875	3.073	3.009	3.113	3.018	3.002	3.038	2.882	2.886	2.790	2.839
360.0	527.2	809.6	956.0	972.0	900.5	807.5	720.6	665.3	628.1	636.3	633.4	637.2	622.5	574.2	518.6	469.5	437.5	394.9	371.4	407.6	417.3	265.1	190.2	154.5	165.0	231.0	747.2	2361	2914	298.6	9.188	2.987	1.974	1.492	1.238	1.025	1.036	1.086	0.953	0.852	0.820	0.843	0.908	1.100	1.366	1.624	1.856	2.182	2.410	2.447	2.530	2.999	2.973	3.106	3.145	2.991	3.230	3.138	2.892	2.898	2.689	2.949	2.876	3.041	2.840	3.114	2.810	2.999	3.101	3.021	3.049	3.116	3.035	3.130	3.209	2.853	2.898
365.0	536.2	779.1	942.6	976.3	924.4	856.3	786.6	698.3	664.1	646.4	643.0	637.9	627.6	584.5	537.5	498.3	460.9	427.7	398.7	388.2	443.5	382.2	242.6	184.0	146.7	131.3	222.7	708.5	3140	2767	45.26	5.090	2.764	1.651	1.537	1.160	1.035	1.083	0.906	0.887	0.957	0.908	0.945	1.075	1.346	1.629	1.778	2.175	2.320	2.574	2.378	3.111	3.270	3.093	3.175	3.126	3.295	3.294	3.034	3.083	2.853	3.116	3.102	3.055	3.102	3.076	2.939	3.073	2.769	3.052	3.073	3.097	3.324	3.223	3.188	3.217	3.210
370.0	547.1	768.2	935.8	980.4	949.8	901.4	834.5	746.8	704.4	671.4	651.8	644.4	635.4	598.4	554.8	524.0	497.9	472.5	443.3	416.6	417.7	439.4	368.6	246.5	182.0	140.0	129.5	212.3	915.7	2776	2846	827.2	14.83	2.603	1.912	1.414	1.242	1.218	1.040	0.855	0.977	0.838	0.996	1.083	1.283	1.604	1.759	2.169	2.407	2.354	2.588	3.098	3.281	3.305	3.350	3.288	3.435	3.441	3.236	3.278	3.140	3.119	3.221	3.085	3.062	3.027	2.990	3.071	2.953	3.123	3.173	3.178	3.117	3.203	3.146	3.277	3.384
375.0	541.4	775.0	915.4	969.7	964.8	934.4	865.5	776.3	729.1	698.0	676.2	663.0	643.4	614.1	568.7	542.6	520.3	504.9	483.6	457.7	432.7	420.3	434.8	361.0	233.7	175.5	137.1	123.9	255.8	675.2	1762	3374	312.0	16.90	2.723	1.854	1.535	1.241	1.170	0.942	1.086	0.987	1.001	1.211	1.257	1.507	1.760	2.140	2.400	2.361	2.531	3.108	3.266	3.471	3.647	3.579	3.438	3.594	3.282	3.196	3.068	3.272	3.143	3.306	3.064	2.944	2.886	3.072	2.985	3.232	3.284	3.340	3.339	3.589	3.099	3.449	3.438
380.0	542.2	747.1	901.0	977.1	975.4	942.6	886.0	804.6	739.7	714.1	690.5	668.6	648.9	622.3	581.6	550.4	536.1	523.5	505.3	481.4	454.2	430.2	420.2	433.2	298.9	207.3	159.9	122.8	124.9	197.3	474.6	2181	2529	258.6	8.793	2.312	1.894	1.640	1.334	1.023	1.208	1.040	1.012	1.258	1.202	1.609	1.824	2.143	2.270	2.237	2.574	3.265	3.325	3.525	3.648	3.681	3.365	3.424	3.417	3.355	3.199	3.316	3.099	3.132	3.098	2.907	3.039	3.114	3.204	3.305	3.267	3.385	3.650	3.156	3.206	3.439	3.383
385.0	561.3	741.1	902.8	958.8	966.3	957.0	883.7	809.4	753.9	724.6	695.3	679.8	646.2	627.2	581.8	556.2	546.6	539.3	522.5	497.7	474.1	440.1	411.2	421.9	376.6	254.0	184.3	141.6	110.1	103.4	146.6	607.7	2230	2105	206.2	4.093	2.047	2.066	1.657	1.215	1.171	1.089	1.048	1.240	1.360	1.549	1.802	2.217	2.369	2.285	2.445	3.162	3.374	3.477	3.537	3.562	3.619	3.475	3.471	3.309	3.418	3.449	3.217	3.208	3.302	3.231	3.182	3.157	3.162	3.402	3.347	3.170	3.548	3.339	3.292	3.459	3.611
390.0	536.9	731.6	880.1	950.9	966.2	948.8	896.3	818.4	764.2	732.1	703.4	681.0	647.2	619.4	583.5	555.6	551.6	538.6	530.2	508.8	487.0	455.9	422.9	397.6	390.8	338.8	234.5	171.3	132.6	103.1	89.37	173.2	615.8	1505	1965	670.0	13.58	2.744	1.865	1.437	1.340	1.113	1.076	1.258	1.348	1.559	1.879	2.106	2.264	2.397	2.478	3.138	3.484	3.451	3.445	3.547	3.655	3.543	3.567	3.398	3.397	3.484	3.318	3.265	3.225	3.192	3.090	3.154	3.157	3.172	3.267	3.177	3.417	3.398	3.294	3.441	3.430
395.0	528.1	759.7	876.2	915.2	951.7	939.4	894.5	820.9	777.6	742.9	717.3	681.0	645.9	615.3	579.4	553.5	546.0	536.9	526.5	515.1	496.4	469.3	438.3	402.5	368.9	362.3	314.6	215.0	159.9	124.1	95.83	90.78	172.6	364.7	1005	2456	267.3	18.38	2.706	1.722	1.440	1.148	1.048	1.259	1.461	1.532	1.638	2.036	2.298	2.324	2.542	3.044	3.247	3.518	3.469	3.268	3.771	3.749	3.635	3.432	3.613	3.481	3.418	3.680	3.226	3.343	3.175	3.056	3.024	3.258	3.104	3.245	3.251	3.273	3.457	3.513	3.476
400.0	512.8	717.0	850.9	906.7	928.6	924.1	902.5	827.4	790.0	748.8	716.2	675.6	645.3	609.1	575.8	549.8	539.6	531.7	522.0	510.9	492.9	471.2	443.6	406.3	369.0	344.8	345.5	267.7	186.1	143.1	109.7	84.01	81.90	109.6	263.2	1473	2082	253.1	10.41	2.149	1.713	1.234	1.109	1.332	1.422	1.607	1.736	2.105	2.223	2.213	2.481	2.866	3.376	3.490	3.435	3.379	3.657	3.579	3.594	3.454	3.492	3.350	3.410	3.333	3.439	3.155	3.216	2.937	3.156	3.124	3.129	3.245	3.177	3.256	3.298	3.232	3.409
405.0	514.6	696.5	831.9	895.6	941.4	909.8	882.1	829.4	784.8	739.4	716.9	675.3	643.0	605.7	563.4	539.2	528.9	518.8	512.2	502.5	488.1	466.9	441.9	410.0	373.0	338.6	330.6	317.1	217.2	161.0	126.8	93.12	69.14	59.14	82.26	399.4	1590	2094	201.0	4.806	2.048	1.493	1.346	1.418	1.501	1.641	1.903	1.986	2.150	2.155	2.278	3.021	3.266	3.285	3.462	3.553	3.454	3.537	3.535	3.460	3.581	3.219	3.456	3.135	3.154	3.292	3.066	3.337	3.014	3.160	3.245	3.178	3.238	3.106	3.369	3.240	3.415
410.0	498.9	667.3	821.2	862.0	897.2	887.4	862.1	818.2	780.2	747.7	717.1	677.2	629.2	586.6	546.4	521.5	511.3	499.9	496.0	486.9	474.5	455.6	438.6	410.6	374.9	343.1	313.3	310.4	277.7	202.0	146.7	110.0	79.15	58.78	49.87	110.5	426.1	1563	1966	641.8	12.76	1.985	1.561	1.549	1.581	1.646	1.858	1.954	2.058	2.073	2.353	2.955	3.132	3.199	3.331	3.408	3.554	3.474	3.486	3.394	3.630	3.299	3.341	3.382	3.238	3.328	3.090	3.076	3.049	3.147	3.353	3.191	3.133	3.135	3.142	3.225	3.222
