Sample:	'1
File name:	w2025091001π≈œÿ °øÿµ„.FD3
Run date:	'14:17:48, 09/11/2025
Operator:	Administrator
Comment:	'

Instrument
Model:	F-2700 FL Spectrophotometer
Serial number:	23C7-004
ROM Version:	4J14000 07

Instrument parameters
Measurement type:	3-D scan
Data mode:	Fluorescence
EX  Start WL:	220.0 nm
EX  End WL:	600.0 nm
EX Sampling interval:	5.0 nm
EM  Start WL:	230.0 nm
EM  End WL:	650.0 nm
EM Sampling interval:	5.0 nm
Scan speed:	12000 nm/min
EX Slit:	5.0 nm
EM Slit:	5.0 nm
PMT Voltage:	700 V
Response:	Auto 
Corrected spectra:	Off
Contour interval:	50.000

Peak integration
Integration method:	Rectangular
Sensitivity:	1
Threshold:	1.000

Peaks
No.	ApexEX/EM(nm)	Height(Data)
1	225.0/330.0	1988
2	225.0/625.0	73.30
3	230.0/500.0	392.4
4	235.0/510.0	304.8
5	240.0/525.0	252.3
6	245.0/425.0	781.9
7	245.0/535.0	203.3
8	250.0/550.0	169.0
9	255.0/285.0	473.3
10	255.0/425.0	771.2
11	255.0/565.0	141.2
12	260.0/290.0	513.4
13	260.0/435.0	775.9
14	260.0/575.0	118.3
15	265.0/440.0	787.3
16	265.0/585.0	99.83
17	275.0/615.0	156.0
18	280.0/315.0	2694
19	280.0/625.0	145.7
20	285.0/635.0	118.9
21	320.0/365.0	513.5
22	325.0/370.0	491.8
23	330.0/375.0	480.1
24	335.0/380.0	471.1
25	455.0/335.0	5.124
26	475.0/345.0	4.725
27	510.0/280.0	2.802
28	515.0/285.0	3.144
29	525.0/290.0	3.002
30	565.0/315.0	13.14
31	570.0/320.0	13.28
32	580.0/325.0	12.81

Data points
	220.0	225.0	230.0	235.0	240.0	245.0	250.0	255.0	260.0	265.0	270.0	275.0	280.0	285.0	290.0	295.0	300.0	305.0	310.0	315.0	320.0	325.0	330.0	335.0	340.0	345.0	350.0	355.0	360.0	365.0	370.0	375.0	380.0	385.0	390.0	395.0	400.0	405.0	410.0	415.0	420.0	425.0	430.0	435.0	440.0	445.0	450.0	455.0	460.0	465.0	470.0	475.0	480.0	485.0	490.0	495.0	500.0	505.0	510.0	515.0	520.0	525.0	530.0	535.0	540.0	545.0	550.0	555.0	560.0	565.0	570.0	575.0	580.0	585.0	590.0	595.0	600.0
230.0	237.9	3342	3947	434.6	12.81	5.971	4.655	4.538	3.467	3.745	3.352	3.319	3.225	2.725	2.385	1.982	1.811	1.597	1.340	1.221	1.074	1.066	0.995	0.777	0.812	0.847	0.692	0.627	0.633	0.607	0.540	0.559	0.549	0.490	0.403	0.400	0.305	0.349	0.300	0.340	0.484	0.649	0.495	0.308	0.297	0.496	4.118	12.44	14.63	6.974	1.604	0.311	0.179	0.183	0.168	0.161	0.191	0.173	0.175	0.156	0.162	0.148	0.149	0.150	0.135	0.141	0.144	0.148	0.147	0.146	0.154	0.134	0.146	0.120	0.144	0.152	0.140
235.0	150.9	950.3	3692	3768	426.5	13.33	6.408	4.997	4.959	4.394	3.759	4.202	3.526	2.739	2.546	2.043	2.017	1.698	1.385	1.165	1.122	1.109	0.997	0.750	0.895	0.677	0.821	0.687	0.658	0.648	0.558	0.512	0.526	0.461	0.441	0.381	0.365	0.338	0.367	0.305	0.394	0.399	0.643	0.500	0.454	0.350	1.122	3.316	7.093	11.58	14.10	10.45	3.246	0.452	0.222	0.188	0.199	0.172	0.146	0.192	0.153	0.103	0.131	0.161	0.152	0.126	0.200	0.177	0.143	0.168	0.159	0.150	0.160	0.118	0.099	0.109	0.123
240.0	203.0	280.2	1266	4507	3560	325.3	8.449	5.528	5.489	4.748	5.206	3.987	3.749	3.787	2.591	2.223	1.882	1.675	1.549	1.160	1.134	1.090	0.945	0.890	0.957	0.758	0.781	0.820	0.736	0.585	0.576	0.517	0.496	0.455	0.431	0.378	0.386	0.356	0.327	0.284	0.245	0.288	0.341	0.458	0.627	0.609	0.595	0.939	1.864	3.901	9.731	19.56	18.99	9.836	2.115	0.255	0.140	0.208	0.174	0.231	0.126	0.173	0.158	0.138	0.163	0.155	0.149	0.089	0.172	0.149	0.141	0.195	0.157	0.128	0.140	0.101	0.102
245.0	188.0	233.4	323.4	1865	5476	3050	219.6	9.041	6.508	6.738	5.463	4.244	3.709	3.409	2.910	2.401	2.287	1.689	1.634	1.199	1.155	1.157	1.051	0.965	0.809	0.771	0.609	0.748	0.701	0.647	0.688	0.583	0.495	0.513	0.486	0.354	0.428	0.299	0.339	0.295	0.230	0.266	0.295	0.377	0.443	0.648	0.796	0.650	0.628	1.043	2.570	8.369	18.75	25.21	18.88	7.475	1.017	0.216	0.162	0.196	0.189	0.155	0.161	0.144	0.151	0.148	0.151	0.115	0.182	0.140	0.114	0.160	0.189	0.144	0.114	0.154	0.151
250.0	74.57	197.6	248.8	479.5	2058	5072	4780	968.3	43.38	7.703	6.698	5.198	4.805	3.985	3.090	2.752	2.393	1.981	1.790	1.305	1.435	1.273	1.125	1.039	0.950	0.791	0.772	0.766	0.726	0.642	0.725	0.556	0.522	0.528	0.476	0.417	0.399	0.364	0.317	0.325	0.269	0.351	0.272	0.335	0.303	0.429	0.533	0.772	0.865	0.747	0.832	2.084	4.958	10.23	16.99	22.19	25.97	15.49	7.745	1.519	0.306	0.169	0.153	0.153	0.227	0.150	0.143	0.149	0.165	0.166	0.172	0.140	0.157	0.125	0.115	0.135	0.143
255.0	36.20	70.93	212.1	323.4	509.5	1361	5531	8073	1390	31.50	10.61	6.723	5.988	5.468	3.212	3.418	2.645	2.160	2.195	1.477	1.478	1.344	1.123	1.036	0.966	0.890	0.810	0.767	0.761	0.773	0.662	0.577	0.566	0.559	0.415	0.325	0.386	0.388	0.331	0.299	0.369	0.305	0.257	0.322	0.357	0.348	0.295	0.372	0.510	0.804	1.054	1.195	1.399	2.475	4.032	5.694	14.08	33.04	47.49	24.49	10.75	1.316	0.260	0.181	0.202	0.173	0.167	0.188	0.166	0.168	0.209	0.205	0.135	0.126	0.133	0.213	0.182
260.0	24.91	31.25	95.27	296.9	288.2	338.8	1788	8650	8490	232.6	19.31	9.843	7.546	5.909	3.964	3.429	2.784	2.348	2.150	1.646	1.507	1.297	1.208	1.131	1.018	0.783	0.889	0.910	0.865	0.740	0.715	0.629	0.536	0.560	0.510	0.350	0.411	0.371	0.361	0.377	0.384	0.349	0.319	0.331	0.275	0.273	0.232	0.339	0.265	0.445	0.865	1.556	1.362	0.967	1.115	1.491	3.531	9.914	27.44	51.21	57.50	22.01	5.905	0.381	0.237	0.264	0.208	0.178	0.176	0.161	0.161	0.212	0.152	0.137	0.153	0.207	0.168
265.0	25.75	22.78	36.82	155.8	341.4	189.3	434.3	3247	9999.9	7865	182.8	14.33	10.27	7.003	5.055	3.731	3.201	2.790	2.514	1.852	1.612	1.326	1.408	1.300	1.225	0.963	0.872	0.925	1.022	0.737	0.744	0.622	0.624	0.521	0.505	0.433	0.487	0.428	0.339	0.373	0.356	0.370	0.315	0.277	0.258	0.382	0.230	0.343	0.227	0.231	0.362	0.920	1.438	1.549	0.951	0.618	1.014	2.512	6.892	18.60	46.49	70.82	28.99	17.11	2.411	0.324	0.190	0.215	0.195	0.228	0.175	0.295	0.173	0.174	0.223	0.161	0.237
270.0	40.40	30.52	26.70	53.58	190.7	322.2	238.1	776.0	3636	9999.9	9999.9	759.2	47.28	10.93	7.505	5.140	4.227	3.446	2.739	2.145	1.892	1.709	1.399	1.456	1.244	1.109	0.979	0.940	0.975	0.884	0.790	0.723	0.673	0.578	0.560	0.472	0.458	0.459	0.374	0.426	0.340	0.416	0.374	0.372	0.341	0.351	0.268	0.323	0.260	0.196	0.229	0.453	0.590	1.095	1.452	1.497	1.214	0.998	1.793	4.422	11.50	24.92	39.05	62.78	55.14	46.99	10.97	2.668	0.368	0.294	0.252	0.252	0.228	0.230	0.195	0.191	0.216
275.0	92.92	61.38	31.10	34.33	61.07	177.2	418.3	324.1	854.3	2558	9999.9	9999.9	1106	45.40	11.30	7.083	5.451	4.730	3.302	2.524	2.336	1.963	1.532	1.702	1.534	1.319	1.038	1.072	0.984	0.852	0.946	0.712	0.740	0.692	0.750	0.570	0.525	0.559	0.473	0.523	0.466	0.492	0.467	0.496	0.430	0.516	0.359	0.354	0.309	0.264	0.256	0.290	0.315	0.449	0.598	1.047	1.991	2.271	1.594	1.450	2.869	5.849	9.018	15.37	27.25	70.93	104.7	29.67	15.67	2.043	0.384	0.250	0.292	0.210	0.268	0.307	0.243
280.0	141.9	109.2	53.77	38.84	37.23	70.79	323.0	383.2	291.1	633.7	2952	9999.9	9894	788.0	22.69	10.54	6.964	5.298	3.583	3.239	2.307	2.155	1.759	1.705	1.629	1.493	1.295	1.142	1.115	1.054	1.009	0.794	0.708	0.749	0.745	0.698	0.758	0.626	0.557	0.681	0.590	0.508	0.542	0.566	0.493	0.529	0.480	0.378	0.404	0.258	0.305	0.261	0.282	0.360	0.360	0.442	0.956	2.044	2.802	1.967	1.237	1.757	2.390	3.848	6.587	19.47	52.71	97.85	113.1	27.32	9.083	0.700	0.389	0.302	0.305	0.275	0.277
285.0	198.9	153.9	88.99	54.02	42.30	46.55	139.5	473.3	316.0	240.2	763.4	3895	9999.9	7995	109.9	15.74	9.565	6.429	4.749	4.195	2.957	2.310	2.312	1.898	1.768	1.584	1.289	1.227	1.177	0.887	0.895	0.935	0.843	0.885	0.912	0.852	0.790	0.769	0.725	0.661	0.724	0.621	0.643	0.764	0.502	0.671	0.652	0.555	0.480	0.342	0.320	0.385	0.334	0.333	0.414	0.352	0.518	0.885	1.870	3.144	2.488	1.421	1.018	1.457	1.973	4.873	12.69	31.99	80.17	122.6	105.2	21.24	3.176	0.447	0.403	0.322	0.292
290.0	305.6	259.9	174.6	102.2	69.63	67.50	100.1	244.2	513.4	454.9	339.1	1057	3983	9999.9	9999.9	2095	33.53	10.73	6.813	4.969	3.683	2.971	2.656	2.237	1.921	1.755	1.353	1.336	1.269	1.013	1.079	1.006	0.829	0.928	1.083	1.077	1.050	0.986	0.847	0.854	0.809	0.724	0.751	0.883	0.809	0.891	0.808	0.773	0.717	0.525	0.496	0.513	0.426	0.398	0.433	0.441	0.506	0.748	0.960	1.530	2.244	3.002	2.853	1.988	1.475	2.025	3.763	8.148	19.73	39.71	69.62	93.53	74.48	70.35	13.35	4.381	0.541
295.0	457.5	400.9	301.9	183.5	124.2	120.3	152.0	208.0	341.1	731.5	702.0	581.1	1186	2621	9999.9	9999.9	641.6	40.16	11.08	6.834	4.684	3.762	3.151	2.522	2.093	2.030	1.850	1.575	1.393	1.239	1.026	1.116	0.943	1.091	1.165	1.229	1.277	1.194	1.105	1.057	0.975	0.932	1.090	0.951	1.143	1.083	0.952	0.957	0.979	0.745	0.698	0.682	0.676	0.607	0.658	0.654	0.740	0.879	0.955	1.026	1.408	1.898	2.798	4.369	3.947	2.755	2.447	3.374	5.962	10.39	16.91	22.85	32.48	89.05	137.3	106.7	20.76
300.0	587.1	560.6	448.8	286.5	213.2	209.3	266.2	304.7	340.2	716.7	1202	893.7	826.6	1025	2945	9999.9	9999.9	521.5	26.39	10.86	6.227	4.809	4.069	3.167	2.426	2.200	1.953	1.708	1.527	1.446	1.220	1.108	1.074	1.099	1.124	1.418	1.458	1.326	1.324	1.245	1.090	1.115	1.219	1.170	1.238	1.386	1.315	1.355	1.376	1.071	0.999	1.097	0.913	0.853	0.998	1.031	1.167	1.260	1.337	1.680	1.797	1.994	2.510	3.858	5.197	5.781	4.514	3.553	4.119	4.766	6.086	7.404	9.427	23.91	61.29	130.1	148.5
305.0	788.4	827.8	654.1	439.3	357.2	368.6	427.6	634.2	797.3	1118	1663	1601	1319	1147	1407	3789	9999.9	9999.9	374.2	16.57	9.156	6.591	4.635	3.819	2.775	2.468	2.146	1.928	1.739	1.672	1.406	1.167	1.036	1.144	1.302	1.587	1.633	1.729	1.692	1.620	1.482	1.420	1.577	1.466	1.740	1.709	1.778	2.104	2.125	1.627	1.250	1.430	1.356	1.389	1.447	1.628	1.853	2.282	2.446	2.867	3.146	3.727	4.599	5.458	6.198	8.110	9.150	8.089	6.770	6.759	6.168	6.274	6.258	9.491	17.47	39.54	90.51
310.0	1025	1129	953.7	662.2	535.9	555.8	709.7	931.0	1153	1538	1964	2383	2396	1760	1495	1682	4076	9999.9	9999.9	1674	26.98	9.076	6.331	4.731	3.555	2.934	2.550	2.080	1.939	1.836	1.592	1.280	1.268	1.253	1.455	1.740	1.954	1.802	1.844	1.915	1.864	1.861	1.961	1.790	2.219	2.339	2.619	2.842	2.937	2.248	1.953	2.149	1.951	2.018	2.100	2.406	2.840	3.332	3.699	3.953	4.502	5.463	6.551	7.346	7.828	8.983	10.17	11.35	11.68	11.17	9.066	8.087	7.781	8.306	9.037	13.38	25.23
315.0	1288	1452	1248	880.6	682.8	705.0	870.7	1098	1309	1694	2109	2470	2694	2434	1768	1341	1752	2802	8088	9999.9	2547	30.61	9.092	6.410	4.352	3.758	3.085	2.559	2.297	1.836	1.655	1.670	1.561	1.514	1.586	1.788	2.023	2.109	2.084	2.182	2.197	2.113	2.252	2.360	2.646	2.884	3.320	3.560	3.464	2.857	2.512	2.674	2.420	2.500	2.635	2.884	3.450	3.857	4.197	4.557	5.238	6.401	7.230	8.110	8.471	9.493	10.67	11.29	11.89	13.14	13.04	11.33	10.01	9.231	8.009	7.871	10.56
320.0	1461	1671	1424	1006	768.7	777.1	955.8	1159	1374	1770	2196	2570	2653	2621	2105	1358	1292	1157	2164	9999.9	9999.9	408.9	19.34	8.590	5.791	4.509	3.230	2.927	2.502	2.196	1.844	1.847	1.505	1.576	1.613	1.789	2.096	2.212	2.266	2.167	2.149	2.253	2.513	2.442	2.966	3.406	3.765	4.040	4.113	3.317	2.861	3.137	2.799	2.934	2.741	3.364	3.525	4.434	4.503	5.144	5.330	6.535	7.467	8.576	9.070	9.616	10.82	11.35	12.22	12.33	13.28	13.09	12.35	10.39	8.416	7.213	7.651
325.0	1582	1832	1596	1105	818.6	800.4	954.7	1154	1335	1704	2111	2484	2550	2420	2286	1457	1167	784.2	644.2	2900	9999.9	9999.9	319.0	11.71	7.596	5.529	3.878	3.358	2.855	2.362	1.906	1.720	1.546	1.474	1.640	1.881	2.010	2.290	2.102	2.268	2.281	2.245	2.504	2.652	3.027	3.545	4.105	4.599	4.329	3.592	3.383	3.565	2.940	2.879	2.948	3.338	3.861	4.442	4.566	5.061	5.393	6.006	6.858	8.094	9.051	9.451	9.844	11.30	11.52	11.83	11.66	11.86	12.81	12.35	9.282	7.201	7.051
330.0	1641	1988	1807	1315	916.7	808.4	917.6	1082	1219	1531	1904	2242	2320	2157	1975	1574	1169	674.9	337.2	750.2	2941	9832	9999.9	1475	23.26	7.712	5.164	4.167	3.226	2.729	2.384	1.748	1.665	1.616	1.567	1.766	2.100	2.206	2.017	2.120	2.193	2.490	2.526	2.811	3.309	3.815	4.237	5.048	4.797	4.140	3.886	4.151	3.327	3.225	3.097	3.162	3.635	4.028	4.385	4.793	5.013	5.633	6.449	7.169	7.932	8.386	9.198	9.873	10.27	10.62	10.43	10.43	10.37	10.48	9.426	8.418	7.531
335.0	1658	1928	1898	1463	1026	828.8	877.0	999.1	1101	1353	1697	1985	2072	1940	1695	1363	1271	713.8	310.2	306.6	749.3	2304	6406	9999.9	2365	26.86	7.270	5.689	4.110	3.184	2.577	2.021	2.047	1.854	1.878	1.789	1.919	2.018	2.035	2.198	2.130	2.401	2.525	2.778	3.172	3.916	4.587	5.124	4.938	4.442	4.104	4.675	3.793	3.750	3.458	3.001	3.553	3.620	4.018	4.211	4.522	4.973	5.897	6.601	6.837	7.626	8.228	8.742	9.135	9.590	10.05	9.692	8.906	8.734	7.697	7.474	8.053
340.0	1592	1954	1855	1482	1064	828.1	829.3	924.0	1013	1244	1531	1788	1871	1771	1534	1187	1124	851.1	355.2	230.7	281.7	598.6	1643	8702	9999.9	355.0	17.30	6.944	5.164	3.588	2.808	2.437	2.179	1.837	1.903	1.792	1.871	1.938	1.938	1.969	1.994	2.200	2.453	2.747	3.176	3.844	4.263	4.925	4.812	4.468	4.407	4.576	4.065	3.770	3.206	2.929	3.317	3.406	3.740	3.822	4.195	4.756	5.234	5.897	5.880	6.808	7.557	7.794	8.458	8.652	8.921	8.591	8.055	7.614	6.922	6.615	6.562
345.0	1523	1880	1846	1495	1083	804.4	785.3	866.4	939.1	1132	1380	1601	1677	1608	1399	1090	933.0	844.3	496.7	246.1	200.8	237.2	442.6	2435	9999.9	9999.9	291.2	10.85	6.232	4.529	3.216	2.696	2.248	2.023	1.883	1.898	2.088	2.021	1.952	2.083	1.866	2.206	2.492	2.896	3.176	3.689	4.052	4.686	4.698	4.390	4.245	4.725	3.956	3.452	3.228	3.059	3.225	3.389	3.662	3.799	3.880	4.403	4.379	5.309	5.541	6.250	6.838	7.195	7.447	7.795	7.895	7.938	7.433	7.210	6.281	5.915	5.712
350.0	1357	1696	1693	1438	1077	831.6	757.4	801.3	859.4	1008	1203	1374	1461	1401	1245	991.3	828.0	685.4	588.2	402.3	238.6	193.4	204.4	614.3	2791	8377	9733	1321	20.91	6.480	4.544	3.361	2.578	2.184	1.962	1.916	1.957	1.960	1.860	1.898	1.986	2.013	2.196	2.518	2.835	3.370	3.625	4.442	4.616	4.133	4.128	4.625	4.036	3.724	3.275	3.058	3.051	3.092	3.305	3.467	3.656	3.835	4.383	4.500	5.007	5.463	6.043	6.176	6.368	6.892	7.013	6.959	6.719	6.466	5.899	5.302	5.093
355.0	1256	1514	1516	1320	1060	834.2	751.3	766.5	801.7	904.5	1061	1195	1257	1234	1101	910.4	775.2	622.9	514.0	532.2	378.8	235.1	190.2	238.7	692.9	1954	5503	9999.9	2183	24.96	6.681	4.307	3.528	2.793	2.178	1.944	1.943	1.948	1.858	1.722	1.911	1.902	2.015	2.332	2.600	2.918	3.375	4.172	4.012	3.848	3.636	4.343	3.816	3.707	3.337	3.010	3.057	3.004	3.171	3.242	3.507	3.421	3.831	4.168	4.430	4.545	4.968	5.382	5.503	5.634	5.849	6.035	5.869	6.009	5.160	5.246	4.742
360.0	1146	1412	1421	1272	1050	837.4	745.0	756.9	775.7	850.4	983.8	1090	1140	1123	1023	867.7	749.8	611.0	501.4	498.5	505.7	320.4	217.0	182.9	247.9	500.8	1405	7457	9999.9	333.5	15.59	5.913	4.510	3.046	2.598	2.097	2.008	1.973	1.931	1.772	1.903	1.851	1.788	2.007	2.426	2.865	3.294	3.551	3.534	3.683	3.573	3.997	3.614	3.528	3.268	3.060	2.804	2.920	3.227	2.962	3.591	3.508	3.495	4.003	4.073	4.347	4.295	4.807	4.925	5.216	5.192	5.597	5.424	5.256	5.049	4.984	4.558
365.0	1083	1308	1292	1207	1036	838.2	754.5	741.3	759.0	816.3	930.6	1016	1061	1045	966.6	836.2	735.7	624.9	520.9	469.2	513.5	447.5	272.1	197.4	171.6	197.5	373.9	2078	9677	9647	276.3	8.890	5.163	3.665	2.993	2.414	2.220	2.145	1.915	1.895	1.954	1.841	1.953	2.130	2.353	2.703	2.861	3.355	3.432	3.316	3.318	4.038	3.663	3.480	3.241	3.097	3.192	2.787	3.174	3.236	3.351	3.442	3.644	3.881	3.961	4.242	4.379	4.718	4.700	4.834	5.322	5.256	5.258	5.044	4.857	4.945	4.659
370.0	1009	1188	1216	1133	991.1	840.3	763.0	741.2	745.3	789.4	871.8	940.1	984.3	966.2	904.5	807.6	729.2	640.5	554.9	493.9	473.6	491.8	414.5	264.4	195.0	161.1	168.1	525.1	2660	7757	8950	1204	17.72	5.239	3.757	2.752	2.538	2.259	1.980	2.007	1.948	1.971	1.999	2.145	2.251	2.631	2.696	3.175	3.164	3.043	3.087	3.879	3.514	3.492	3.333	3.209	3.245	3.111	3.065	3.228	3.433	3.304	3.496	3.760	3.699	3.874	3.899	4.242	4.308	4.328	4.693	4.738	5.024	4.769	4.677	4.649	4.397
375.0	921.5	1108	1109	1056	963.2	842.1	769.5	753.4	729.3	773.0	831.9	891.2	914.2	900.2	856.4	783.8	716.7	655.2	587.9	535.3	486.5	463.0	480.1	397.5	254.0	189.4	151.4	201.3	650.5	1805	5080	9999.9	1912	20.74	5.335	3.773	2.884	2.478	2.289	2.226	1.913	1.984	1.990	2.150	2.195	2.473	2.600	2.979	3.059	2.867	2.840	3.588	3.347	3.472	3.208	3.160	3.047	3.168	3.208	3.145	3.339	3.218	3.758	3.543	3.565	3.671	3.774	3.739	4.097	4.217	4.377	4.464	4.441	4.640	4.499	4.601	4.216
380.0	911.5	1045	1062	1027	929.7	849.4	768.6	742.4	724.1	756.6	800.3	853.2	871.6	859.1	820.9	758.7	714.8	659.0	605.5	557.1	511.5	465.5	455.9	471.1	330.9	220.9	169.6	147.2	217.5	453.0	1295	7012	9600	281.9	12.11	4.713	3.465	2.789	2.472	2.140	1.954	2.104	1.929	2.169	2.419	2.312	2.469	2.849	2.993	2.707	2.889	3.551	3.056	3.411	3.110	2.989	3.143	3.309	3.161	3.281	3.144	3.305	3.299	3.331	3.592	3.377	3.571	3.533	3.811	4.130	4.202	4.043	4.428	4.545	4.322	4.663	4.271
385.0	881.0	1017	1015	998.4	923.4	840.6	771.1	749.9	731.0	757.6	780.6	812.7	839.4	829.0	796.9	742.1	702.8	661.4	616.7	571.1	529.9	484.8	449.7	456.0	421.7	272.5	195.6	154.7	137.7	165.6	334.5	1968	8359	7427	217.9	6.951	4.413	3.279	2.608	2.195	2.017	1.986	2.076	2.138	2.185	2.392	2.322	2.667	2.814	2.643	2.877	3.446	3.241	3.264	2.995	3.085	3.134	3.213	3.155	3.256	3.190	3.320	3.196	3.443	3.318	3.534	3.270	3.392	3.609	4.036	3.831	4.055	4.227	4.274	4.400	3.958	4.408
390.0	840.8	962.8	967.0	962.4	896.0	842.5	780.6	749.1	733.0	747.0	770.8	788.2	801.9	790.7	762.1	720.7	687.7	656.9	620.2	587.7	549.6	507.3	467.1	432.4	428.6	372.5	254.8	186.1	147.8	125.0	135.7	481.7	2283	6014	6642	949.4	14.57	4.651	3.266	2.703	2.204	2.221	2.184	2.175	2.231	2.261	2.356	2.718	2.610	2.593	2.665	3.418	3.097	3.188	2.988	3.067	3.257	3.212	3.129	3.271	3.276	3.217	3.160	3.370	3.073	3.315	3.394	3.589	3.574	3.668	3.743	3.855	4.083	4.208	4.076	4.081	4.352
395.0	803.9	929.4	935.3	922.2	864.1	836.7	790.6	760.1	739.6	745.3	765.5	773.0	775.1	767.4	738.5	695.5	664.4	646.8	616.3	588.5	559.3	526.3	487.1	444.2	406.1	399.4	351.5	236.4	181.0	141.9	113.7	164.7	547.1	1397	3896	7863	1552	17.38	4.599	3.278	2.767	2.307	2.312	2.037	2.280	2.417	2.224	2.486	2.553	2.471	2.427	3.217	3.151	3.213	3.089	2.968	3.248	3.160	3.257	3.289	3.213	3.087	3.212	3.256	3.165	3.331	3.336	3.509	3.533	3.827	3.780	3.850	3.864	4.268	3.980	4.134	4.107
400.0	805.8	885.4	912.2	894.2	858.0	827.1	793.7	766.8	740.5	744.2	748.8	758.5	752.0	746.7	713.5	675.0	650.9	635.2	614.5	585.8	565.1	532.7	496.8	455.7	410.7	380.6	392.5	300.3	212.2	163.5	124.6	108.9	171.8	346.1	1001	5309	7152	241.0	9.865	3.913	3.332	2.612	2.471	2.140	2.395	2.320	2.121	2.540	2.461	2.257	2.401	2.959	2.978	3.190	3.028	3.184	3.241	3.294	3.116	3.162	3.272	3.240	3.281	3.233	3.328	3.179	3.232	3.294	3.754	3.769	3.589	3.702	3.826	3.804	3.616	3.992	4.212
405.0	793.1	875.1	896.8	862.4	839.2	812.0	793.5	771.2	739.5	744.5	748.2	742.5	737.4	721.5	698.6	655.9	636.6	622.8	605.3	583.0	558.1	531.8	505.4	467.5	422.7	380.9	376.2	357.6	256.4	187.9	144.8	109.3	99.20	119.2	253.0	1475	6151	5586	189.7	5.875	3.776	2.928	2.669	2.259	2.369	2.233	2.379	2.605	2.594	2.260	2.505	2.844	2.900	3.135	3.109	3.132	3.231	3.306	3.013	3.007	3.041	3.166	3.233	3.291	3.221	3.167	3.307	3.401	3.410	3.621	3.664	3.458	3.592	3.591	3.726	3.763	4.040
410.0	766.8	842.7	862.0	850.3	833.3	798.7	790.7	767.8	754.4	747.3	747.7	745.3	729.2	696.2	670.8	628.7	614.4	597.8	582.3	566.6	548.4	526.9	505.8	474.7	435.2	394.1	364.6	360.7	327.5	241.6	177.2	132.4	101.9	83.60	95.99	357.3	1680	4517	3943	872.0	13.15	3.880	3.186	2.586	2.394	2.495	2.364	2.596	2.377	2.298	2.533	2.873	2.756	2.999	2.804	2.933	3.186	3.134	3.259	3.105	3.264	3.282	3.378	3.261	3.227	3.246	3.487	3.279	3.413	3.425	3.425	3.567	3.587	3.638	3.546	3.706	4.058
415.0	717.5	808.3	829.2	837.3	813.9	786.9	787.5	768.3	759.1	754.2	749.3	738.9	713.3	671.6	642.1	610.6	585.8	570.6	560.2	544.2	535.4	516.9	500.0	475.1	442.9	405.1	373.9	346.7	344.9	316.6	221.9	162.2	122.2	92.78	74.34	117.4	400.3	1046	2640	5884	1360	15.97	4.000	3.020	2.645	2.606	2.346	2.490	2.487	2.300	2.319	2.749	2.770	3.055	2.922	2.757	2.962	3.126	3.061	3.059	3.257	3.387	3.498	3.271	3.115	3.112	3.455	3.517	3.193	3.242	3.524	3.384	3.514	3.363	3.497	3.437	3.669
420.0	696.9	789.9	819.7	802.0	799.4	774.5	786.3	755.6	760.5	752.4	750.7	726.4	691.9	660.7	624.9	582.2	563.4	546.0	536.0	529.6	517.5	505.3	487.8	474.6	442.6	414.3	382.8	350.5	336.0	338.7	271.1	186.3	139.8	106.2	78.53	72.09	120.8	256.2	680.0	3879	5432	227.9	8.947	3.849	2.989	2.602	2.426	2.503	2.509	2.322	2.376	3.001	2.509	2.976	3.014	2.880	3.149	3.081	3.079	3.140	3.220	3.472	3.446	3.150	3.310	3.294	3.209	3.083	3.037	3.096	3.350	3.671	3.334	3.409	3.506	3.239	3.330
