Sample:	'1
File name:	H2025090810∞£πµ“ª¥Â«≈.FD3
Run date:	'14:58:34, 09/10/2025
Operator:	Administrator
Comment:	'

Instrument
Model:	F-2700 FL Spectrophotometer
Serial number:	23C7-003
ROM Version:	4J14000 07

Instrument parameters
Measurement type:	3-D scan
Data mode:	Fluorescence
EX  Start WL:	220.0 nm
EX  End WL:	600.0 nm
EX Sampling interval:	5.0 nm
EM  Start WL:	230.0 nm
EM  End WL:	650.0 nm
EM Sampling interval:	5.0 nm
Scan speed:	12000 nm/min
EX Slit:	5.0 nm
EM Slit:	5.0 nm
PMT Voltage:	700 V
Response:	Auto 
Corrected spectra:	Off
Contour interval:	50.000

Peak integration
Integration method:	Rectangular
Sensitivity:	1
Threshold:	1.000

Peaks
No.	ApexEX/EM(nm)	Height(Data)
1	225.0/600.0	38.78
2	225.0/620.0	37.63
3	230.0/590.0	38.44
4	230.0/610.0	37.44
5	230.0/625.0	36.37
6	235.0/345.0	618.8
7	235.0/510.0	177.7
8	240.0/260.0	221.9
9	240.0/525.0	166.0
10	245.0/270.0	224.4
11	245.0/405.0	534.9
12	245.0/535.0	135.3
13	250.0/275.0	269.6
14	250.0/545.0	118.8
15	255.0/280.0	373.4
16	255.0/415.0	507.6
17	255.0/560.0	103.4
18	260.0/570.0	84.32
19	265.0/585.0	90.00
20	270.0/600.0	93.44
21	275.0/610.0	104.8
22	280.0/310.0	1534
23	280.0/620.0	97.83
24	285.0/635.0	70.20
25	315.0/355.0	355.7
26	320.0/360.0	358.1
27	325.0/370.0	341.0
28	330.0/375.0	334.3
29	335.0/380.0	337.9
30	350.0/400.0	274.0
31	355.0/405.0	262.2
32	440.0/515.0	19.67
33	505.0/275.0	1.926
34	510.0/280.0	2.564
35	515.0/285.0	2.622
36	550.0/305.0	7.898
37	560.0/310.0	7.942
38	570.0/315.0	8.212
39	575.0/290.0	34.80
40	575.0/320.0	7.722
41	580.0/325.0	7.042

Data points
	220.0	225.0	230.0	235.0	240.0	245.0	250.0	255.0	260.0	265.0	270.0	275.0	280.0	285.0	290.0	295.0	300.0	305.0	310.0	315.0	320.0	325.0	330.0	335.0	340.0	345.0	350.0	355.0	360.0	365.0	370.0	375.0	380.0	385.0	390.0	395.0	400.0	405.0	410.0	415.0	420.0	425.0	430.0	435.0	440.0	445.0	450.0	455.0	460.0	465.0	470.0	475.0	480.0	485.0	490.0	495.0	500.0	505.0	510.0	515.0	520.0	525.0	530.0	535.0	540.0	545.0	550.0	555.0	560.0	565.0	570.0	575.0	580.0	585.0	590.0	595.0	600.0
230.0	20.88	205.2	901.3	442.4	31.23	6.975	5.207	4.409	3.860	3.704	3.243	3.250	2.708	2.516	1.925	1.871	1.608	1.639	1.230	1.171	1.087	1.096	0.999	0.930	0.821	0.825	0.730	0.751	0.706	0.678	0.698	0.597	0.638	0.497	0.528	0.513	0.479	0.455	0.417	0.392	0.389	0.410	0.400	0.386	0.364	0.365	0.447	1.536	3.609	3.965	1.900	0.572	0.308	0.296	0.303	0.303	0.327	0.330	0.299	0.333	0.327	0.330	0.296	0.312	0.338	0.328	0.310	0.330	0.297	0.304	0.361	0.333	0.331	0.330	0.365	0.308	0.359
235.0	31.85	64.59	500.5	1384	436.7	53.78	6.454	5.159	4.028	3.839	3.972	3.659	2.512	2.682	1.883	1.808	1.573	1.520	1.306	1.371	0.918	1.118	1.099	0.882	0.832	0.902	0.752	0.825	0.857	0.631	0.641	0.670	0.626	0.549	0.622	0.461	0.463	0.397	0.495	0.346	0.429	0.424	0.388	0.335	0.485	0.464	0.389	0.656	1.368	3.179	5.142	6.575	3.699	1.082	0.330	0.289	0.360	0.361	0.318	0.373	0.313	0.336	0.334	0.358	0.322	0.313	0.331	0.328	0.371	0.300	0.319	0.367	0.366	0.340	0.341	0.329	0.434
240.0	44.49	48.07	141.9	952.6	1907	369.6	24.64	5.402	5.191	4.217	3.954	4.025	3.208	2.981	1.888	1.972	1.687	1.454	1.306	1.267	1.057	1.156	0.974	0.979	0.902	0.865	0.720	0.697	0.800	0.611	0.729	0.733	0.601	0.591	0.534	0.500	0.430	0.540	0.398	0.405	0.378	0.361	0.410	0.372	0.385	0.461	0.452	0.412	0.520	1.048	2.755	6.912	10.21	7.687	3.079	0.671	0.319	0.336	0.340	0.294	0.310	0.366	0.347	0.327	0.305	0.304	0.423	0.275	0.332	0.333	0.325	0.376	0.357	0.350	0.298	0.315	0.350
245.0	37.97	75.34	69.69	282.8	1553	2186	288.8	12.32	5.362	4.182	3.931	3.808	3.204	2.812	2.168	1.756	1.792	1.608	1.453	1.309	1.138	1.167	0.979	0.944	0.913	0.753	0.745	0.784	0.895	0.669	0.782	0.742	0.579	0.603	0.497	0.473	0.495	0.477	0.485	0.463	0.377	0.425	0.456	0.421	0.370	0.456	0.445	0.592	0.432	0.433	0.849	2.407	6.400	11.29	12.32	7.102	1.950	0.444	0.345	0.340	0.255	0.431	0.318	0.293	0.344	0.305	0.408	0.355	0.260	0.364	0.326	0.378	0.349	0.327	0.316	0.332	0.341
250.0	25.93	55.80	119.3	131.1	443.4	1556	2341	998.1	74.58	5.655	4.954	3.910	3.734	2.917	2.192	1.943	1.867	1.645	1.389	1.313	1.183	1.173	1.024	1.073	0.911	0.851	0.830	0.745	0.838	0.718	0.681	0.592	0.626	0.623	0.532	0.420	0.450	0.466	0.460	0.429	0.475	0.426	0.378	0.412	0.326	0.390	0.409	0.540	0.682	0.704	0.571	0.865	1.709	3.749	7.089	10.53	12.75	10.86	6.103	1.948	0.462	0.364	0.374	0.328	0.394	0.320	0.362	0.363	0.322	0.376	0.333	0.316	0.386	0.311	0.333	0.355	0.352
255.0	21.23	28.00	72.71	187.4	177.5	373.1	1296	3262	1450	86.62	6.160	5.519	3.966	3.357	2.637	2.198	1.953	1.677	1.411	1.346	1.325	1.317	0.989	1.070	0.873	0.988	0.832	0.785	0.781	0.904	0.829	0.677	0.550	0.513	0.597	0.464	0.565	0.494	0.445	0.396	0.423	0.461	0.430	0.353	0.372	0.401	0.359	0.327	0.403	0.587	0.831	1.101	0.953	1.097	1.914	2.730	4.869	11.15	18.35	18.33	9.516	2.304	0.410	0.322	0.426	0.363	0.437	0.372	0.318	0.349	0.313	0.329	0.337	0.328	0.393	0.342	0.337
260.0	19.82	17.71	31.32	140.9	221.9	132.2	339.9	2035	3825	1109	43.55	6.958	4.833	3.703	2.771	2.403	2.483	1.749	1.484	1.344	1.311	1.279	1.108	1.024	1.009	0.930	0.850	0.790	0.792	0.681	0.759	0.759	0.596	0.508	0.513	0.527	0.427	0.485	0.450	0.430	0.496	0.454	0.394	0.436	0.435	0.443	0.329	0.413	0.364	0.367	0.596	1.180	1.442	0.900	0.766	0.865	1.379	3.135	8.680	18.40	24.90	18.98	6.649	1.125	0.381	0.362	0.407	0.357	0.343	0.345	0.359	0.401	0.408	0.335	0.356	0.343	0.316
265.0	17.74	17.61	18.25	57.38	211.0	186.2	105.2	577.4	2928	4060	808.5	17.74	5.807	4.447	3.478	2.501	2.196	1.933	1.746	1.396	1.209	1.483	1.090	1.137	1.022	0.864	0.875	0.877	0.912	0.785	0.745	0.564	0.695	0.604	0.562	0.506	0.477	0.468	0.439	0.430	0.430	0.485	0.402	0.435	0.388	0.409	0.311	0.387	0.246	0.288	0.358	0.694	1.147	1.439	1.250	0.660	0.684	1.005	2.345	5.718	14.31	26.43	26.18	15.29	3.592	0.490	0.402	0.358	0.340	0.385	0.358	0.337	0.445	0.376	0.351	0.323	0.366
270.0	25.94	22.29	20.65	26.11	85.72	224.4	194.3	168.5	812.4	2889	4414	1693	55.01	6.059	4.198	3.142	2.663	2.029	1.884	1.597	1.417	1.330	1.174	1.138	1.042	1.021	0.904	0.790	0.869	0.862	0.762	0.674	0.658	0.575	0.592	0.527	0.486	0.506	0.419	0.445	0.453	0.488	0.415	0.405	0.382	0.427	0.400	0.350	0.308	0.334	0.280	0.413	0.543	0.841	1.362	1.494	1.341	0.811	0.871	1.661	3.621	8.182	15.06	23.05	25.31	18.28	10.44	2.991	0.510	0.409	0.346	0.438	0.407	0.352	0.364	0.371	0.356
275.0	28.34	36.54	32.08	27.37	30.41	87.44	269.6	239.9	220.0	698.3	2406	6134	1048	59.78	5.840	4.164	3.036	2.468	1.942	1.678	1.603	1.422	1.306	1.109	1.037	1.053	1.020	0.815	0.870	0.910	0.796	0.749	0.720	0.653	0.601	0.482	0.542	0.496	0.473	0.442	0.418	0.430	0.417	0.404	0.439	0.495	0.424	0.358	0.327	0.379	0.329	0.320	0.429	0.445	0.567	0.839	1.589	1.926	1.434	0.910	1.224	2.183	3.739	5.710	9.077	20.43	37.50	26.59	14.82	2.915	0.536	0.521	0.377	0.376	0.386	0.398	0.322
280.0	40.49	48.86	54.73	38.86	24.77	35.24	150.5	373.4	189.2	203.8	662.6	3899	6369	778.4	28.53	5.662	3.633	3.190	2.334	1.862	1.645	1.592	1.511	1.362	1.065	1.153	1.043	0.945	0.999	0.916	0.773	0.750	0.698	0.699	0.593	0.574	0.473	0.481	0.478	0.535	0.533	0.417	0.414	0.390	0.381	0.476	0.423	0.429	0.449	0.430	0.360	0.381	0.425	0.353	0.381	0.482	0.800	1.543	2.564	1.872	1.062	0.925	1.255	1.724	2.455	5.847	16.19	32.85	46.08	24.31	8.486	1.098	0.433	0.367	0.384	0.411	0.347
285.0	54.86	80.61	94.84	64.15	38.85	29.77	66.10	288.7	385.5	165.1	253.1	1175	5256	5744	501.2	12.27	5.024	3.456	2.952	1.970	1.820	1.556	1.490	1.233	1.154	1.243	1.032	0.984	1.025	0.860	0.839	0.734	0.635	0.648	0.503	0.614	0.551	0.477	0.481	0.509	0.490	0.460	0.414	0.473	0.456	0.525	0.598	0.631	0.574	0.447	0.446	0.392	0.390	0.499	0.369	0.419	0.577	0.748	1.635	2.622	2.584	1.479	0.938	1.018	1.200	2.011	4.466	9.984	24.94	43.69	46.65	18.77	4.300	0.570	0.425	0.458	0.370
290.0	82.10	152.0	188.3	128.3	72.91	53.14	67.06	155.2	390.3	491.1	343.0	533.3	1622	4484	5359	1539	31.10	5.274	3.446	2.601	2.230	1.816	1.670	1.442	1.378	1.222	1.060	1.059	1.045	1.018	0.911	0.819	0.657	0.651	0.601	0.668	0.614	0.483	0.505	0.495	0.474	0.467	0.474	0.471	0.511	0.521	0.695	0.821	0.837	0.795	0.658	0.598	0.558	0.513	0.495	0.539	0.614	0.657	0.908	1.372	2.204	2.943	3.132	2.304	1.895	1.794	2.432	3.740	7.190	13.65	24.49	34.80	33.38	32.46	12.30	3.776	0.706
295.0	112.3	217.3	277.7	204.0	126.6	91.31	103.6	163.3	285.9	620.6	824.5	615.3	753.6	1248	2936	6886	588.2	36.81	5.168	3.486	2.581	2.127	1.703	1.682	1.388	1.299	1.179	1.152	1.017	1.014	0.981	0.830	0.808	0.740	0.575	0.651	0.548	0.569	0.532	0.462	0.483	0.498	0.537	0.632	0.500	0.699	0.828	1.032	1.098	1.089	0.892	0.843	0.720	0.646	0.630	0.686	0.735	0.818	1.005	1.099	1.493	2.077	3.040	4.351	4.269	3.451	2.986	3.128	3.591	4.986	7.085	8.924	11.65	28.40	51.19	30.16	18.75
300.0	139.6	263.7	351.0	267.0	169.3	132.9	150.0	215.0	328.4	572.8	1098	951.5	730.2	619.6	881.5	4329	6574	467.9	20.83	4.686	3.338	2.624	2.090	1.959	1.457	1.322	1.274	1.116	1.176	1.080	1.031	0.840	0.748	0.777	0.717	0.695	0.682	0.603	0.535	0.496	0.524	0.451	0.511	0.647	0.570	0.742	0.989	1.224	1.304	1.304	1.121	0.937	0.945	0.843	0.858	0.827	0.975	1.117	1.189	1.365	1.601	2.059	2.610	3.659	5.274	5.993	4.824	3.815	3.715	3.786	3.771	3.635	3.959	8.013	19.62	41.22	64.17
305.0	158.5	320.7	427.5	329.8	227.0	187.9	230.4	307.6	465.0	699.7	1144	1419	1059	682.4	526.5	1336	5570	4219	325.7	9.992	4.650	3.092	2.512	2.208	1.698	1.486	1.339	1.167	1.194	0.986	1.033	0.829	0.873	0.864	0.701	0.716	0.664	0.535	0.558	0.591	0.496	0.557	0.566	0.562	0.590	0.920	1.012	1.426	1.627	1.491	1.313	1.160	1.150	1.088	1.092	1.130	1.293	1.434	1.559	1.855	2.165	2.684	3.389	3.738	4.784	6.237	7.898	6.544	5.476	4.850	3.977	3.489	3.183	3.931	6.065	12.20	31.21
310.0	167.1	356.5	489.2	396.5	285.6	256.5	314.4	420.1	571.1	821.1	1159	1494	1534	943.6	604.0	624.3	1710	4085	4677	1292	23.19	4.477	3.286	2.431	2.054	1.750	1.439	1.312	1.259	1.115	1.050	0.853	0.923	0.797	0.776	0.704	0.641	0.545	0.635	0.593	0.545	0.599	0.564	0.608	0.688	0.985	1.148	1.570	1.799	1.760	1.462	1.484	1.427	1.376	1.357	1.441	1.596	1.828	2.175	2.488	2.803	3.437	3.932	4.385	5.323	5.917	7.088	7.769	7.942	7.394	5.604	4.473	3.769	3.836	3.831	4.773	9.064
315.0	167.6	374.6	524.4	445.3	334.4	306.4	364.6	480.0	605.8	848.1	1130	1364	1473	1318	763.0	528.0	701.1	1139	2617	6188	427.4	25.48	4.400	3.339	2.301	1.962	1.495	1.413	1.287	1.146	1.164	0.939	0.906	0.899	0.815	0.745	0.702	0.674	0.634	0.668	0.577	0.642	0.611	0.641	0.686	1.020	1.250	1.668	1.770	1.841	1.585	1.632	1.636	1.603	1.525	1.566	1.779	2.151	2.415	2.718	2.919	3.525	3.984	4.544	5.128	6.021	6.004	6.469	7.115	7.777	8.212	6.359	4.740	4.034	3.642	3.491	4.355
320.0	181.4	395.0	549.4	465.4	366.1	334.6	397.4	504.1	604.1	837.2	1107	1309	1345	1325	995.2	557.7	505.8	482.4	703.0	3760	5590	349.0	13.46	3.830	2.833	2.252	1.551	1.707	1.455	1.446	1.304	1.005	0.913	0.933	0.862	0.707	0.715	0.664	0.640	0.510	0.535	0.614	0.563	0.590	0.703	1.026	1.380	1.637	2.048	1.899	1.739	1.827	1.743	1.627	1.734	1.660	1.967	2.245	2.554	2.917	2.896	3.600	4.126	4.499	4.994	5.589	6.042	6.635	6.743	6.841	7.496	7.722	6.566	5.102	3.963	3.554	3.445
325.0	174.7	389.9	567.2	490.1	376.8	339.6	396.6	500.7	588.6	784.3	1036	1226	1250	1137	1102	666.6	463.3	338.1	237.6	1003	4571	3246	51.27	7.245	3.804	2.887	1.958	1.654	1.452	1.506	1.361	1.159	0.959	0.975	0.866	0.772	0.786	0.721	0.651	0.588	0.592	0.600	0.580	0.656	0.708	1.032	1.294	1.635	2.009	1.937	1.820	1.927	1.770	1.681	1.633	1.791	1.934	2.373	2.620	2.772	2.953	3.172	3.613	4.273	5.071	5.363	5.858	6.187	6.365	6.004	6.211	6.256	7.042	6.585	4.906	3.718	3.311
330.0	171.6	387.6	582.5	557.5	434.4	357.1	375.2	460.2	538.6	695.0	911.5	1082	1108	976.6	877.3	779.6	543.6	311.1	154.8	279.9	1206	3239	3906	1140	19.46	3.775	2.519	1.956	1.699	1.442	1.408	1.173	1.042	0.936	0.868	0.760	0.688	0.739	0.662	0.560	0.604	0.655	0.621	0.700	0.690	1.035	1.292	1.796	2.087	2.070	2.047	2.190	2.037	1.962	1.587	1.665	1.945	2.160	2.298	2.501	2.648	2.988	3.341	3.860	4.323	4.757	5.158	5.422	5.980	5.726	5.394	5.123	5.248	5.670	5.442	4.962	4.256
335.0	171.1	379.9	586.8	618.4	518.2	393.8	366.0	421.5	486.5	617.4	806.8	946.9	976.3	875.6	739.0	629.7	662.1	394.0	162.6	142.9	326.1	778.3	2167	5476	1669	23.69	3.763	2.732	2.204	1.696	1.496	1.352	1.187	0.979	0.872	0.852	0.763	0.624	0.634	0.604	0.605	0.616	0.640	0.671	0.774	1.007	1.306	1.764	2.080	2.222	2.063	2.497	2.366	2.109	1.890	1.733	1.776	1.947	2.263	2.206	2.525	2.736	3.136	3.363	3.904	4.100	4.501	4.612	5.184	5.110	4.803	4.644	4.730	4.665	4.119	4.217	4.975
340.0	155.0	368.2	569.9	613.5	535.5	411.3	357.7	406.1	450.9	561.9	725.7	846.3	882.1	802.0	676.4	540.3	557.7	509.2	212.3	127.9	143.9	226.5	563.9	3240	5308	321.3	14.34	3.544	2.738	1.835	1.696	1.328	1.367	1.059	0.959	0.840	0.842	0.779	0.609	0.604	0.646	0.545	0.569	0.682	0.668	0.984	1.303	1.722	2.103	2.231	2.139	2.371	2.543	2.125	1.964	1.666	1.703	1.896	2.225	2.185	2.354	2.555	2.917	3.001	3.560	3.633	3.779	4.317	4.549	4.580	4.534	4.518	4.273	4.101	3.684	3.435	3.882
345.0	147.3	327.2	560.3	618.8	539.6	405.6	354.9	380.9	428.2	524.6	652.0	757.0	794.3	733.2	620.2	503.3	446.4	496.1	326.9	151.1	118.3	119.5	177.3	859.4	3912	4314	255.4	7.321	3.267	2.407	1.783	1.377	1.272	1.030	0.903	0.922	0.881	0.755	0.596	0.654	0.624	0.607	0.587	0.718	0.739	0.960	1.204	1.555	2.063	2.213	2.075	2.504	2.493	2.238	1.961	1.640	1.767	1.907	2.060	2.071	2.170	2.452	2.690	2.943	3.219	3.421	3.484	3.810	3.987	4.330	4.098	4.010	4.088	3.572	3.379	3.151	3.305
350.0	145.6	308.0	508.2	598.3	562.7	443.3	357.0	373.9	403.2	479.8	582.1	672.7	699.4	656.4	573.7	473.9	407.6	380.8	382.4	278.6	156.9	121.1	114.8	245.1	1020	2928	3303	1080	18.58	3.374	2.505	1.858	1.486	1.192	0.972	0.928	0.826	0.748	0.693	0.676	0.636	0.558	0.595	0.688	0.739	0.849	1.079	1.492	1.842	2.095	2.050	2.433	2.616	2.296	1.986	1.647	1.744	1.816	1.930	2.000	2.093	2.296	2.515	2.658	3.016	3.013	3.188	3.486	3.625	3.753	3.893	3.695	3.669	3.431	3.283	2.971	3.012
355.0	132.6	283.3	474.4	578.6	574.6	467.6	382.1	382.0	400.9	459.6	533.1	608.3	625.1	605.5	534.0	457.5	400.4	348.5	314.0	355.7	275.4	158.6	126.9	130.7	279.5	694.4	1621	4434	1656	23.97	3.684	2.283	1.688	1.201	1.189	1.070	0.913	0.803	0.723	0.665	0.595	0.559	0.605	0.623	0.680	0.798	1.065	1.387	1.677	1.891	1.808	2.414	2.502	2.442	2.107	2.063	1.833	1.941	1.965	2.168	1.975	2.159	2.412	2.449	2.640	2.724	2.925	3.051	3.338	3.552	3.329	3.609	3.268	3.404	3.179	3.104	3.152
360.0	120.5	278.8	444.0	562.8	562.2	483.9	395.6	391.6	406.9	452.8	516.5	572.7	590.5	570.8	517.7	449.4	404.1	352.2	303.8	317.1	358.1	226.8	152.6	123.2	129.7	196.7	414.8	2391	4580	319.6	14.90	3.103	2.130	1.532	1.257	1.076	1.021	0.781	0.712	0.693	0.644	0.615	0.621	0.644	0.735	0.785	1.042	1.304	1.639	1.763	2.012	2.320	2.528	2.566	2.132	1.825	2.006	2.073	2.028	2.119	2.217	2.400	2.284	2.430	2.475	2.663	2.834	2.785	2.949	3.103	3.367	3.219	3.399	3.374	2.940	3.025	3.165
365.0	120.1	267.8	433.5	541.4	556.1	482.8	410.0	409.4	419.8	462.7	507.5	553.8	563.3	541.8	506.4	451.7	409.2	366.7	320.7	296.4	343.4	325.3	194.6	142.1	112.8	103.8	132.8	620.7	3052	3986	263.9	7.182	2.899	1.823	1.356	1.085	0.896	0.819	0.825	0.752	0.650	0.728	0.640	0.597	0.710	0.790	0.904	1.313	1.592	1.669	1.878	2.153	2.387	2.586	2.112	1.931	2.204	2.021	2.029	2.158	2.210	2.294	2.404	2.661	2.601	2.590	2.936	2.831	2.766	3.031	3.162	3.098	3.100	2.955	2.836	2.944	3.098
370.0	111.8	243.6	408.2	515.6	554.8	501.3	435.5	432.9	436.8	466.7	508.8	537.4	538.2	526.9	491.3	450.5	420.5	385.7	350.4	318.5	314.2	341.0	302.4	192.5	137.3	104.4	89.14	180.5	778.7	2446	2949	1056	18.04	2.724	1.783	1.360	1.106	0.843	0.798	0.766	0.715	0.649	0.734	0.666	0.706	0.780	0.892	1.271	1.560	1.635	1.766	2.112	2.411	2.490	2.237	2.095	2.247	2.097	2.068	2.240	2.336	2.334	2.436	2.509	2.645	2.485	2.633	2.716	2.814	3.022	3.134	3.138	3.164	3.088	3.075	2.998	3.138
375.0	118.5	239.0	390.2	505.2	552.7	514.2	463.0	449.2	452.0	484.5	509.7	523.1	526.9	511.1	480.2	451.8	427.8	403.7	373.8	345.3	324.8	312.5	334.3	292.5	182.9	132.5	101.1	98.42	212.7	576.6	1263	3763	1638	22.92	2.666	1.774	1.373	0.993	0.904	0.929	0.720	0.656	0.790	0.659	0.742	0.859	0.882	1.149	1.539	1.621	1.923	2.095	2.462	2.525	2.383	2.167	2.409	2.204	2.184	2.307	2.266	2.380	2.467	2.553	2.624	2.599	2.507	2.784	2.656	2.976	3.132	3.174	3.220	3.123	3.153	3.238	3.100
380.0	117.3	225.0	368.2	492.7	542.5	523.4	478.5	462.0	464.2	484.7	508.7	521.1	520.1	500.9	480.0	448.6	431.0	414.4	387.6	361.2	341.3	317.5	309.7	337.9	253.5	157.4	119.3	95.70	100.1	164.1	318.2	1797	3787	283.1	15.12	2.489	1.703	1.155	1.025	0.904	0.699	0.678	0.663	0.647	0.734	0.763	0.942	1.182	1.563	1.531	1.724	2.086	2.374	2.439	2.319	2.039	2.382	2.291	2.239	2.296	2.433	2.433	2.445	2.486	2.610	2.623	2.442	2.607	2.879	2.696	2.854	3.167	3.078	2.923	3.042	3.123	3.157
385.0	118.5	225.4	371.4	467.9	533.1	528.2	489.7	480.2	480.2	494.0	509.4	518.0	516.2	496.0	471.9	447.2	431.2	419.3	395.4	377.8	355.9	328.9	307.3	315.2	311.7	202.2	142.4	108.7	87.81	83.72	104.5	454.1	2176	3113	238.5	7.596	2.156	1.354	1.179	0.915	0.811	0.673	0.657	0.736	0.662	0.751	0.964	1.305	1.419	1.459	1.623	2.165	2.344	2.480	2.394	2.174	2.393	2.362	2.235	2.433	2.417	2.480	2.557	2.679	2.602	2.483	2.515	2.601	2.840	2.736	2.812	2.958	2.939	3.081	3.036	3.168	3.255
390.0	119.9	228.8	368.1	469.3	534.6	532.9	504.5	489.0	483.9	494.3	506.5	512.5	504.6	484.4	467.8	441.6	429.0	420.5	404.9	383.9	367.3	344.1	319.3	298.9	300.6	273.8	190.5	135.1	105.5	83.54	69.94	132.4	540.8	1653	2123	881.9	15.80	2.307	1.387	1.069	0.825	0.846	0.763	0.788	0.768	0.810	0.913	1.276	1.439	1.494	1.647	2.033	2.471	2.425	2.425	2.306	2.363	2.378	2.412	2.430	2.469	2.497	2.471	2.516	2.448	2.427	2.431	2.562	2.649	2.748	2.694	2.950	3.016	3.227	2.947	3.066	3.238
395.0	123.8	226.4	356.1	464.5	523.9	524.3	515.2	503.5	487.9	495.6	500.5	509.8	498.3	479.8	458.3	439.0	424.3	415.8	408.8	389.0	374.6	354.1	331.5	304.6	281.4	275.7	261.2	179.3	131.0	101.6	77.88	73.18	150.0	389.5	769.9	2485	1397	21.62	2.218	1.355	1.063	0.994	0.858	0.815	0.804	0.872	0.970	1.203	1.399	1.492	1.691	2.231	2.301	2.447	2.383	2.240	2.285	2.421	2.419	2.421	2.374	2.437	2.411	2.483	2.463	2.462	2.508	2.569	2.521	2.901	2.822	2.919	2.786	3.029	2.877	3.164	3.372
400.0	116.0	220.5	359.2	466.1	522.3	533.9	517.2	510.1	491.6	492.5	497.7	501.0	483.0	474.7	448.4	430.2	420.3	410.1	403.8	385.8	375.6	357.4	340.9	312.9	284.3	263.1	274.0	232.6	154.8	117.7	89.98	69.30	70.78	111.7	192.5	1036	2634	937.9	13.97	2.060	1.292	1.010	0.896	0.842	0.799	0.873	0.926	1.174	1.349	1.456	1.628	2.072	2.257	2.356	2.381	2.354	2.456	2.477	2.241	2.398	2.678	2.432	2.524	2.646	2.498	2.503	2.474	2.547	2.617	2.820	2.638	2.864	2.855	2.986	2.932	2.969	3.354
405.0	117.0	222.6	349.8	458.2	505.4	534.9	526.3	505.0	497.8	496.5	495.3	488.1	475.3	459.1	438.6	426.3	410.8	406.1	397.3	384.8	373.2	359.2	341.5	318.9	289.9	262.2	253.5	262.2	194.5	135.9	103.1	78.02	59.98	55.33	64.55	256.4	1293	2383	217.2	8.164	1.739	1.171	0.963	0.910	0.916	0.895	1.022	1.179	1.390	1.522	1.623	2.060	2.272	2.300	2.205	2.303	2.497	2.512	2.386	2.344	2.576	2.583	2.375	2.534	2.372	2.497	2.418	2.449	2.621	2.578	2.669	2.684	2.623	2.792	2.714	2.792	3.257
410.0	111.8	223.3	347.6	450.3	504.8	523.3	520.0	504.8	494.4	495.4	488.4	481.8	464.0	446.4	428.2	408.2	396.6	390.3	384.9	374.1	364.2	353.8	338.1	319.9	294.9	268.4	245.6	244.1	235.2	178.3	124.4	92.87	68.84	51.77	42.10	76.45	315.2	1078	1581	845.7	15.35	1.787	1.161	1.091	0.856	1.012	1.036	1.221	1.422	1.501	1.667	1.889	2.298	2.347	2.234	2.300	2.397	2.450	2.279	2.481	2.531	2.582	2.430	2.553	2.479	2.495	2.320	2.378	2.484	2.565	2.499	2.450	2.589	2.623	2.853	2.883	2.918
415.0	110.7	217.4	340.5	434.7	487.2	514.6	499.2	507.6	489.1	482.9	486.2	465.8	449.5	428.9	412.4	392.6	380.1	373.8	366.0	362.3	347.3	339.7	329.5	313.9	297.2	270.8	249.0	231.0	224.1	222.1	156.4	108.5	81.95	60.94	45.38	42.17	87.42	252.1	503.5	1654	1166	21.58	1.815	1.230	0.941	1.042	1.006	1.168	1.402	1.558	1.651	1.920	2.213	2.194	2.295	2.403	2.348	2.635	2.226	2.629	2.425	2.604	2.430	2.210	2.473	2.366	2.373	2.231	2.269	2.417	2.426	2.295	2.661	2.579	2.696	2.689	2.802
