Sample:	'1
File name:	g2025082005化工北路.FD3
Run date:	'16:03:28, 08/20/2025
Operator:	Administrator
Comment:	'

Instrument
Model:	F-2700 FL Spectrophotometer
Serial number:	23B8-004
ROM Version:	4J14000 07

Instrument parameters
Measurement type:	3-D scan
Data mode:	Fluorescence
EX  Start WL:	220.0 nm
EX  End WL:	600.0 nm
EX Sampling interval:	5.0 nm
EM  Start WL:	230.0 nm
EM  End WL:	650.0 nm
EM Sampling interval:	5.0 nm
Scan speed:	12000 nm/min
EX Slit:	5.0 nm
EM Slit:	5.0 nm
PMT Voltage:	700 V
Response:	Auto 
Corrected spectra:	Off
Contour interval:	50.000

Peak integration
Integration method:	Rectangular
Sensitivity:	1
Threshold:	1.000

Peaks
No.	ApexEX/EM(nm)	Height(Data)
1	225.0/625.0	30.08
2	230.0/585.0	51.04
3	235.0/620.0	32.18
4	240.0/265.0	359.3
5	240.0/345.0	2461
6	240.0/525.0	313.2
7	245.0/270.0	365.8
8	245.0/535.0	252.7
9	250.0/275.0	486.7
10	250.0/550.0	213.0
11	255.0/280.0	593.9
12	255.0/560.0	178.4
13	260.0/435.0	1244
14	260.0/575.0	143.9
15	265.0/585.0	125.7
16	270.0/300.0	1155
17	270.0/600.0	113.8
18	275.0/610.0	91.19
19	280.0/625.0	79.79
20	300.0/340.0	5337
21	490.0/340.0	42.69
22	505.0/275.0	3.157
23	515.0/280.0	3.430
24	520.0/285.0	4.002
25	530.0/290.0	4.411
26	540.0/295.0	5.450
27	545.0/300.0	6.369
28	550.0/305.0	6.529

Data points
	220.0	225.0	230.0	235.0	240.0	245.0	250.0	255.0	260.0	265.0	270.0	275.0	280.0	285.0	290.0	295.0	300.0	305.0	310.0	315.0	320.0	325.0	330.0	335.0	340.0	345.0	350.0	355.0	360.0	365.0	370.0	375.0	380.0	385.0	390.0	395.0	400.0	405.0	410.0	415.0	420.0	425.0	430.0	435.0	440.0	445.0	450.0	455.0	460.0	465.0	470.0	475.0	480.0	485.0	490.0	495.0	500.0	505.0	510.0	515.0	520.0	525.0	530.0	535.0	540.0	545.0	550.0	555.0	560.0	565.0	570.0	575.0	580.0	585.0	590.0	595.0	600.0
230.0	19.43	550.3	1538	504.3	20.11	3.989	3.341	3.740	2.975	3.434	2.910	2.727	2.702	2.494	2.600	2.076	2.106	1.807	1.647	1.338	1.108	0.872	0.781	0.758	0.660	0.626	0.588	0.524	0.539	0.448	0.410	0.482	0.358	0.352	0.309	0.350	0.313	0.294	0.261	0.260	0.224	0.279	0.259	0.210	0.145	0.170	0.575	2.787	5.623	4.770	1.958	0.391	0.105	0.138	0.118	0.097	0.104	0.101	0.111	0.139	0.142	0.113	0.121	0.072	0.128	0.105	0.099	0.093	0.080	0.104	0.085	0.084	0.109	0.081	0.093	0.060	0.059
235.0	49.11	158.9	1050	2061	523.2	43.76	4.396	3.518	3.227	3.717	3.140	3.247	2.465	2.956	2.285	2.473	1.895	2.256	1.702	1.317	1.087	0.761	0.757	0.783	0.697	0.665	0.589	0.652	0.613	0.438	0.390	0.426	0.446	0.397	0.308	0.371	0.381	0.261	0.299	0.210	0.208	0.248	0.293	0.183	0.324	0.194	0.284	0.834	2.284	4.705	7.745	8.755	4.619	1.021	0.222	0.093	0.158	0.095	0.102	0.104	0.138	0.064	0.105	0.046	0.115	0.140	0.111	0.148	0.059	0.153	0.101	0.094	0.041	0.144	0.064	0.182	0.088
240.0	78.70	97.33	322.2	1820	2563	430.9	24.29	5.056	3.525	4.415	3.310	3.265	2.986	3.224	2.625	2.460	2.154	1.881	1.748	1.457	1.273	0.814	0.697	0.816	0.789	0.639	0.748	0.563	0.667	0.386	0.637	0.412	0.467	0.340	0.458	0.361	0.271	0.335	0.223	0.253	0.389	0.260	0.239	0.226	0.319	0.391	0.303	0.329	0.702	1.430	4.128	10.49	14.41	10.89	4.029	0.674	0.170	0.205	0.081	0.084	0.083	0.098	0.126	0.125	0.127	0.082	0.091	0.131	0.084	0.184	0.124	0.106	0.126	0.081	0.122	0.113	0.112
245.0	66.29	138.4	127.0	619.7	2822	2893	328.8	12.61	5.371	4.367	3.564	3.984	3.414	3.432	2.467	2.293	2.254	1.755	1.846	1.577	1.104	0.729	0.883	0.893	0.742	0.790	0.718	0.685	0.666	0.555	0.413	0.480	0.506	0.386	0.365	0.384	0.286	0.372	0.279	0.311	0.290	0.185	0.183	0.203	0.297	0.435	0.495	0.498	0.349	0.418	1.090	3.369	9.247	17.29	18.59	10.80	3.254	0.371	0.145	0.100	0.133	0.048	0.150	0.073	0.079	0.138	0.090	0.076	0.049	0.111	0.164	0.066	0.052	0.069	0.087	0.225	0.191
250.0	31.35	100.6	187.0	214.4	892.0	2834	3746	1254	76.95	6.876	6.042	5.296	4.167	3.281	2.786	2.887	2.597	2.449	1.966	1.445	1.132	0.792	0.989	0.925	0.734	0.825	0.695	0.675	0.667	0.575	0.555	0.436	0.460	0.353	0.436	0.286	0.380	0.319	0.365	0.245	0.295	0.204	0.288	0.194	0.231	0.295	0.349	0.576	0.666	0.625	0.651	1.016	2.301	5.317	10.55	16.89	22.88	19.85	11.99	3.605	0.498	0.130	0.166	0.141	0.090	0.162	0.121	0.110	0.129	0.129	0.114	0.167	0.086	0.109	0.139	0.118	0.158
255.0	18.11	38.65	144.6	290.9	278.9	715.2	2847	6266	1821	87.62	9.393	7.401	5.846	4.049	3.559	2.963	3.420	2.551	2.146	1.564	1.329	1.203	0.965	1.028	0.886	0.855	0.728	0.731	0.802	0.585	0.631	0.565	0.455	0.414	0.524	0.352	0.299	0.302	0.177	0.256	0.269	0.237	0.295	0.170	0.209	0.232	0.303	0.310	0.380	0.666	1.190	1.290	0.985	1.531	2.500	4.089	7.549	17.18	35.70	30.92	19.69	4.585	0.388	0.207	0.159	0.233	0.197	0.098	0.169	0.091	0.081	0.133	0.095	0.175	0.134	0.137	0.157
260.0	14.73	26.40	61.19	252.4	295.3	213.1	846.5	4958	7388	1407	43.32	9.076	6.870	5.018	4.169	3.472	3.440	2.523	2.245	1.683	1.512	1.219	1.030	1.028	0.845	0.674	0.730	0.653	0.884	0.648	0.824	0.607	0.493	0.451	0.392	0.347	0.295	0.290	0.264	0.257	0.229	0.296	0.406	0.226	0.252	0.319	0.219	0.151	0.220	0.323	0.693	1.404	1.726	1.141	0.754	1.154	1.897	4.609	14.03	29.50	47.36	30.10	16.11	2.570	0.201	0.272	0.195	0.215	0.166	0.137	0.075	0.171	0.171	0.162	0.116	0.193	0.111
265.0	20.94	15.38	27.17	111.1	359.3	229.4	227.8	1607	7416	7704	237.4	18.89	8.809	7.063	4.837	4.129	3.567	3.100	2.412	2.178	1.796	1.273	1.132	1.011	0.947	0.803	0.921	0.804	0.789	0.770	0.683	0.675	0.632	0.527	0.416	0.354	0.247	0.347	0.319	0.223	0.362	0.270	0.373	0.262	0.315	0.296	0.164	0.167	0.193	0.200	0.358	0.687	1.656	1.982	1.403	0.758	0.640	1.219	3.428	8.247	22.21	45.06	59.93	27.46	11.39	1.051	0.298	0.241	0.170	0.183	0.114	0.285	0.192	0.129	0.110	0.228	0.145
270.0	35.07	36.97	34.63	46.50	170.1	365.8	273.9	416.5	2285	7197	9249	2715	64.28	10.07	6.678	5.396	3.920	3.666	2.628	2.490	1.866	1.435	1.214	1.121	0.962	0.945	0.947	0.820	0.751	0.782	0.729	0.615	0.629	0.479	0.533	0.426	0.361	0.339	0.424	0.280	0.442	0.339	0.326	0.302	0.363	0.339	0.243	0.319	0.227	0.253	0.248	0.340	0.605	1.110	1.655	2.032	1.736	1.128	1.138	2.136	5.354	12.39	25.67	38.35	53.61	47.16	18.37	8.893	1.134	0.290	0.205	0.300	0.140	0.199	0.215	0.152	0.177
275.0	88.97	99.72	80.70	47.16	65.06	171.0	486.7	350.2	579.6	1787	6361	9999.9	1330	70.10	10.73	6.994	5.217	4.242	3.891	2.525	1.946	1.714	1.511	1.236	1.160	1.041	0.938	0.963	0.971	0.694	0.710	0.659	0.580	0.700	0.490	0.514	0.492	0.438	0.380	0.331	0.442	0.341	0.385	0.396	0.385	0.382	0.459	0.480	0.360	0.365	0.293	0.333	0.372	0.468	0.664	1.018	2.062	3.157	2.483	1.360	1.618	3.196	6.098	9.212	14.84	29.03	60.55	83.19	29.55	11.13	0.907	0.268	0.373	0.208	0.255	0.225	0.143
280.0	131.3	184.9	144.8	72.69	53.76	78.49	310.5	593.9	317.9	506.8	1821	9483	9999.9	965.8	34.81	9.733	6.854	5.113	4.538	3.153	2.324	1.812	1.689	1.297	1.289	1.047	0.962	1.069	0.826	0.871	0.720	0.712	0.786	0.827	0.564	0.758	0.494	0.536	0.383	0.410	0.451	0.462	0.525	0.442	0.386	0.613	0.717	0.674	0.579	0.437	0.479	0.355	0.373	0.461	0.410	0.585	0.917	2.077	3.246	3.430	1.839	1.263	1.979	2.666	3.966	7.553	19.20	50.22	81.24	81.40	25.16	5.194	0.455	0.376	0.218	0.222	0.180
285.0	205.8	238.5	191.5	115.7	71.69	70.07	149.3	531.9	572.9	297.6	574.4	2972	9999.9	8744	132.3	16.67	9.453	6.684	4.777	3.438	2.833	2.160	1.712	1.534	1.495	1.414	1.233	1.049	1.024	0.870	0.697	0.690	0.861	0.858	0.689	0.865	0.615	0.658	0.525	0.516	0.494	0.516	0.494	0.600	0.632	0.826	0.924	0.794	0.753	0.661	0.517	0.511	0.377	0.390	0.448	0.462	0.593	0.901	1.715	3.427	4.002	2.550	1.643	1.511	1.915	2.786	5.174	12.97	30.36	65.14	94.88	34.37	17.90	2.019	0.391	0.256	0.369
290.0	271.9	325.1	288.5	187.0	115.2	99.56	135.3	282.8	634.0	669.1	440.3	917.4	3185	9736	9999.9	2212	39.28	9.404	6.335	4.624	3.303	2.690	2.070	1.821	1.772	1.486	1.375	1.041	1.119	1.102	0.888	0.952	0.852	0.853	0.828	0.840	0.795	0.700	0.567	0.586	0.532	0.585	0.639	0.649	0.843	0.977	1.043	1.178	1.132	0.916	0.792	0.671	0.656	0.598	0.576	0.707	0.751	0.854	1.082	1.721	2.648	3.502	4.411	3.343	2.555	2.281	2.643	4.205	8.049	16.89	32.70	44.89	67.61	58.42	47.12	12.52	2.625
295.0	315.9	409.7	369.0	246.4	161.7	143.3	168.9	237.7	395.9	835.5	883.3	608.5	997.0	2438	6834	9999.9	732.5	41.27	9.818	6.462	4.285	3.373	2.499	2.177	1.934	1.660	1.443	1.259	1.183	1.112	1.095	0.898	0.824	0.920	0.901	0.905	0.795	0.721	0.749	0.631	0.479	0.682	0.812	0.727	0.896	1.099	1.193	1.494	1.358	1.092	1.084	0.949	0.862	0.935	0.835	0.793	1.074	1.005	1.054	1.306	1.689	2.113	3.007	4.843	5.450	4.502	3.175	2.913	3.405	5.170	8.697	11.09	16.92	26.80	63.58	95.98	35.71
300.0	320.4	461.8	423.9	286.2	203.7	190.1	210.5	263.9	361.3	623.5	1155	812.1	590.6	771.4	1903	9256	9999.9	563.3	22.72	8.778	5.285	3.927	2.937	2.536	2.160	2.035	1.737	1.274	1.363	1.107	1.039	0.961	0.863	1.000	0.965	0.959	0.792	0.838	0.726	0.709	0.523	0.637	0.728	0.777	0.949	1.171	1.318	1.536	1.626	1.303	1.254	1.029	1.031	1.010	1.036	0.990	1.202	1.186	1.294	1.402	1.640	1.747	2.429	3.263	4.794	6.369	5.402	3.845	2.998	3.160	3.779	3.787	4.785	6.961	17.66	46.21	80.25
305.0	330.1	481.5	465.1	323.6	247.7	222.0	248.3	303.8	391.1	546.4	969.3	1225	667.1	466.9	594.7	2772	9999.9	5384	81.12	15.76	7.958	5.458	4.274	2.694	2.634	2.145	1.944	1.435	1.629	1.219	1.065	1.024	0.973	0.925	0.939	0.903	1.066	0.785	0.861	0.764	0.777	0.810	0.785	0.742	1.097	1.061	1.425	1.887	1.628	1.507	1.273	1.243	1.100	1.131	1.187	1.148	1.235	1.427	1.432	1.767	1.971	2.029	2.415	2.999	3.601	5.086	6.529	6.515	4.516	3.340	2.866	2.595	2.471	2.671	4.975	11.52	25.84
310.0	359.3	496.9	516.3	395.0	312.4	299.4	319.6	369.8	462.4	589.8	799.3	1152	1132	639.5	452.7	854.4	3128	8047	7871	1609	35.38	10.25	5.494	3.790	2.891	2.770	2.188	1.815	1.840	1.329	1.291	1.127	1.095	1.145	1.061	0.971	0.968	0.903	0.746	0.885	0.791	0.936	0.790	0.885	1.096	1.253	1.505	2.009	1.907	1.876	1.846	2.172	2.068	2.316	2.211	2.207	2.355	2.218	2.226	2.456	2.593	2.919	3.234	3.608	4.121	4.608	5.502	6.495	6.863	6.952	5.585	4.400	3.890	3.818	4.097	5.545	8.705
315.0	471.1	662.7	696.6	627.2	578.5	538.1	485.5	550.1	657.7	824.5	1027	1237	1492	1293	990.9	949.6	1380	2565	6426	9999.9	528.3	43.81	10.73	5.508	4.247	3.798	2.884	2.524	2.241	1.768	1.712	1.478	1.137	1.235	1.253	1.199	1.236	1.088	1.153	1.124	1.162	1.192	1.122	1.390	1.576	1.998	2.437	3.375	3.899	4.206	4.954	6.285	7.331	8.012	8.538	7.590	7.859	6.609	5.441	5.634	6.032	6.788	7.150	8.136	8.881	9.685	9.965	11.09	11.66	12.70	15.22	15.51	15.32	15.04	14.97	15.68	17.56
320.0	679.8	925.9	1045	932.0	1056	1006	906.8	832.6	987.9	1236	1530	1767	2055	2438	2366	2101	2160	2126	2852	9169	9424	429.3	23.41	9.197	6.137	4.713	3.829	3.267	2.544	2.301	2.021	2.013	1.612	1.527	1.615	1.611	1.509	1.507	1.591	1.623	1.920	1.795	1.700	2.146	2.661	3.575	4.468	6.056	7.331	8.388	10.11	13.73	16.24	18.06	18.58	17.87	17.00	13.22	11.16	10.73	11.75	12.95	14.65	15.47	17.51	18.73	19.09	20.31	22.23	23.71	26.94	30.70	33.19	34.04	33.90	34.84	36.94
325.0	850.3	1218	1359	1390	1452	1370	1188	1042	1258	1560	1960	2292	2599	3006	3417	3119	3003	2600	2240	3878	9999.9	4007	63.27	13.41	7.608	5.913	4.578	3.665	3.290	2.915	2.659	2.237	1.990	1.886	1.875	1.666	1.809	1.749	1.957	2.120	2.440	2.244	2.494	2.740	3.488	4.431	6.008	7.879	10.19	11.52	14.11	19.42	23.23	25.91	26.71	24.94	24.25	18.88	15.41	15.38	17.08	18.14	20.88	21.88	24.50	26.07	26.62	29.13	30.93	33.61	37.05	40.31	44.84	50.63	51.42	52.32	54.90
330.0	988.1	1401	1717	1750	1766	1692	1410	1215	1442	1807	2234	2641	3011	3434	3880	4000	3783	3133	2432	2333	3549	6774	6506	1283	22.62	8.292	5.655	4.763	3.852	3.503	2.941	2.471	2.315	2.098	2.035	1.987	2.201	2.122	2.264	2.345	2.540	2.711	2.776	3.217	3.996	5.353	6.850	9.693	12.23	13.95	16.86	23.94	28.40	31.33	32.60	30.46	29.11	22.65	18.53	18.38	19.98	22.29	24.40	26.70	29.05	30.15	32.50	34.55	36.95	40.16	44.51	48.37	53.93	58.82	63.09	64.64	68.89
335.0	1142	1681	2082	2166	2243	2126	1752	1460	1722	2146	2635	3135	3644	4167	4608	4842	4963	4055	3033	2416	1606	1792	5569	9501	426.5	23.62	8.377	6.279	5.058	4.536	3.865	3.112	2.854	2.479	2.263	2.284	2.264	2.526	2.631	2.683	2.944	3.139	3.310	3.898	4.888	6.157	8.459	11.87	14.58	17.35	21.03	30.00	35.44	39.37	40.21	38.44	35.79	28.25	22.59	23.13	24.73	27.28	30.21	32.67	35.68	37.34	39.93	42.93	46.55	50.61	54.24	60.30	67.02	73.81	77.23	81.26	87.11
340.0	1212	1785	2199	2386	2428	2329	1890	1598	1861	2279	2814	3335	3884	4452	4957	5136	5337	4560	3342	2550	1241	611.8	1602	7841	7927	354.8	14.14	7.808	5.815	5.014	3.963	3.221	2.721	2.699	2.531	2.219	2.405	2.781	2.707	2.999	2.949	3.382	3.391	4.403	5.132	6.827	8.729	12.57	16.04	19.16	22.96	32.05	37.21	41.83	42.69	40.59	39.17	31.37	24.93	24.44	26.52	28.71	32.20	35.12	38.28	40.50	43.01	46.75	50.76	54.21	59.26	65.15	73.18	79.22	83.80	87.38	92.33
345.0	1159	1753	2169	2363	2461	2344	1877	1589	1822	2249	2726	3236	3778	4328	4799	4973	5075	4521	3387	2499	1144	365.0	453.5	2458	8903	3406	52.46	10.35	6.577	5.655	4.231	3.544	3.112	2.767	2.533	2.415	2.320	2.741	2.743	2.858	2.991	3.116	3.536	4.179	4.781	6.515	8.233	11.65	15.81	18.00	22.69	31.52	36.46	41.34	41.78	39.36	37.74	30.01	23.63	23.64	26.50	29.01	31.67	34.45	36.88	39.36	41.57	44.36	48.54	52.17	57.01	63.21	71.21	75.72	80.64	84.62	87.21
350.0	1127	1650	2097	2293	2405	2308	1895	1582	1788	2148	2581	3040	3528	4053	4482	4635	4680	4131	3308	2478	1114	347.9	231.9	638.6	2733	5975	5585	1135	20.14	7.296	5.196	3.817	3.262	2.979	2.490	2.345	2.327	2.539	2.555	2.702	2.855	3.108	3.439	3.732	4.632	5.896	7.758	11.06	14.43	16.52	20.57	28.99	34.29	38.59	38.65	37.13	35.32	27.96	22.47	22.27	24.63	26.43	29.14	31.33	34.04	36.12	37.58	40.82	44.09	47.71	52.51	57.95	65.35	69.91	73.96	77.85	80.47
355.0	1020	1551	1992	2228	2357	2303	1906	1593	1764	2075	2462	2857	3302	3793	4183	4318	4370	3806	3040	2471	1190	396.7	231.0	268.7	696.8	1485	4813	8123	395.0	20.25	7.094	5.112	3.585	2.908	2.705	2.528	2.186	2.516	2.533	2.583	2.707	2.762	3.068	3.605	4.382	5.580	7.219	9.965	13.30	14.98	18.62	26.69	30.98	36.17	36.20	33.93	32.10	25.56	20.71	20.60	23.04	24.85	26.82	29.00	30.98	33.12	35.86	37.32	39.45	43.77	48.03	52.65	59.94	65.81	67.41	72.29	73.77
360.0	927.2	1417	1853	2122	2288	2229	1882	1595	1717	1989	2326	2671	3056	3489	3836	3949	3996	3476	2758	2276	1261	466.3	268.7	220.4	272.5	410.4	1378	6861	6973	330.6	12.44	6.604	4.300	3.167	2.773	2.516	2.440	2.397	2.394	2.515	2.519	2.605	2.883	3.078	3.849	5.310	6.677	8.749	12.12	13.76	17.29	24.76	28.08	32.49	32.48	30.54	28.92	23.44	19.78	18.90	21.05	23.02	24.25	26.47	28.56	29.84	32.40	33.93	36.48	39.07	43.75	48.36	52.95	57.86	61.09	64.48	65.80
365.0	880.8	1333	1733	1990	2171	2111	1803	1558	1678	1894	2180	2456	2788	3162	3447	3554	3589	3132	2493	2006	1215	579.3	324.8	247.5	209.5	196.6	383.4	2184	8008	3227	49.44	9.974	5.359	3.932	3.039	2.674	2.344	2.453	2.559	2.531	2.365	2.535	2.521	2.857	3.681	4.750	6.009	8.362	10.82	12.10	15.48	22.28	25.66	28.22	28.51	27.51	26.07	20.88	17.51	17.65	19.19	21.11	21.93	24.17	25.21	26.13	28.44	29.39	31.78	34.85	38.65	41.65	46.89	50.65	53.32	55.62	58.55
370.0	824.1	1198	1577	1853	2031	1998	1728	1523	1619	1795	2008	2225	2486	2781	3015	3094	3133	2752	2214	1796	1084	673.2	476.8	329.2	248.3	196.7	200.7	574.8	2480	5753	5335	1058	19.11	6.414	4.059	2.931	2.489	2.440	2.330	2.244	2.244	2.252	2.425	2.572	3.203	4.147	5.281	7.377	9.349	10.83	13.16	19.04	21.69	24.18	24.28	23.74	22.50	18.44	15.58	15.74	16.66	17.64	19.39	20.49	21.98	22.98	24.48	25.23	27.19	29.39	32.57	34.44	39.28	42.99	44.63	46.85	49.45
375.0	718.8	1105	1478	1752	1930	1906	1679	1496	1557	1698	1878	2047	2283	2459	2620	2684	2699	2414	1975	1628	1017	652.3	610.5	483.4	334.2	267.2	235.2	279.2	656.7	1470	4756	7509	348.1	21.02	5.965	3.721	3.041	2.617	2.375	2.161	2.101	2.102	2.103	2.420	2.717	3.712	4.816	6.355	8.165	8.993	11.39	15.64	18.57	20.76	20.77	19.78	19.16	16.13	13.61	13.35	14.62	15.53	16.52	17.69	18.86	19.59	20.29	21.51	23.10	24.79	27.01	29.08	32.33	35.41	36.64	38.28	40.53
380.0	666.6	1025	1409	1702	1846	1857	1620	1464	1501	1635	1783	1913	2122	2252	2348	2387	2394	2162	1788	1500	986.2	661.4	615.9	608.5	436.6	332.1	294.5	266.6	290.1	451.3	1445	6407	6155	284.1	11.46	4.781	3.603	2.733	2.338	2.423	2.067	1.994	2.138	2.347	2.656	3.183	4.241	5.673	6.870	8.326	10.01	13.87	16.44	18.55	18.24	17.58	16.86	14.54	12.10	12.03	13.09	13.57	14.65	15.13	16.68	16.85	18.05	18.25	19.74	21.67	23.19	25.84	27.48	29.73	31.64	32.86	34.04
385.0	660.3	980.7	1327	1608	1763	1787	1580	1425	1462	1584	1683	1792	1974	2047	2095	2128	2130	1940	1634	1393	956.7	686.9	608.0	639.8	556.2	402.2	347.2	303.6	242.8	247.7	482.7	2097	6889	2747	41.32	7.281	4.548	3.022	2.368	2.449	2.118	1.781	2.069	2.171	2.566	3.156	3.667	4.946	6.123	7.157	8.729	12.30	14.47	15.78	15.98	15.60	15.26	12.82	11.20	10.89	11.94	12.08	13.03	13.24	14.79	14.87	15.54	15.89	17.52	19.01	19.85	21.76	23.26	25.24	26.54	27.33	29.40
390.0	608.9	929.8	1228	1499	1650	1665	1510	1375	1406	1483	1560	1639	1763	1808	1832	1847	1845	1694	1459	1268	925.8	707.4	631.6	609.3	597.2	511.4	401.2	331.6	255.0	217.8	262.5	596.7	2101	4513	4316	889.0	15.36	4.352	3.226	2.667	2.112	1.893	2.045	2.158	2.368	2.866	3.266	4.291	5.607	6.268	7.660	10.68	12.02	13.52	13.49	12.91	13.00	11.16	9.950	9.758	10.40	10.65	11.04	11.76	12.44	12.50	13.21	13.29	14.01	15.65	16.77	17.78	19.33	20.59	21.74	22.59	23.42
395.0	544.2	867.7	1157	1413	1547	1550	1441	1338	1353	1392	1450	1512	1591	1604	1602	1611	1603	1489	1306	1160	901.6	726.6	662.6	620.1	576.8	572.4	492.3	384.6	293.8	242.9	239.6	274.3	544.2	1117	3613	5952	296.8	15.42	4.431	3.309	2.379	1.943	1.918	2.091	2.244	2.803	2.987	4.011	4.948	5.600	6.669	9.246	10.41	11.26	11.32	10.95	11.28	9.443	9.091	8.486	9.220	9.331	9.908	9.891	10.57	10.81	11.10	11.09	11.83	12.83	13.89	14.69	15.77	16.12	17.33	17.68	18.83
400.0	539.9	841.0	1125	1338	1494	1503	1401	1329	1306	1341	1402	1431	1500	1485	1464	1452	1450	1365	1214	1091	879.7	733.5	683.3	643.7	591.6	569.5	575.6	463.5	339.3	280.2	265.2	232.4	212.1	300.6	1012	4756	4995	248.9	8.862	3.853	2.701	2.439	1.967	1.988	2.179	2.589	2.877	3.763	4.407	5.230	6.242	8.221	8.927	10.02	10.02	9.458	9.836	8.753	8.188	8.041	8.537	8.564	8.811	9.199	9.180	9.531	9.561	9.944	10.32	11.39	11.94	12.49	12.99	13.84	14.09	15.45	16.21
405.0	531.2	778.2	1079	1280	1427	1459	1364	1304	1289	1303	1348	1363	1423	1389	1345	1332	1324	1250	1136	1026	862.3	740.1	694.1	660.7	610.1	565.4	581.8	541.8	391.8	318.2	294.7	243.4	154.8	128.6	266.8	1437	5186	2395	37.44	5.579	3.471	2.589	2.063	1.982	2.001	2.544	2.604	3.578	4.281	4.741	5.692	7.300	8.324	9.013	8.970	8.716	9.110	7.909	7.475	7.323	7.424	7.924	7.977	8.027	8.478	8.984	8.830	8.616	9.406	10.05	10.59	10.87	11.77	11.68	11.88	13.01	13.73
410.0	478.5	751.5	1010	1218	1345	1386	1321	1275	1268	1259	1292	1275	1306	1265	1224	1203	1189	1128	1040	951.1	824.4	731.3	695.9	662.1	618.4	574.0	553.4	545.0	470.7	365.5	312.2	252.3	161.3	110.1	112.9	357.8	1514	3378	3357	844.4	13.59	3.471	2.417	2.264	1.967	2.425	2.626	3.215	3.884	4.220	5.047	6.519	7.293	7.467	7.928	7.772	8.037	7.303	6.778	7.029	7.201	7.356	7.195	7.294	7.462	7.755	8.063	7.768	7.898	8.804	9.134	9.276	10.05	10.11	10.34	10.89	11.08
415.0	432.4	704.4	952.3	1161	1277	1300	1275	1260	1239	1223	1245	1218	1199	1153	1111	1080	1064	1009	945.0	880.5	779.6	715.0	684.5	654.8	619.9	578.7	543.8	515.1	498.0	439.0	342.1	264.4	182.0	125.4	94.76	128.0	370.4	818.3	2461	4578	274.8	15.03	3.242	2.785	2.400	2.358	2.615	2.981	3.496	3.956	4.482	5.699	6.167	6.889	6.982	6.966	7.596	6.641	6.209	6.560	6.461	6.455	6.717	6.687	7.028	6.866	7.077	6.690	7.163	7.521	7.627	7.927	8.603	8.487	8.590	9.012	9.496
420.0	452.8	675.0	898.6	1097	1215	1274	1248	1243	1241	1207	1223	1171	1136	1082	1032	1001	979.4	933.0	888.2	831.2	747.5	690.3	672.7	651.8	617.1	584.6	550.1	513.3	485.6	475.7	391.6	288.9	201.7	143.9	103.6	86.54	123.7	211.2	665.0	3331	3837	240.2	8.112	3.304	2.662	2.451	2.564	3.075	3.117	3.740	4.101	5.412	5.857	6.079	6.252	6.481	6.706	6.773	6.172	6.235	5.971	6.118	6.485	6.667	6.753	6.538	6.660	6.019	6.716	6.682	6.549	7.055	7.599	7.436	7.538	8.006	8.173
