Sample:	'1
File name:	S2025080903Î÷ÎåÂ·ÇÅ1.FD3
Run date:	'16:16:05, 08/10/2025
Operator:	Administrator
Comment:	'

Instrument
Model:	F-2700 FL Spectrophotometer
Serial number:	3064-004
ROM Version:	4J14000 07

Instrument parameters
Measurement type:	3-D scan
Data mode:	Fluorescence
EX  Start WL:	220.0 nm
EX  End WL:	600.0 nm
EX Sampling interval:	5.0 nm
EM  Start WL:	230.0 nm
EM  End WL:	650.0 nm
EM Sampling interval:	5.0 nm
Scan speed:	12000 nm/min
EX Slit:	5.0 nm
EM Slit:	5.0 nm
PMT Voltage:	700 V
Response:	Auto 
Corrected spectra:	Off
Contour interval:	50.000

Peak integration
Integration method:	Rectangular
Sensitivity:	1
Threshold:	1.000

Peaks
No.	ApexEX/EM(nm)	Height(Data)
1	225.0/635.0	34.58
2	230.0/595.0	55.21
3	230.0/620.0	35.50
4	235.0/355.0	905.3
5	245.0/265.0	322.4
6	245.0/530.0	269.1
7	250.0/270.0	364.0
8	250.0/545.0	241.7
9	255.0/280.0	608.8
10	255.0/560.0	206.6
11	260.0/285.0	749.2
12	260.0/570.0	180.1
13	265.0/290.0	720.0
14	265.0/580.0	166.5
15	270.0/295.0	 1070
16	270.0/380.0	 1436
17	270.0/400.0	 1434
18	270.0/595.0	137.0
19	270.0/640.0	45.18
20	275.0/305.0	 1333
21	275.0/385.0	 1439
22	275.0/605.0	129.0
23	280.0/310.0	 1273
24	280.0/615.0	110.4
25	285.0/315.0	 1268
26	285.0/630.0	86.22
27	290.0/320.0	 1206
28	290.0/645.0	67.53
29	295.0/330.0	 1030
30	300.0/335.0	920.0
31	305.0/340.0	912.4
32	315.0/355.0	782.7
33	320.0/360.0	851.7
34	325.0/365.0	844.1
35	335.0/380.0	903.7
36	340.0/385.0	892.6
37	505.0/275.0	3.240
38	510.0/280.0	3.444
39	520.0/285.0	3.935
40	530.0/290.0	4.334
41	540.0/295.0	5.380
42	545.0/300.0	6.200
43	550.0/305.0	6.467
44	560.0/310.0	6.118
45	570.0/315.0	6.405
46	575.0/320.0	6.594
47	580.0/325.0	6.328
48	590.0/330.0	5.690

Data points
	220.0	225.0	230.0	235.0	240.0	245.0	250.0	255.0	260.0	265.0	270.0	275.0	280.0	285.0	290.0	295.0	300.0	305.0	310.0	315.0	320.0	325.0	330.0	335.0	340.0	345.0	350.0	355.0	360.0	365.0	370.0	375.0	380.0	385.0	390.0	395.0	400.0	405.0	410.0	415.0	420.0	425.0	430.0	435.0	440.0	445.0	450.0	455.0	460.0	465.0	470.0	475.0	480.0	485.0	490.0	495.0	500.0	505.0	510.0	515.0	520.0	525.0	530.0	535.0	540.0	545.0	550.0	555.0	560.0	565.0	570.0	575.0	580.0	585.0	590.0	595.0	600.0
230.0	36.37	 1069	 5862	 2181	106.9	14.93	13.20	9.233	9.228	7.788	8.731	6.889	5.439	4.768	4.727	4.391	3.203	3.130	2.984	2.373	2.462	2.186	1.965	1.973	1.820	1.704	1.513	1.713	1.452	1.604	1.328	1.259	1.292	1.228	1.185	1.138	1.020	1.063	1.030	1.003	0.979	1.107	0.945	1.022	0.856	0.835	1.670	5.312	9.576	7.933	3.644	1.018	0.684	0.697	0.616	0.581	0.641	0.573	0.615	0.538	0.545	0.579	0.529	0.549	0.521	0.655	0.506	0.469	0.476	0.537	0.436	0.606	0.444	0.499	0.568	0.473	0.557
235.0	59.86	282.3	 2608	 4196	 1115	162.3	16.34	10.31	8.706	7.587	7.405	7.453	6.980	4.614	3.892	4.580	3.105	3.156	3.483	2.505	2.151	2.269	2.462	2.383	1.637	1.712	1.617	1.678	1.454	1.416	1.288	1.420	1.256	1.237	1.108	1.075	0.961	1.074	1.119	0.936	0.918	1.009	0.902	1.020	1.175	1.026	0.998	1.985	4.008	6.727	9.579	9.686	4.539	1.618	0.555	0.649	0.756	0.603	0.499	0.551	0.520	0.676	0.649	0.520	0.529	0.587	0.619	0.433	0.387	0.593	0.497	0.460	0.428	0.561	0.464	0.529	0.525
240.0	80.41	121.2	657.9	 2346	 4745	956.5	117.8	9.677	9.196	9.061	10.23	7.526	6.294	4.790	4.509	5.494	2.565	3.456	3.252	2.341	2.015	2.681	2.529	1.974	1.818	1.514	1.558	1.691	1.514	1.399	1.604	1.111	1.376	1.109	1.173	1.132	1.175	1.095	1.348	1.014	0.787	0.887	0.909	1.079	0.922	1.016	1.333	1.124	1.514	2.109	4.973	11.00	13.33	9.964	3.473	0.860	0.712	0.660	0.593	0.508	0.441	0.589	0.709	0.661	0.497	0.480	0.532	0.554	0.502	0.478	0.442	0.381	0.458	0.429	0.574	0.619	0.459
245.0	49.29	113.1	216.1	645.2	 3371	 5024	839.8	42.51	12.24	8.708	9.594	7.417	6.931	5.566	4.770	4.847	3.108	3.062	2.966	2.654	2.289	2.150	2.271	2.016	2.008	1.781	1.916	1.636	1.601	1.762	1.806	1.232	1.441	1.032	1.277	1.131	1.059	1.062	1.124	1.092	0.885	0.964	0.930	0.737	1.031	1.020	1.383	1.200	1.091	1.026	1.710	3.799	8.541	15.23	15.11	8.269	2.482	0.794	0.506	0.622	0.512	0.531	0.607	0.722	0.602	0.565	0.487	0.540	0.444	0.551	0.519	0.500	0.550	0.588	0.733	0.614	0.607
250.0	37.92	77.58	178.8	250.8	895.7	 2948	 6874	 2468	220.4	11.99	10.60	9.707	7.470	6.511	5.187	4.597	4.020	3.143	3.423	3.042	2.417	2.173	2.435	2.018	1.904	1.661	1.899	1.608	1.610	1.650	1.437	1.447	1.356	1.190	1.061	1.108	0.984	0.936	1.007	0.992	0.935	0.991	1.042	0.848	0.856	0.929	0.953	1.222	1.215	1.112	0.936	1.520	2.469	5.008	8.563	12.79	14.93	12.83	7.379	2.783	0.802	0.656	0.527	0.659	0.584	0.616	0.549	0.448	0.516	0.618	0.548	0.551	0.484	0.565	0.572	0.477	0.587
255.0	33.01	53.01	94.59	258.9	333.0	696.0	 2764	 5724	 3885	286.2	13.71	11.00	10.49	8.758	5.800	4.769	4.491	4.354	4.125	3.021	2.682	2.686	2.952	2.142	2.082	1.722	1.596	1.824	1.747	1.549	1.581	1.395	1.185	1.339	1.104	0.952	1.027	0.976	0.999	1.122	1.042	1.245	1.010	0.845	1.058	0.772	0.958	0.804	1.156	1.144	1.300	1.666	1.338	1.714	2.508	3.538	5.542	12.42	21.20	22.66	11.87	2.748	0.663	0.724	0.493	0.528	0.649	0.546	0.496	0.485	0.508	0.496	0.457	0.597	0.690	0.472	0.514
260.0	30.82	46.14	55.04	156.9	330.9	246.2	680.6	 2765	 7377	 3251	169.9	13.67	9.867	8.934	5.946	4.689	4.036	4.036	3.590	2.791	3.063	2.855	2.716	2.497	2.049	2.223	2.037	1.945	1.697	1.594	1.652	1.439	1.326	1.496	1.186	1.078	1.020	0.800	0.984	0.989	0.844	1.214	0.861	0.825	0.947	0.734	1.004	0.768	0.935	0.881	1.074	1.931	1.833	1.479	1.295	1.273	1.814	3.759	9.215	20.83	30.63	22.99	8.462	1.509	0.568	0.675	0.614	0.631	0.546	0.697	0.663	0.431	0.470	0.579	0.645	0.518	0.533
265.0	38.27	40.92	50.61	64.31	268.1	322.4	211.4	721.9	 4213	 8619	 2492	61.59	12.36	9.770	8.045	4.994	4.781	3.720	4.028	2.842	2.857	3.051	2.443	2.276	2.094	1.814	2.096	2.042	1.655	1.766	1.388	1.648	1.312	1.365	1.220	1.249	1.062	0.873	1.091	1.010	1.089	1.115	0.879	0.948	0.842	0.790	0.796	0.890	0.873	0.756	0.672	1.052	1.786	2.355	1.710	1.302	0.871	1.499	2.781	6.822	16.06	29.49	35.62	21.36	5.246	0.908	0.637	0.499	0.737	0.549	0.581	0.576	0.738	0.729	0.721	0.500	0.523
270.0	58.72	51.44	64.34	39.25	95.90	303.7	364.0	254.1	 1083	 4159	 7939	 4539	174.9	15.28	9.842	6.811	5.755	4.733	4.200	3.626	3.438	3.081	2.616	2.227	2.013	2.192	2.225	1.941	1.900	1.944	1.594	1.641	1.310	1.418	1.105	1.187	1.048	0.961	1.126	1.179	1.017	0.910	1.041	0.989	0.830	1.074	0.931	1.009	0.773	0.768	0.640	0.787	1.091	1.391	1.700	2.239	1.995	1.479	1.387	2.229	4.287	8.897	17.10	26.53	34.40	30.72	16.86	4.740	0.913	0.587	0.671	0.578	0.690	0.724	0.606	0.552	0.549
275.0	95.81	94.45	93.07	56.51	48.09	109.0	362.7	490.8	336.3	990.9	 2769	 9381	 7285	213.6	13.29	8.832	7.033	5.602	4.547	4.456	3.630	3.284	2.499	2.307	2.287	1.720	2.297	1.920	2.067	1.672	1.743	1.593	1.545	1.469	1.506	1.394	1.382	0.988	1.281	1.098	1.015	1.082	0.909	1.179	1.108	1.213	0.890	0.879	1.157	0.865	0.865	0.987	1.071	0.877	1.046	1.456	2.116	3.240	2.458	1.517	1.532	2.521	4.517	6.849	10.93	22.77	44.61	48.62	24.68	4.342	0.724	0.496	0.532	0.760	0.557	0.733	0.662
280.0	120.7	143.9	135.5	77.93	48.02	56.57	169.0	608.8	429.9	322.7	742.7	 3835	9999.9	 2467	126.0	11.41	8.680	5.775	5.443	5.121	3.722	3.214	2.668	2.853	2.228	2.303	2.322	2.292	2.127	1.759	1.816	1.623	1.412	1.679	1.556	1.403	1.413	1.155	1.307	1.201	1.196	0.994	1.219	1.116	1.243	1.137	1.198	1.092	1.200	0.881	1.046	0.847	0.757	0.729	0.724	0.976	1.224	2.206	3.444	3.418	1.965	1.290	1.768	2.346	3.303	6.500	16.94	39.33	58.99	43.71	14.09	1.538	0.618	0.835	0.590	0.811	0.664
285.0	152.7	184.2	175.7	101.4	56.98	51.13	78.54	340.4	749.2	342.8	308.2	 1051	 5102	9999.9	 1817	64.05	10.24	7.595	6.255	5.351	4.073	3.852	3.071	2.505	2.983	2.497	2.491	2.148	2.260	1.762	1.904	1.620	1.232	1.338	1.587	1.601	1.494	1.177	1.380	1.156	1.005	1.110	1.305	1.208	1.381	1.554	1.421	1.284	1.442	1.198	0.940	1.033	0.818	0.754	0.846	1.046	0.895	1.260	2.308	3.344	3.935	3.059	1.491	1.710	1.807	2.704	4.747	11.13	27.30	53.85	55.56	32.81	6.145	0.986	0.721	0.795	0.569
290.0	175.2	235.5	212.3	125.1	85.82	76.78	77.57	164.7	474.0	720.0	419.9	466.3	 1403	 4688	 9292	 5786	105.3	12.83	7.806	5.457	4.800	3.929	3.346	3.109	2.624	2.710	2.214	2.504	2.166	1.656	2.173	1.883	1.650	1.602	1.693	1.591	1.600	1.358	1.412	1.523	1.296	1.328	1.471	1.303	1.608	1.399	1.571	1.406	1.281	1.170	1.020	1.045	0.822	0.896	0.928	0.985	1.098	1.121	1.507	1.705	2.751	3.621	4.334	3.306	2.250	1.919	2.382	3.737	7.486	15.02	25.47	41.17	46.51	41.63	21.90	5.658	0.879
295.0	191.4	256.6	262.3	166.3	114.1	106.1	101.8	144.6	274.2	549.6	 1070	515.4	596.7	 1255	 2795	 9997	 7537	138.8	10.46	7.168	5.296	4.800	4.187	3.637	3.236	2.695	2.524	2.512	2.183	1.873	2.009	1.965	1.612	1.751	1.872	1.696	1.811	1.824	1.487	1.459	1.688	1.191	1.438	1.591	1.393	1.640	1.522	1.361	1.454	1.298	1.134	1.152	0.838	0.976	0.956	1.082	1.192	1.206	1.219	1.455	1.807	2.025	2.710	4.236	5.380	4.010	2.339	2.770	3.358	4.749	6.728	10.55	14.13	28.47	60.72	56.80	29.69
300.0	190.1	272.4	264.8	193.9	139.8	133.3	136.8	180.0	262.7	397.8	953.4	 1120	500.6	566.2	810.1	 3514	9999.9	 5249	92.01	9.321	6.577	6.220	4.462	3.779	3.686	3.413	2.960	2.649	2.537	2.306	2.022	1.995	2.251	1.471	1.666	1.360	1.829	1.923	1.514	1.613	1.493	1.344	1.548	1.380	1.526	1.562	1.555	1.802	1.744	1.532	1.332	1.291	1.082	1.090	1.202	1.131	1.345	1.296	1.299	1.433	1.785	1.961	2.291	2.947	4.791	6.200	5.218	3.232	2.446	2.629	3.122	3.858	4.293	7.759	20.01	49.39	75.13
305.0	200.4	282.6	289.2	218.5	157.4	156.7	178.0	226.3	287.7	406.3	683.3	 1333	935.3	491.5	422.0	951.2	 4522	9999.9	 1193	51.30	8.722	6.478	5.093	5.106	3.825	3.754	3.016	2.390	2.531	2.134	2.158	1.933	2.020	1.627	1.675	1.702	1.676	1.813	1.585	1.683	1.621	1.614	1.600	1.568	1.638	1.535	1.552	1.870	1.747	1.355	1.369	1.386	1.225	1.122	1.322	1.214	1.243	1.283	1.449	1.632	1.730	1.909	2.280	2.412	3.194	4.742	6.467	5.455	3.828	2.734	2.631	2.560	2.405	2.977	5.592	13.54	32.76
310.0	213.3	281.3	316.7	244.7	185.5	200.1	223.6	271.4	355.0	446.5	611.6	919.6	 1273	893.2	441.2	410.7	 1180	 4282	 7906	 4497	75.81	9.787	6.735	5.155	4.315	3.674	3.078	2.886	2.728	2.234	2.180	2.040	1.821	1.675	1.828	1.815	1.895	1.806	1.746	1.534	1.473	1.526	1.674	1.484	1.637	1.473	1.615	1.934	1.840	1.429	1.298	1.467	1.339	1.423	1.504	1.436	1.478	1.552	1.726	1.707	2.056	2.130	2.257	2.511	2.915	3.513	4.285	5.361	6.118	5.432	3.759	2.819	2.360	2.285	2.768	4.225	8.623
315.0	226.9	317.1	353.6	279.3	225.6	228.3	246.9	317.8	410.7	507.7	647.2	788.7	969.3	 1268	800.1	375.5	447.9	 1083	 2332	 8398	 6328	101.3	9.418	6.259	5.343	3.817	3.793	3.370	2.841	2.200	2.270	1.977	2.180	2.015	2.253	1.756	1.675	1.812	1.660	1.375	1.505	1.626	1.479	1.443	1.523	1.629	1.898	1.787	1.733	1.587	1.322	1.508	1.381	1.563	1.615	1.721	1.786	1.703	1.917	2.088	2.169	2.238	2.546	2.758	3.263	3.147	3.874	3.964	4.381	5.129	6.405	5.914	3.621	2.326	2.673	2.905	3.250
320.0	245.9	352.8	441.2	361.6	290.7	269.4	282.7	362.2	433.4	562.8	688.6	835.2	883.3	 1079	 1206	553.1	345.3	408.1	640.6	 3021	9999.9	 4594	70.31	8.631	5.828	4.343	4.109	3.377	3.090	2.281	2.268	2.294	2.124	1.659	1.783	1.653	1.827	1.693	1.488	1.451	1.464	1.446	1.229	1.433	1.819	1.975	1.693	2.225	1.829	1.720	1.315	1.498	1.625	1.553	1.525	1.509	2.014	1.771	1.884	2.354	2.222	2.368	2.797	2.612	3.333	3.649	3.571	4.209	4.171	4.262	5.152	6.594	5.846	4.189	2.668	2.927	2.341
325.0	301.0	441.8	562.1	491.0	344.5	310.4	318.3	392.6	484.9	607.9	756.7	879.5	936.7	958.1	 1183	931.7	414.5	313.3	290.2	795.3	 4488	9999.9	903.8	40.60	7.777	5.273	4.298	3.859	3.135	2.912	2.409	2.245	2.076	2.109	1.855	1.660	1.718	1.677	1.526	1.639	1.466	1.299	1.394	1.589	2.109	2.294	2.129	2.503	2.672	2.168	1.677	1.669	1.726	1.816	1.689	1.696	2.035	2.178	2.042	2.410	2.616	2.721	2.632	2.937	3.570	3.736	3.879	4.087	4.232	4.063	4.464	5.251	6.328	5.976	4.561	3.398	2.197
330.0	306.2	492.4	706.9	665.5	464.0	369.2	361.8	427.2	536.0	652.2	798.9	935.2	 1002	977.2	970.5	 1030	787.4	405.7	278.4	326.7	 1138	 4163	 6536	 3566	58.75	8.748	6.142	4.558	3.549	3.203	2.560	2.589	2.007	1.986	1.981	1.793	1.656	1.776	1.663	1.664	1.634	1.958	1.936	1.752	2.098	2.330	2.457	2.920	2.842	2.848	2.277	2.309	2.089	1.931	1.744	1.899	2.246	2.296	2.354	2.471	2.650	2.695	3.154	3.341	3.771	3.841	4.133	4.077	4.424	4.335	4.555	4.770	4.715	5.290	5.690	5.618	3.897
335.0	334.2	540.7	780.0	738.7	576.7	451.7	423.2	471.2	568.6	711.6	843.3	989.3	 1060	 1042	952.3	855.0	920.0	733.4	356.3	278.6	401.5	 1039	 2106	 7828	 5226	80.69	9.594	5.642	4.576	3.357	3.265	2.647	2.104	2.396	2.019	2.074	1.911	1.525	1.647	1.860	1.741	1.871	1.746	2.105	2.100	2.194	2.657	3.205	2.899	3.416	2.828	2.804	2.328	2.365	1.824	2.401	2.369	2.451	2.370	2.525	3.129	2.943	3.429	3.462	4.298	3.957	4.506	4.197	4.521	5.086	4.897	4.751	4.653	4.540	4.624	5.020	5.951
340.0	312.7	547.0	796.0	820.8	671.6	504.6	492.7	534.4	600.4	757.0	870.4	 1010	 1070	 1085	984.9	838.2	789.5	912.4	557.5	317.6	276.5	378.0	582.2	 3092	 9328	 3832	58.74	7.553	6.020	3.806	3.460	2.717	2.741	2.534	2.214	2.053	1.625	1.825	1.611	1.714	1.582	1.573	1.800	2.074	2.097	2.294	2.741	3.122	3.522	3.333	2.952	2.995	2.724	2.849	2.374	2.509	2.673	2.556	2.487	2.905	2.965	3.098	3.383	3.548	4.088	4.085	4.535	4.745	4.861	5.088	5.275	4.754	5.290	4.385	4.760	4.857	4.633
345.0	311.5	544.3	804.4	863.4	730.1	609.6	557.2	590.1	670.8	780.1	904.9	 1004	 1091	 1106	 1010	866.4	746.1	824.8	800.7	428.9	298.7	274.9	269.2	815.3	 4582	 9195	744.5	33.02	7.794	4.801	4.456	3.214	2.841	2.390	2.347	2.184	2.065	2.057	1.732	1.712	1.617	1.674	1.786	1.744	1.994	2.421	2.803	3.403	3.630	2.989	2.988	3.448	2.985	2.643	2.392	2.719	2.715	2.697	2.879	3.025	2.923	3.481	3.864	3.923	4.019	4.467	4.318	4.450	4.478	4.710	4.892	5.010	4.994	4.535	4.945	4.995	3.897
350.0	306.1	546.0	773.7	877.9	810.6	716.1	701.9	718.8	792.0	884.0	974.1	 1044	 1132	 1138	 1050	921.1	784.1	735.7	791.5	717.6	438.9	327.9	265.8	340.2	 1184	 4205	 6012	 3021	52.10	8.858	5.676	4.007	3.047	2.518	2.383	2.115	2.265	1.822	1.732	1.726	1.945	1.807	1.893	1.706	2.095	2.313	2.713	3.118	3.420	3.139	2.853	3.301	3.368	3.067	3.086	2.830	3.230	3.217	3.232	3.720	3.656	3.896	3.843	3.957	4.230	4.222	4.505	4.609	4.777	4.980	5.051	5.341	4.983	4.854	5.103	5.016	4.165
355.0	320.3	536.2	763.1	905.3	895.0	845.2	836.8	887.1	938.2	 1030	 1080	 1141	 1169	 1157	 1104	985.2	877.0	783.4	728.9	782.7	731.1	455.5	347.0	302.7	435.1	 1057	 2175	 7513	 4415	69.62	8.532	5.135	3.859	3.150	2.761	2.368	2.132	2.076	1.810	1.912	1.938	1.846	1.900	1.870	2.241	2.352	2.664	3.049	3.349	3.273	3.034	3.673	3.420	3.499	3.396	3.409	3.483	3.931	3.946	4.215	4.216	4.563	4.115	4.184	4.227	4.520	4.526	4.876	5.709	5.048	5.791	5.018	5.539	5.473	5.682	5.184	5.009
360.0	315.2	504.0	746.0	891.3	935.4	929.7	954.5	980.5	 1070	 1110	 1148	 1201	 1200	 1195	 1145	 1036	925.8	840.6	757.2	731.9	851.7	651.6	430.5	342.1	316.5	396.1	603.7	 3270	 8762	 3175	45.72	7.035	4.660	3.534	3.070	2.198	2.298	2.341	1.969	1.903	1.854	1.830	1.832	1.854	1.986	2.489	2.479	2.833	3.270	3.632	3.300	3.750	3.947	3.964	3.418	3.508	3.809	3.845	4.390	4.988	4.484	4.256	4.951	4.999	5.434	5.025	4.912	5.216	5.620	5.459	5.585	5.634	5.555	5.344	5.933	5.077	5.489
365.0	300.7	507.7	716.9	871.1	959.8	996.3	 1017	 1065	 1140	 1191	 1226	 1251	 1223	 1208	 1186	 1069	975.0	895.0	809.7	750.9	798.2	844.1	551.0	410.7	339.1	294.2	277.1	871.7	 4792	 8524	647.2	24.92	6.054	4.324	3.355	3.066	2.582	2.262	2.113	2.140	1.837	2.006	1.801	1.981	1.967	2.579	2.479	2.903	3.216	3.238	3.311	3.811	3.955	3.890	3.631	3.934	4.561	4.223	4.771	5.014	4.816	4.909	5.068	4.942	5.353	5.181	5.276	4.975	5.717	5.427	5.818	5.891	5.615	5.469	5.833	5.324	5.329
370.0	303.5	485.2	714.9	888.9	 1004	 1086	 1101	 1167	 1234	 1283	 1311	 1305	 1288	 1253	 1209	 1118	 1035	960.3	885.2	821.7	792.3	836.8	795.6	570.3	424.6	341.5	267.8	338.2	 1240	 4318	 5813	 2600	41.17	6.252	4.529	3.423	2.936	2.384	2.255	2.196	2.041	2.121	2.051	1.952	2.242	2.360	2.656	3.118	2.952	3.151	3.286	3.716	3.993	4.455	4.102	4.530	4.776	4.789	4.914	4.699	5.157	5.012	5.482	5.077	5.619	5.333	5.573	5.582	5.765	5.756	5.366	5.761	5.812	5.704	6.159	5.992	5.886
375.0	303.8	491.7	727.3	887.1	 1030	 1151	 1204	 1218	 1294	 1361	 1396	 1374	 1325	 1288	 1239	 1155	 1068	 1026	959.2	905.9	849.1	820.4	845.9	831.1	577.0	446.2	345.5	286.0	422.7	 1061	 2330	 7531	 3609	52.42	6.839	4.261	3.552	3.312	2.720	2.323	2.274	2.034	2.018	2.251	1.974	2.794	2.489	2.698	2.999	3.177	3.057	3.717	4.150	4.135	4.265	4.534	4.977	4.971	5.194	5.214	5.591	4.987	5.887	5.737	5.771	5.838	5.744	5.826	5.998	5.922	5.726	6.081	5.267	5.863	6.245	5.804	6.064
380.0	305.5	518.0	691.9	895.7	 1042	 1171	 1257	 1273	 1314	 1386	 1436	 1407	 1381	 1309	 1244	 1165	 1106	 1051	999.2	955.4	914.8	857.1	836.5	903.7	760.5	535.1	421.3	325.8	278.4	360.8	621.6	 3566	 7977	592.5	32.29	6.284	4.046	3.426	2.808	2.363	2.476	2.222	2.128	2.106	2.380	2.383	2.503	2.898	3.191	3.025	3.097	3.715	4.038	4.631	4.488	4.469	4.847	5.029	4.855	5.112	5.556	5.183	5.796	5.864	5.653	5.699	6.196	6.232	6.215	5.873	6.098	6.040	5.816	5.827	6.212	6.187	6.243
385.0	305.9	469.6	698.4	869.9	 1074	 1185	 1252	 1270	 1342	 1416	 1433	 1439	 1385	 1314	 1236	 1172	 1123	 1079	 1036	985.3	955.6	900.6	859.9	865.3	892.6	659.3	488.8	377.2	292.0	239.5	251.7	936.3	 4787	 6729	494.8	15.64	5.539	3.989	2.816	2.888	2.160	2.527	2.382	2.363	2.386	2.500	2.419	2.693	2.663	2.948	3.105	3.696	4.561	4.786	4.886	4.758	5.274	4.912	4.883	5.347	5.954	5.501	5.617	5.637	6.165	5.944	6.018	5.457	5.722	6.486	5.886	6.191	5.925	5.802	6.030	6.318	6.089
390.0	318.7	473.2	696.6	866.1	 1078	 1182	 1254	 1305	 1369	 1422	 1424	 1435	 1377	 1315	 1233	 1175	 1139	 1090	 1065	 1025	992.7	953.2	899.3	855.0	870.0	824.0	617.8	455.6	349.7	270.1	214.9	319.6	 1238	 3825	 4760	 1812	32.32	6.121	4.155	3.279	2.630	2.471	2.348	2.337	2.689	2.527	2.455	2.726	2.965	2.920	2.997	3.646	4.068	4.550	4.734	4.824	5.211	5.098	5.212	5.410	5.586	5.315	6.123	5.803	6.193	5.994	6.048	5.622	5.974	6.467	5.625	6.104	5.915	5.803	5.728	6.559	6.484
395.0	319.0	467.0	668.4	848.8	 1027	 1158	 1252	 1327	 1385	 1408	 1431	 1428	 1346	 1312	 1235	 1157	 1134	 1101	 1084	 1052	 1019	976.1	937.3	885.6	851.0	836.2	791.2	573.6	428.3	333.5	255.9	222.9	379.0	927.0	 2043	 6100	 2764	41.23	6.068	4.163	3.164	2.726	2.612	2.541	2.504	2.767	2.500	2.962	2.929	2.898	3.083	3.958	4.306	4.681	4.656	4.975	5.078	5.336	5.040	5.581	5.909	5.548	5.809	5.436	6.060	5.743	5.646	6.018	5.989	5.953	5.919	5.531	5.936	6.088	6.094	6.479	6.828
400.0	298.7	450.0	647.2	885.0	 1019	 1157	 1227	 1311	 1364	 1406	 1434	 1398	 1330	 1296	 1221	 1156	 1119	 1106	 1081	 1056	 1032	994.8	964.0	910.2	870.8	817.7	829.1	696.2	498.4	388.1	298.7	230.3	213.1	293.7	537.4	 3065	 6303	500.0	25.42	4.703	3.463	3.332	2.743	2.266	2.440	3.117	2.632	2.896	2.756	3.235	2.997	3.681	4.037	4.723	4.685	5.169	4.975	5.192	4.860	5.226	5.914	5.849	5.867	5.766	5.495	6.020	5.893	5.738	5.590	5.721	6.119	5.141	5.669	5.807	6.295	5.892	6.553
405.0	280.7	444.8	631.0	827.8	 1009	 1164	 1224	 1309	 1356	 1395	 1388	 1365	 1306	 1272	 1219	 1156	 1100	 1086	 1068	 1045	 1026	 1007	969.9	920.6	878.4	819.8	787.6	784.4	597.4	441.3	344.7	265.2	200.7	174.1	195.6	806.0	 3947	 5612	410.7	11.31	4.660	3.560	2.730	2.634	2.809	3.048	2.770	2.799	2.921	2.964	2.968	3.877	4.032	4.229	4.593	4.408	4.691	5.419	4.953	5.305	5.269	5.590	5.375	5.471	5.196	6.110	6.308	6.132	5.832	6.016	5.799	5.854	5.775	5.753	6.046	6.007	6.252
410.0	293.1	448.3	630.4	829.2	991.6	 1128	 1203	 1288	 1330	 1361	 1376	 1341	 1290	 1246	 1178	 1112	 1079	 1060	 1046	 1035	 1006	994.0	966.6	920.7	886.2	832.2	768.6	752.1	704.6	545.7	402.6	312.8	234.3	179.4	145.4	252.0	 1023	 3356	 3958	 1498	27.61	5.047	3.466	3.105	2.960	2.836	2.672	2.874	3.068	2.998	3.122	3.572	3.660	4.165	4.366	4.456	4.991	5.128	5.123	5.438	5.673	5.695	5.521	5.449	5.295	5.426	5.858	5.691	5.715	5.780	5.648	5.974	5.402	5.666	5.833	5.921	5.914
