Sample:	'1
File name:	城北污水厂北侧保障沉淀池 10倍.FD3
Run date:	'14:41:06, 08/19/2024
Operator:	horiz
Comment:	'

Instrument
Model:	F-2700 FL Spectrophotometer
Serial number:	23B8-004
ROM Version:	4J14000 07

Instrument parameters
Measurement type:	3-D scan
Data mode:	Fluorescence
EX  Start WL:	220.0 nm
EX  End WL:	600.0 nm
EX Sampling interval:	5.0 nm
EM  Start WL:	230.0 nm
EM  End WL:	650.0 nm
EM Sampling interval:	5.0 nm
Scan speed:	12000 nm/min
EX Slit:	5.0 nm
EM Slit:	5.0 nm
PMT Voltage:	700 V
Response:	Auto 
Corrected spectra:	Off
Contour interval:	50.000

Peak integration
Integration method:	Rectangular
Sensitivity:	1
Threshold:	1.000

Peaks
No.	ApexEX/EM(nm)	Height(Data)
1	225.0/305.0	1315
2	225.0/345.0	6823
3	225.0/485.0	328.6
4	230.0/500.0	290.0
5	235.0/510.0	233.7
6	240.0/265.0	428.1
7	240.0/525.0	207.9
8	245.0/270.0	416.3
9	245.0/535.0	179.3
10	250.0/275.0	532.8
11	250.0/550.0	148.0
12	255.0/280.0	628.5
13	255.0/440.0	526.9
14	255.0/565.0	133.3
15	260.0/575.0	118.0
16	265.0/585.0	119.7
17	270.0/300.0	1438
18	270.0/600.0	123.0
19	275.0/305.0	1518
20	275.0/610.0	104.9
21	280.0/345.0	2029
22	280.0/625.0	81.67
23	285.0/640.0	66.86
24	315.0/355.0	563.8
25	320.0/360.0	544.6
26	325.0/370.0	469.0
27	330.0/375.0	426.0
28	335.0/380.0	373.8
29	345.0/395.0	250.7
30	350.0/400.0	235.7
31	360.0/415.0	175.2
32	365.0/420.0	165.9
33	375.0/435.0	110.7
34	380.0/440.0	104.0
35	395.0/460.0	61.73
36	400.0/465.0	54.31
37	410.0/480.0	37.27
38	415.0/485.0	32.43
39	425.0/500.0	23.56
40	430.0/505.0	20.87
41	440.0/520.0	14.09
42	445.0/525.0	12.02
43	455.0/345.0	19.27
44	455.0/540.0	8.755
45	470.0/560.0	4.421
46	480.0/575.0	2.771
47	495.0/270.0	2.360
48	505.0/275.0	3.466
49	510.0/280.0	3.560
50	520.0/285.0	4.334
51	530.0/290.0	4.422
52	540.0/295.0	6.703
53	545.0/300.0	7.321
54	550.0/305.0	7.001
55	560.0/310.0	5.973
56	565.0/345.0	8.645
57	585.0/325.0	7.382

Wavelength data
No.	EX/EM(nm)	Height(Data)	

Data points
	220.0	225.0	230.0	235.0	240.0	245.0	250.0	255.0	260.0	265.0	270.0	275.0	280.0	285.0	290.0	295.0	300.0	305.0	310.0	315.0	320.0	325.0	330.0	335.0	340.0	345.0	350.0	355.0	360.0	365.0	370.0	375.0	380.0	385.0	390.0	395.0	400.0	405.0	410.0	415.0	420.0	425.0	430.0	435.0	440.0	445.0	450.0	455.0	460.0	465.0	470.0	475.0	480.0	485.0	490.0	495.0	500.0	505.0	510.0	515.0	520.0	525.0	530.0	535.0	540.0	545.0	550.0	555.0	560.0	565.0	570.0	575.0	580.0	585.0	590.0	595.0	600.0
230.0	117.3	1578	3213	801.9	36.27	12.74	10.67	8.602	7.687	6.777	5.795	5.395	4.702	4.019	3.120	2.713	2.470	2.163	1.895	1.610	1.581	1.495	1.298	1.317	1.280	1.150	1.123	1.073	0.980	1.038	0.933	0.863	0.878	0.854	0.814	0.813	0.753	0.770	0.729	0.712	0.939	1.176	1.092	0.809	0.652	0.659	2.033	6.993	9.661	6.301	2.328	0.766	0.568	0.541	0.531	0.530	0.523	0.597	0.584	0.568	0.539	0.553	0.550	0.578	0.545	0.543	0.601	0.573	0.563	0.591	0.603	0.554	0.579	0.603	0.621	0.608	0.581
235.0	203.7	450.7	2063	2776	609.6	49.91	10.72	11.35	8.182	6.587	6.724	5.385	4.357	3.826	3.295	2.623	2.613	2.096	1.864	1.763	1.727	1.440	1.324	1.261	1.241	1.166	0.993	0.899	0.990	0.982	1.010	0.904	0.754	0.815	0.803	0.747	0.848	0.809	0.681	0.740	0.721	0.920	1.048	1.163	0.992	0.745	0.863	2.114	4.175	6.202	8.299	8.200	3.939	1.011	0.572	0.528	0.603	0.618	0.579	0.577	0.561	0.551	0.576	0.576	0.553	0.541	0.577	0.559	0.532	0.529	0.580	0.538	0.702	0.569	0.546	0.627	0.596
240.0	283.0	239.8	642.5	2363	2737	469.7	28.52	11.34	8.724	6.705	7.146	5.302	4.746	3.838	3.351	2.734	2.615	1.902	2.018	1.742	1.623	1.521	1.349	1.332	1.259	1.164	1.076	0.923	0.896	1.050	0.957	0.862	0.861	0.898	0.797	0.763	0.803	0.805	0.703	0.687	0.783	0.781	0.728	0.962	1.240	1.216	0.989	0.967	1.364	2.126	4.829	10.35	11.74	7.791	2.967	0.791	0.558	0.595	0.536	0.582	0.537	0.554	0.539	0.526	0.609	0.569	0.488	0.573	0.624	0.558	0.521	0.578	0.614	0.646	0.542	0.631	0.600
245.0	212.0	311.4	227.1	831.9	2883	2572	343.5	15.24	9.857	7.637	7.052	5.858	5.221	4.413	3.472	2.904	2.763	1.970	1.947	1.587	1.463	1.627	1.488	1.380	1.265	1.212	1.202	1.002	0.976	1.077	0.907	0.847	0.854	0.840	0.798	0.765	0.744	0.849	0.768	0.798	0.682	0.711	0.818	0.783	0.979	1.248	1.414	1.180	0.836	0.955	1.552	3.839	8.526	13.41	12.69	6.310	1.917	0.695	0.625	0.657	0.545	0.619	0.560	0.514	0.627	0.567	0.532	0.556	0.572	0.576	0.572	0.624	0.576	0.623	0.546	0.613	0.598
250.0	101.3	226.9	310.2	304.6	947.8	2509	3095	1046	61.51	8.820	7.387	6.441	5.525	4.696	3.754	3.112	2.660	2.121	1.999	1.703	1.535	1.522	1.440	1.335	1.206	1.186	1.119	0.981	0.996	1.015	0.987	0.942	0.898	0.861	0.776	0.827	0.728	0.738	0.683	0.761	0.714	0.700	0.740	0.743	0.766	0.896	1.034	1.277	1.415	1.184	1.014	1.361	2.484	4.699	7.938	11.11	13.87	11.23	6.182	2.119	0.651	0.587	0.596	0.566	0.668	0.591	0.523	0.596	0.593	0.621	0.604	0.557	0.586	0.654	0.599	0.605	0.602
255.0	58.27	93.47	227.2	371.7	321.2	647.2	2369	4315	1367	57.11	9.205	7.479	5.975	5.371	3.969	3.754	2.806	2.290	1.974	1.874	1.657	1.394	1.355	1.402	1.377	1.199	1.168	1.135	0.998	1.012	1.067	0.930	0.900	0.836	0.774	0.823	0.868	0.713	0.787	0.646	0.710	0.782	0.696	0.756	0.680	0.804	0.718	0.771	0.948	1.234	1.711	1.750	1.264	1.542	2.180	3.117	5.451	12.02	19.33	18.60	9.094	2.449	0.646	0.609	0.649	0.609	0.537	0.584	0.607	0.580	0.601	0.582	0.629	0.600	0.578	0.655	0.698
260.0	54.00	50.44	100.7	326.5	354.4	209.4	711.0	3551	4364	311.2	27.40	9.034	7.047	5.178	4.009	3.653	2.655	2.612	1.972	2.011	1.656	1.548	1.646	1.404	1.300	1.111	1.048	1.146	0.996	0.977	0.978	0.910	0.905	0.895	0.769	0.823	0.732	0.764	0.752	0.654	0.754	0.662	0.716	0.694	0.731	0.647	0.616	0.682	0.581	0.772	1.188	1.903	2.053	1.385	1.096	1.294	1.800	3.664	8.817	17.95	24.20	18.48	6.847	1.196	0.654	0.592	0.615	0.605	0.643	0.593	0.608	0.624	0.584	0.614	0.581	0.679	0.754
265.0	55.82	46.03	49.91	154.0	428.1	258.1	204.6	1192	4471	2507	241.3	13.80	7.881	6.160	4.435	3.529	3.177	2.473	1.912	2.256	1.520	1.702	1.489	1.600	1.305	1.218	1.159	1.069	1.093	1.009	0.957	1.113	0.897	0.880	0.744	0.794	0.852	0.739	0.802	0.690	0.703	0.745	0.698	0.622	0.761	0.639	0.655	0.688	0.529	0.610	0.655	1.140	1.981	2.353	1.747	1.062	1.005	1.370	2.508	5.702	13.42	24.04	25.51	14.48	3.895	0.783	0.593	0.604	0.670	0.614	0.676	0.618	0.661	0.620	0.602	0.682	0.665
270.0	78.48	48.49	41.82	62.29	201.1	416.3	304.2	333.8	1412	3485	3812	917.7	52.94	7.470	5.246	4.168	3.521	2.873	2.256	2.144	1.755	1.893	1.568	1.527	1.335	1.309	1.238	1.131	1.077	1.021	1.046	1.087	0.931	0.909	0.810	0.831	0.883	0.827	0.779	0.737	0.712	0.807	0.775	0.700	0.702	0.762	0.724	0.619	0.543	0.607	0.533	0.693	1.053	1.519	2.106	2.360	2.203	1.356	1.214	1.889	3.683	7.270	12.65	18.96	22.18	19.57	10.99	3.466	0.869	0.690	0.622	0.673	0.696	0.610	0.613	0.674	0.647
275.0	160.5	110.2	67.83	52.75	76.81	205.7	532.8	364.2	387.8	907.1	3003	5984	1248	49.88	6.778	4.635	4.141	3.263	2.588	2.205	1.883	1.900	1.773	1.636	1.375	1.237	1.406	1.310	1.163	1.104	1.092	0.916	1.026	0.992	0.907	0.888	1.085	0.933	0.954	0.953	0.944	0.924	0.965	0.952	0.801	0.795	0.780	0.763	0.778	0.651	0.550	0.614	0.742	0.819	1.070	1.262	2.464	3.466	2.628	1.385	1.513	2.271	3.574	5.024	7.079	14.01	26.64	28.87	15.56	3.801	0.673	0.659	0.685	0.611	0.623	0.702	0.680
280.0	269.2	226.3	144.6	86.62	68.66	106.6	354.8	628.5	301.6	320.1	952.5	4542	5586	852.7	23.79	6.046	4.853	3.528	3.074	2.266	2.083	1.764	1.931	1.584	1.435	1.213	1.455	1.358	1.191	1.185	1.089	1.063	1.047	1.085	1.037	1.170	1.363	1.236	1.196	1.242	1.063	1.161	1.092	1.140	1.083	1.014	1.046	1.024	0.930	0.718	0.720	0.721	0.728	0.710	0.941	0.918	1.352	2.426	3.560	3.338	2.056	1.512	1.581	2.075	2.450	4.268	9.735	21.17	31.19	27.15	10.51	2.113	0.749	0.634	0.805	0.713	0.649
285.0	470.9	432.7	312.3	158.3	93.20	92.02	181.5	577.1	622.8	307.1	429.1	1554	5425	4581	143.6	10.02	5.915	3.840	3.319	2.866	2.452	1.988	1.739	1.670	1.603	1.316	1.434	1.373	1.171	1.217	1.035	1.062	0.921	1.214	1.232	1.429	1.597	1.564	1.357	1.465	1.234	1.438	1.405	1.424	1.412	1.540	1.526	1.478	1.420	1.051	0.844	0.818	0.881	0.834	0.801	0.880	1.059	1.418	2.078	3.684	4.334	2.831	1.755	1.649	1.926	2.215	3.440	6.450	13.63	25.20	31.86	21.83	6.749	1.185	0.757	0.690	0.623
290.0	782.4	790.9	605.6	298.7	153.5	122.6	159.3	323.0	707.3	799.9	568.1	731.5	1821	4032	4090	533.0	37.63	5.158	4.007	3.182	2.667	2.357	1.955	1.784	1.544	1.500	1.408	1.295	1.193	1.186	1.081	0.988	0.992	1.190	1.440	1.746	2.081	1.919	1.761	1.759	1.639	1.654	1.730	1.912	2.070	2.256	2.242	2.399	2.196	1.687	1.301	1.228	1.107	1.031	0.930	0.906	1.021	1.226	1.345	2.014	2.957	3.908	4.422	3.979	2.856	2.495	2.733	3.367	4.830	7.866	13.16	19.38	23.42	21.52	14.19	5.627	1.472
295.0	1077	1113	865.7	467.3	227.8	164.6	183.7	280.4	487.0	982.4	1147	768.4	815.2	1139	2613	4935	800.3	32.95	5.076	3.679	2.937	2.573	2.205	1.877	1.626	1.494	1.548	1.228	1.245	1.214	1.150	1.010	1.073	1.393	1.586	2.052	2.442	2.454	2.149	2.007	1.860	1.966	2.291	2.226	2.748	2.937	2.962	3.183	2.664	2.228	1.639	1.578	1.306	1.236	1.067	1.041	1.165	1.265	1.305	1.751	2.226	2.517	3.354	5.117	6.703	4.673	3.652	3.180	3.638	3.951	4.657	5.633	6.741	10.97	22.26	29.91	21.63
300.0	1177	1286	999.0	538.7	283.0	197.8	221.4	314.0	471.3	809.5	1438	1111	692.9	513.0	784.5	3508	5276	550.2	15.45	5.174	3.224	2.937	2.367	2.206	2.010	1.628	1.548	1.356	1.107	1.226	1.267	1.096	1.057	1.403	1.718	2.274	2.823	2.486	2.454	2.152	2.180	2.171	2.315	2.351	2.874	3.486	3.263	3.526	3.142	2.470	1.818	1.705	1.424	1.279	1.187	1.270	1.316	1.403	1.723	1.904	2.187	2.475	2.900	4.138	5.693	7.321	6.059	4.362	3.628	3.353	3.132	2.701	2.503	3.452	7.120	16.67	29.33
305.0	1204	1315	1071	567.6	306.8	232.4	263.1	359.3	508.1	744.6	1206	1518	837.0	425.5	312.1	1071	4723	3666	88.95	7.669	4.260	3.112	2.563	2.209	1.881	1.679	1.634	1.311	1.333	1.209	1.280	1.219	1.096	1.247	1.787	2.513	2.865	2.597	2.257	2.131	2.305	2.241	2.532	2.609	3.077	3.459	3.402	3.922	3.433	2.464	2.013	1.835	1.509	1.438	1.246	1.349	1.407	1.499	1.787	2.351	2.569	2.724	3.195	3.747	4.256	5.614	7.001	6.558	5.054	3.644	2.894	2.252	1.884	1.852	2.623	4.931	10.43
310.0	1193	1274	1031	570.1	318.4	248.4	280.1	373.5	515.2	710.0	968.4	1282	1211	567.5	249.5	341.4	1367	3087	3337	352.5	22.83	4.392	3.010	2.625	2.056	1.977	1.810	1.590	1.331	1.301	1.291	1.216	1.194	1.300	1.728	2.279	2.749	2.540	2.264	2.170	2.161	1.982	2.414	2.490	2.893	3.200	3.266	3.729	3.141	2.566	2.060	1.989	1.585	1.479	1.401	1.498	1.585	1.614	1.904	2.172	2.458	2.801	3.279	3.650	3.947	4.448	4.957	5.742	5.973	5.773	4.409	2.737	1.953	1.631	1.634	2.057	3.351
315.0	1437	1679	1124	609.8	334.9	263.8	305.6	398.1	538.2	734.5	944.2	1082	1159	1054	451.5	289.7	412.8	796.0	2091	3813	523.3	22.36	4.389	3.043	2.544	2.238	1.692	1.568	1.413	1.456	1.273	1.374	1.189	1.385	1.701	2.139	2.290	2.379	2.269	2.321	2.259	2.365	2.743	2.841	3.568	3.960	4.306	4.535	3.825	2.678	1.918	2.175	1.754	1.491	1.511	1.611	1.674	1.842	2.028	2.086	2.434	2.752	3.321	3.586	3.816	4.403	4.686	4.717	4.635	5.137	5.998	5.374	3.765	2.539	2.184	2.004	2.216
320.0	2313	2727	1489	856.6	431.7	318.6	363.2	477.7	655.9	890.4	1134	1283	1254	1356	974.8	505.4	371.7	335.4	627.2	2740	3340	389.4	10.43	4.020	2.859	2.379	1.871	1.616	1.555	1.489	1.415	1.426	1.275	1.447	1.531	2.207	2.283	2.429	2.485	2.487	2.876	2.999	3.236	4.274	5.213	6.297	6.794	6.971	5.208	3.489	2.752	2.661	2.132	1.687	1.613	1.771	1.911	2.126	2.384	2.584	2.842	3.269	3.852	4.233	4.441	5.247	5.547	5.757	5.597	5.484	5.665	6.522	6.294	5.077	3.783	3.181	2.645
325.0	3021	3952	2934	1591	707.9	441.9	453.7	572.9	798.6	1062	1340	1539	1476	1441	1354	839.5	472.3	300.1	282.5	882.9	3130	2725	64.65	7.171	3.696	2.698	2.240	1.758	1.757	1.815	1.414	1.431	1.188	1.453	1.530	2.134	2.341	2.450	2.659	2.693	3.240	3.572	4.300	5.575	6.808	8.397	9.618	10.58	8.332	6.202	4.760	4.285	3.072	2.229	1.981	2.030	2.221	2.259	2.710	2.977	3.257	3.516	4.297	4.871	5.248	5.757	6.285	6.452	6.561	6.535	6.414	6.801	7.130	7.382	6.297	4.809	3.765
330.0	3809	5023	4169	2460	1118	597.1	557.1	670.0	895.9	1186	1503	1726	1709	1578	1369	1179	720.3	366.2	257.4	349.4	994.4	2393	2433	272.0	18.35	3.959	2.667	2.272	1.835	1.740	1.629	1.499	1.305	1.351	1.584	2.033	2.462	2.568	3.018	2.973	3.585	4.077	5.029	6.539	8.320	10.55	11.93	13.79	11.61	9.217	7.393	6.896	4.732	3.446	2.597	2.399	2.595	2.651	2.975	3.361	3.637	4.082	4.823	5.181	5.855	6.282	6.764	7.116	7.214	7.536	7.095	7.227	6.697	6.585	6.747	6.604	5.885
335.0	4265	5810	4920	3050	1397	728.7	622.3	730.3	963.4	1255	1586	1840	1853	1691	1385	1139	968.7	515.9	293.7	271.5	381.5	669.2	1644	2977	416.8	16.46	3.587	3.036	2.104	1.833	1.642	1.574	1.418	1.417	1.519	1.926	2.612	2.777	3.028	3.006	3.578	4.544	5.374	7.088	8.968	11.70	13.77	15.77	13.68	11.05	9.054	8.587	5.429	4.195	3.162	2.739	3.013	2.840	2.941	3.520	3.934	4.409	4.837	5.940	6.346	6.614	6.989	7.543	7.531	7.636	7.495	7.563	7.222	6.321	6.370	5.942	6.238
340.0	4739	6435	5824	3658	1714	875.2	705.6	796.7	1026	1345	1671	1949	1971	1797	1475	1124	920.2	710.3	375.3	293.7	290.5	308.3	533.9	2243	2776	62.51	7.487	3.480	2.434	1.981	1.799	1.670	1.534	1.460	1.558	1.995	2.146	2.834	3.133	3.378	3.892	4.778	5.908	7.308	9.944	12.70	15.21	17.95	15.98	13.41	11.10	9.702	6.654	4.618	3.554	3.218	3.373	3.155	3.587	3.810	4.280	4.893	5.509	5.784	6.585	6.932	7.417	7.770	8.370	8.045	8.251	7.988	7.365	6.794	6.628	5.943	5.893
345.0	4916	6823	6487	4138	1954	990.5	769.8	867.0	1082	1392	1717	1978	2029	1844	1526	1136	817.3	743.0	531.6	341.7	305.1	266.3	261.5	738.9	2694	2019	52.87	4.798	2.801	2.133	1.812	1.818	1.537	1.665	1.524	1.860	2.416	2.728	3.156	3.572	4.246	4.774	6.030	8.002	9.965	13.16	15.92	19.27	17.56	15.18	12.62	11.31	7.490	5.236	3.958	3.346	3.560	3.441	3.783	4.227	4.493	4.953	5.418	6.283	6.849	7.139	7.802	7.950	8.396	8.645	8.287	8.164	7.903	7.437	6.720	6.415	5.551
350.0	4500	6495	6287	4121	2030	1109	911.0	994.0	1134	1382	1670	1870	1924	1746	1466	1092	754.0	601.5	602.9	470.8	344.1	284.4	231.9	288.6	842.1	1884	1828	228.9	12.85	2.911	2.061	1.920	1.612	1.609	1.555	1.853	2.239	2.672	3.066	3.282	4.146	4.662	5.758	7.283	9.421	12.55	14.86	18.08	17.37	14.96	12.32	11.31	7.903	5.737	4.479	4.046	4.128	3.875	4.280	4.437	4.751	4.963	5.467	5.998	6.650	7.104	7.453	7.640	7.936	8.079	7.869	8.012	7.621	7.047	6.482	6.140	5.038
355.0	3946	5888	5849	3863	1985	1169	957.3	1029	1131	1323	1562	1716	1743	1590	1353	1017	706.9	528.6	496.8	563.8	446.8	315.3	249.1	207.3	266.2	481.9	1311	2287	332.8	9.399	2.702	2.138	1.858	1.707	1.610	1.642	2.158	2.442	2.937	2.930	3.786	4.306	5.505	6.633	8.772	11.60	13.55	16.98	16.29	14.01	12.00	10.77	7.708	5.822	4.683	4.434	3.980	4.058	4.424	4.591	4.816	4.962	5.523	5.944	6.151	6.564	6.714	7.164	7.214	7.386	7.099	7.188	6.855	6.743	5.971	5.396	4.913
360.0	3696	5332	5498	3691	1922	1145	936.6	983.3	1071	1232	1441	1593	1605	1460	1267	949.6	674.2	507.3	446.7	500.8	544.6	362.8	265.6	201.5	148.6	155.6	381.0	1837	1992	54.87	4.758	2.529	2.098	1.795	1.696	1.700	1.906	2.359	2.650	2.841	3.312	4.009	4.871	6.230	8.304	10.47	12.58	15.36	15.36	12.84	11.20	10.16	7.260	5.823	4.775	4.287	3.862	4.226	4.159	4.339	4.440	4.664	5.535	5.523	6.029	6.242	6.236	6.580	6.545	7.321	6.833	6.533	6.495	6.313	5.650	4.950	4.554
365.0	3332	4853	4992	3388	1802	1117	935.4	954.8	1018	1158	1334	1458	1469	1339	1155	886.0	636.8	493.5	428.4	433.5	532.4	456.1	292.8	209.9	131.3	91.22	122.2	581.1	2118	1568	43.98	3.390	2.286	1.868	1.848	1.894	1.939	2.281	2.595	2.862	2.904	3.658	4.503	5.421	7.353	9.301	11.23	14.11	14.43	11.97	9.955	9.369	6.958	5.521	4.625	4.049	4.035	3.929	4.168	4.153	4.241	4.335	4.955	5.293	5.753	5.450	5.570	5.973	6.268	6.575	6.180	6.247	6.402	5.836	5.355	4.444	4.181
370.0	2775	4051	4193	2928	1663	1103	946.7	939.1	961.0	1065	1195	1274	1281	1168	1021	798.0	598.1	471.1	414.9	397.2	425.3	469.0	384.6	236.1	143.7	92.46	75.49	163.7	656.1	1607	1238	196.2	9.706	2.452	2.077	1.790	1.959	2.246	2.339	2.541	2.912	3.272	3.869	4.659	6.170	7.856	9.666	11.87	11.79	9.942	8.633	8.322	6.304	5.313	4.309	3.963	3.946	3.939	3.995	4.232	4.301	4.073	4.473	4.826	5.214	5.112	5.165	5.332	5.665	5.876	5.579	5.316	5.441	5.226	4.706	4.472	4.169
375.0	2232	3227	3391	2449	1490	1038	878.2	856.7	873.6	936.9	1029	1087	1088	993.8	883.6	703.0	545.8	443.3	401.4	378.1	372.9	384.2	426.0	318.9	170.2	115.6	81.96	82.08	176.0	404.0	1144	1919	277.9	6.603	2.637	1.726	2.043	2.112	2.153	2.333	2.500	2.830	3.598	4.083	5.295	6.894	7.586	9.601	9.841	8.378	7.361	6.951	5.633	4.605	3.959	3.717	3.863	3.827	3.712	3.905	4.012	4.019	4.038	4.128	4.537	4.594	4.426	4.819	5.056	4.736	4.714	4.740	4.696	4.309	4.153	4.052	3.587
380.0	1917	2773	2888	2119	1347	955.3	808.5	778.5	774.5	840.8	907.7	957.8	956.0	871.1	781.1	628.0	509.3	424.1	389.6	367.8	354.0	344.8	361.9	373.8	219.8	131.0	95.28	72.00	75.76	115.4	335.4	1615	1713	45.09	4.054	2.026	2.223	2.020	2.062	2.107	2.374	2.796	3.079	3.730	4.440	5.892	6.620	7.886	8.490	7.288	6.383	6.466	5.060	4.296	3.738	3.464	3.726	3.578	3.491	3.563	3.501	3.644	3.611	3.874	4.017	4.142	3.905	4.146	4.417	4.324	4.279	3.961	4.100	4.182	3.910	3.787	3.481
385.0	1680	2378	2483	1858	1228	909.0	777.2	742.3	713.9	763.1	815.2	847.7	846.8	779.5	703.5	570.9	470.2	404.6	369.3	353.4	339.3	322.6	311.9	343.1	286.7	156.2	103.2	78.68	60.57	55.12	96.41	518.0	1858	1336	34.66	2.656	2.484	2.247	2.192	2.141	2.330	2.515	2.732	3.491	3.840	5.073	5.631	6.727	6.843	6.189	5.661	5.442	4.488	3.950	3.477	3.363	3.618	3.257	3.257	3.195	3.175	3.339	3.318	3.651	3.579	3.733	3.570	3.949	3.907	4.013	3.846	3.573	3.650	3.975	3.758	3.323	3.342
390.0	1383	1887	1984	1542	1078	835.5	737.2	698.1	656.4	670.9	710.1	738.9	730.4	673.3	609.3	506.8	434.3	377.3	350.6	335.3	326.5	309.3	285.7	274.9	283.9	228.4	134.1	91.94	68.81	51.15	48.57	135.6	565.0	1375	1021	150.9	8.418	2.417	2.293	2.186	2.163	2.310	2.484	2.882	3.248	4.077	4.689	5.493	5.759	5.123	4.590	4.804	4.019	3.824	3.496	3.322	3.509	3.076	3.264	3.065	3.126	3.134	2.994	3.178	3.173	3.356	3.204	3.451	3.471	3.356	3.446	3.242	3.243	3.275	3.349	2.978	3.038
395.0	1127	1499	1611	1294	954.3	784.7	694.0	649.2	593.6	594.4	612.4	625.7	619.5	580.9	527.7	456.1	389.7	348.3	326.7	321.1	307.7	294.1	276.0	248.7	229.9	250.7	202.1	113.8	80.43	59.80	44.87	53.31	141.7	339.9	982.5	1401	229.3	5.911	2.358	2.373	2.011	2.232	2.236	2.514	2.943	3.550	3.959	4.697	4.675	4.288	3.821	4.275	3.586	3.537	3.163	3.165	3.058	3.053	3.056	2.974	2.927	2.950	2.729	2.843	3.000	2.999	3.012	2.876	3.052	2.891	2.980	3.001	2.931	2.928	2.768	2.783	2.775
400.0	959.0	1281	1391	1133	845.2	740.5	662.3	621.4	560.9	552.5	555.1	565.0	554.1	521.9	474.8	414.6	367.6	331.3	312.6	305.7	294.6	282.0	265.7	239.1	210.2	213.0	235.7	153.1	92.29	66.77	49.86	39.68	50.58	90.15	285.7	1174	1311	38.51	3.504	2.338	2.126	2.121	2.129	2.317	2.628	3.057	3.544	3.960	4.274	3.541	3.328	3.733	3.399	3.180	3.027	3.133	3.168	2.774	2.825	2.783	2.651	2.651	2.643	2.582	2.806	2.759	2.927	2.640	2.968	2.828	2.701	2.741	2.524	2.700	2.515	2.585	2.745
405.0	858.8	1131	1220	990.5	784.0	695.0	628.1	588.6	528.6	501.2	503.5	514.9	511.0	475.4	436.8	385.1	347.1	313.0	297.5	289.1	279.7	272.7	254.4	232.2	202.2	187.1	213.7	202.7	113.0	74.23	56.65	40.66	33.65	35.82	76.24	371.8	1418	949.0	29.91	2.715	2.141	2.254	2.151	2.092	2.417	2.784	3.120	3.498	3.663	3.262	3.175	3.452	2.979	2.972	2.756	2.844	2.960	2.735	2.671	2.618	2.683	2.612	2.576	2.521	2.495	2.334	2.494	2.486	2.713	2.635	2.510	2.512	2.645	2.608	2.421	2.386	2.575
410.0	761.5	943.9	1017	867.7	725.5	649.6	609.2	567.6	502.6	467.7	460.7	461.4	456.5	428.0	398.4	353.2	318.9	293.3	277.1	272.7	263.4	255.7	243.3	223.7	198.2	179.2	173.0	193.8	167.2	98.17	64.66	47.19	34.81	28.18	31.60	94.39	433.4	997.9	733.3	137.3	6.531	2.490	2.139	1.929	2.233	2.619	2.687	2.887	3.302	2.901	2.815	3.021	2.768	2.796	2.621	2.732	2.665	2.746	2.702	2.559	2.572	2.353	2.378	2.491	2.442	2.237	2.278	2.343	2.354	2.348	2.239	2.431	2.294	2.373	2.233	2.374	2.229
