Sample:	'1
File name:	T2025040701¶«Íõ¹«Ä¹ Ï¡ÊÍ5±¶.FD3
Run date:	'10:30:05, 04/08/2025
Operator:	Administrator
Comment:	'

Instrument
Model:	F-2700 FL Spectrophotometer
Serial number:	23B8-004
ROM Version:	4J14000 07

Instrument parameters
Measurement type:	3-D scan
Data mode:	Fluorescence
EX  Start WL:	220.0 nm
EX  End WL:	600.0 nm
EX Sampling interval:	5.0 nm
EM  Start WL:	230.0 nm
EM  End WL:	650.0 nm
EM Sampling interval:	5.0 nm
Scan speed:	12000 nm/min
EX Slit:	5.0 nm
EM Slit:	5.0 nm
PMT Voltage:	700 V
Response:	Auto 
Corrected spectra:	Off
Contour interval:	50.000

Peak integration
Integration method:	Rectangular
Sensitivity:	1
Threshold:	1.000

Peaks
No.	ApexEX/EM(nm)	Height(Data)
1	225.0/570.0	55.47
2	230.0/345.0	2118
3	230.0/400.0	1458
4	235.0/395.0	1455
5	235.0/410.0	1477
6	240.0/265.0	435.0
7	245.0/270.0	421.7
8	250.0/275.0	542.6
9	250.0/545.0	212.6
10	255.0/285.0	594.6
11	255.0/560.0	166.4
12	260.0/290.0	587.9
13	260.0/575.0	131.9
14	265.0/295.0	765.6
15	265.0/585.0	105.7
16	270.0/300.0	1029
17	270.0/370.0	862.8
18	270.0/600.0	95.01
19	275.0/305.0	1041
20	275.0/345.0	963.3
21	275.0/430.0	2070
22	275.0/610.0	80.00
23	280.0/625.0	65.24
24	285.0/320.0	922.7
25	285.0/635.0	47.85
26	290.0/325.0	831.3
27	305.0/345.0	610.2
28	310.0/350.0	541.8
29	315.0/355.0	557.1
30	330.0/415.0	1130
31	440.0/520.0	29.63
32	460.0/345.0	5.762
33	495.0/270.0	2.090
34	505.0/275.0	3.091
35	510.0/280.0	3.660
36	510.0/435.0	6.739
37	515.0/285.0	3.749
38	515.0/440.0	6.875
39	530.0/290.0	3.924
40	540.0/295.0	5.053
41	545.0/300.0	5.588
42	550.0/305.0	5.709
43	560.0/310.0	5.164
44	560.0/425.0	6.416
45	565.0/430.0	6.519
46	570.0/315.0	5.463
47	575.0/420.0	6.679
48	585.0/325.0	5.640

Data points
	220.0	225.0	230.0	235.0	240.0	245.0	250.0	255.0	260.0	265.0	270.0	275.0	280.0	285.0	290.0	295.0	300.0	305.0	310.0	315.0	320.0	325.0	330.0	335.0	340.0	345.0	350.0	355.0	360.0	365.0	370.0	375.0	380.0	385.0	390.0	395.0	400.0	405.0	410.0	415.0	420.0	425.0	430.0	435.0	440.0	445.0	450.0	455.0	460.0	465.0	470.0	475.0	480.0	485.0	490.0	495.0	500.0	505.0	510.0	515.0	520.0	525.0	530.0	535.0	540.0	545.0	550.0	555.0	560.0	565.0	570.0	575.0	580.0	585.0	590.0	595.0	600.0
230.0	46.84	949.0	2568	753.6	29.14	3.721	3.017	2.927	2.616	2.422	2.761	2.139	2.142	1.909	1.672	1.342	1.338	1.196	1.113	0.993	0.876	0.939	0.838	0.805	0.769	0.689	0.614	0.573	0.507	0.474	0.461	0.386	0.376	0.322	0.275	0.279	0.288	0.269	0.182	0.231	0.296	0.430	0.454	0.251	0.170	0.159	0.977	4.921	8.430	6.013	2.126	0.328	0.135	0.115	0.102	0.087	0.093	0.094	0.082	0.073	0.096	0.063	0.096	0.066	0.094	0.090	0.055	0.040	0.064	0.061	0.075	0.050	0.055	0.045	0.033	0.034	0.039
235.0	142.5	270.6	1600	2648	541.1	45.47	4.144	2.838	2.918	2.426	3.045	2.379	1.995	2.465	1.792	1.411	1.278	1.227	1.196	1.045	0.920	1.011	0.941	0.780	0.794	0.627	0.645	0.686	0.500	0.518	0.477	0.468	0.400	0.372	0.305	0.370	0.307	0.204	0.197	0.191	0.280	0.302	0.421	0.534	0.445	0.174	0.317	1.387	3.211	6.351	8.896	8.668	3.783	0.544	0.111	0.097	0.125	0.108	0.079	0.099	0.078	0.042	0.111	0.049	0.080	0.088	0.061	0.053	0.070	0.080	0.104	0.071	0.039	0.037	0.012	0.086	0.041
240.0	233.6	170.2	487.6	2345	2908	409.4	17.59	4.038	4.146	3.614	2.608	2.639	2.506	2.317	2.344	1.442	1.555	1.332	1.179	1.050	1.095	0.947	1.048	0.776	0.824	0.599	0.682	0.716	0.590	0.482	0.484	0.379	0.334	0.336	0.323	0.268	0.223	0.242	0.233	0.199	0.260	0.219	0.207	0.363	0.664	0.677	0.529	0.457	0.818	1.961	5.171	12.33	14.86	8.920	2.719	0.285	0.094	0.113	0.074	0.133	0.130	0.046	0.097	0.063	0.060	0.075	0.061	0.071	0.053	0.073	0.062	0.039	0.058	0.052	0.018	0.074	0.049
245.0	150.9	266.4	186.7	812.2	3310	2909	282.0	8.533	4.657	4.026	3.889	3.212	3.031	2.411	2.196	1.448	1.482	1.488	1.221	1.141	1.132	0.837	1.046	0.911	0.795	0.746	0.741	0.569	0.649	0.447	0.489	0.299	0.443	0.373	0.304	0.263	0.271	0.258	0.248	0.228	0.240	0.253	0.217	0.219	0.424	0.711	0.950	0.634	0.390	0.566	1.347	4.266	11.29	18.13	16.34	7.662	1.400	0.204	0.130	0.146	0.091	0.069	0.131	0.058	0.108	0.072	0.063	0.108	0.066	0.076	0.044	0.065	0.063	0.065	0.044	0.054	0.054
250.0	52.96	188.3	289.2	283.8	1101	3181	3700	1034	50.55	5.569	5.085	3.856	3.951	2.729	2.404	1.786	1.505	1.459	1.299	1.256	1.148	0.985	1.025	0.893	0.804	0.803	0.823	0.693	0.640	0.574	0.537	0.488	0.412	0.343	0.312	0.286	0.268	0.258	0.238	0.326	0.248	0.255	0.198	0.165	0.231	0.308	0.517	0.839	0.919	0.829	0.667	1.124	2.794	6.175	11.06	16.90	20.68	16.19	8.512	1.991	0.179	0.118	0.151	0.100	0.093	0.105	0.082	0.109	0.073	0.090	0.066	0.073	0.087	0.062	0.090	0.076	0.071
255.0	25.65	64.52	219.4	361.8	339.4	833.8	3374	5948	1384	41.68	7.337	5.898	4.752	3.906	2.701	2.370	1.977	1.821	1.762	1.416	1.293	1.310	1.159	1.023	0.821	0.756	0.788	0.661	0.610	0.541	0.604	0.464	0.388	0.432	0.350	0.358	0.259	0.254	0.249	0.286	0.224	0.224	0.224	0.191	0.222	0.173	0.221	0.337	0.522	0.951	1.438	1.365	1.032	1.564	2.681	4.268	8.950	21.36	34.83	25.75	12.57	1.916	0.190	0.141	0.170	0.118	0.112	0.110	0.068	0.106	0.140	0.054	0.090	0.048	0.100	0.083	0.084
260.0	24.78	27.09	80.43	333.9	341.3	234.6	1082	5584	6406	241.2	18.35	8.273	5.115	3.987	3.483	2.529	1.961	1.581	1.715	1.721	1.333	1.377	1.027	0.966	0.977	0.843	0.836	0.932	0.722	0.570	0.525	0.442	0.483	0.432	0.373	0.350	0.316	0.285	0.322	0.278	0.264	0.248	0.268	0.221	0.176	0.150	0.185	0.220	0.243	0.446	1.063	1.920	1.749	1.029	0.811	1.114	2.232	6.083	17.36	34.98	44.93	23.98	9.990	1.061	0.166	0.125	0.164	0.146	0.085	0.103	0.139	0.099	0.093	0.069	0.106	0.091	0.118
265.0	24.36	19.23	32.34	164.7	435.0	232.6	278.8	2022	7970	6095	184.7	11.97	7.810	4.922	4.135	3.045	2.547	1.929	1.852	1.743	1.280	1.344	1.143	0.954	1.164	0.866	0.871	0.905	0.608	0.554	0.712	0.530	0.454	0.465	0.473	0.332	0.353	0.238	0.347	0.276	0.267	0.294	0.283	0.272	0.183	0.189	0.175	0.193	0.251	0.223	0.445	1.065	1.824	1.894	1.229	0.617	0.709	1.550	4.279	11.31	28.50	48.57	53.34	20.48	5.053	0.414	0.220	0.142	0.127	0.141	0.144	0.124	0.129	0.103	0.171	0.108	0.082
270.0	32.63	28.77	27.00	55.15	217.2	421.7	275.6	504.6	2671	7577	8501	756.5	39.32	8.615	5.478	4.280	3.276	2.516	2.433	1.991	1.791	1.360	1.436	1.304	1.144	0.972	0.976	0.936	0.673	0.668	0.681	0.632	0.552	0.547	0.538	0.455	0.330	0.273	0.324	0.302	0.249	0.269	0.297	0.301	0.280	0.296	0.218	0.299	0.283	0.207	0.238	0.405	0.754	1.258	1.845	2.090	1.650	0.914	1.162	2.871	6.950	14.94	29.90	44.17	42.24	45.22	14.37	5.160	0.473	0.201	0.169	0.122	0.115	0.134	0.152	0.119	0.133
275.0	69.52	68.27	53.39	34.83	70.56	212.2	542.6	329.4	641.2	1935	7549	9999.9	1034	32.41	8.361	6.561	4.109	3.483	2.652	2.325	2.289	1.582	1.507	1.329	1.230	1.157	1.094	1.032	0.942	0.837	0.969	0.677	0.655	0.633	0.648	0.501	0.474	0.328	0.415	0.340	0.388	0.277	0.378	0.293	0.267	0.353	0.337	0.300	0.264	0.245	0.251	0.318	0.343	0.518	0.665	1.147	2.500	3.091	1.928	1.164	1.901	3.592	7.016	10.57	14.91	40.46	74.73	76.59	23.22	5.565	0.414	0.206	0.219	0.168	0.161	0.168	0.126
280.0	128.7	124.3	94.11	52.84	47.42	89.17	372.2	586.4	278.8	506.1	2246	9999.9	9285	140.1	16.27	8.304	5.959	4.477	3.025	2.515	2.192	1.914	1.557	1.480	1.462	1.231	1.219	1.061	0.947	0.795	0.883	0.750	0.727	0.754	0.661	0.612	0.653	0.482	0.455	0.422	0.424	0.414	0.384	0.329	0.389	0.452	0.446	0.563	0.423	0.337	0.343	0.355	0.318	0.315	0.419	0.523	1.121	2.724	3.660	2.696	1.268	1.183	1.991	2.780	3.842	10.39	28.02	64.40	89.58	32.21	18.15	2.275	0.299	0.275	0.227	0.149	0.167
285.0	184.6	180.9	146.6	85.83	62.92	68.45	173.0	594.6	334.6	235.1	612.7	3424	9999.9	7095	102.4	12.10	7.960	5.314	4.022	3.191	2.772	2.020	1.929	1.491	1.560	1.414	1.224	0.927	1.028	0.817	0.827	0.822	0.720	0.774	0.671	0.851	0.810	0.643	0.547	0.520	0.467	0.527	0.489	0.565	0.447	0.548	0.623	0.643	0.512	0.519	0.451	0.390	0.400	0.332	0.410	0.454	0.619	1.089	2.333	3.749	3.478	1.890	1.198	1.222	1.597	3.104	6.960	17.21	40.58	74.06	96.34	29.30	11.91	0.932	0.281	0.210	0.242
290.0	261.8	284.7	230.8	134.8	92.18	85.72	114.9	281.3	587.9	515.1	351.5	947.1	3446	9986	9376	424.9	26.39	8.457	5.494	4.160	3.247	2.689	2.327	1.991	1.696	1.494	1.436	1.317	1.174	0.946	0.820	0.897	0.787	0.833	0.973	0.909	0.878	0.784	0.673	0.669	0.569	0.636	0.584	0.645	0.683	0.901	0.790	0.924	0.812	0.695	0.567	0.489	0.541	0.430	0.432	0.454	0.553	0.729	1.073	1.594	2.622	3.683	3.924	2.907	1.677	1.705	2.561	4.760	10.16	19.77	40.37	56.23	75.44	62.35	19.67	9.735	1.384
295.0	329.4	382.9	305.8	187.4	122.3	113.3	131.5	181.8	311.8	765.6	698.4	470.4	959.7	2507	8074	9999.9	616.3	23.01	8.536	5.622	4.192	3.469	2.925	2.290	1.735	1.578	1.591	1.322	1.197	1.157	0.933	0.909	0.892	1.064	1.091	1.132	0.960	0.908	0.757	0.695	0.662	0.664	0.761	0.733	0.898	1.173	1.130	1.193	1.016	0.899	0.714	0.619	0.684	0.601	0.646	0.611	0.624	0.687	0.826	1.042	1.348	1.787	2.637	4.727	5.053	3.126	2.001	2.355	3.456	5.619	9.927	13.42	19.72	36.62	79.98	104.6	31.86
300.0	382.1	446.9	364.7	223.8	149.5	139.4	148.4	178.2	250.7	524.8	1029	606.4	457.7	717.1	2316	9999.9	9999.9	84.53	14.32	8.185	5.807	4.402	3.450	2.539	2.207	1.963	2.086	1.382	1.151	1.340	1.129	1.041	1.216	1.089	1.147	1.203	1.108	1.004	0.837	0.847	0.670	0.822	0.925	0.853	1.115	1.216	1.229	1.297	1.152	1.051	0.826	0.852	0.696	0.725	0.644	0.699	0.730	0.716	0.929	0.861	1.152	1.296	1.833	2.961	4.931	5.588	4.316	2.529	2.259	2.380	3.333	3.870	5.194	9.271	25.00	60.46	97.24
305.0	436.0	482.0	414.8	260.6	175.8	169.8	191.4	222.1	286.9	431.2	860.2	1041	481.6	377.8	663.0	3360	9999.9	4773	68.44	11.64	7.310	5.277	3.986	3.167	2.576	2.115	1.965	1.606	1.447	1.294	1.078	0.905	1.078	1.042	1.148	1.174	1.149	1.052	1.026	0.847	0.845	0.767	1.014	0.892	1.121	1.172	1.236	1.427	1.290	1.087	1.056	0.914	0.857	0.797	0.742	0.854	0.872	1.071	1.069	1.136	1.292	1.435	1.756	2.275	3.164	4.306	5.709	5.435	3.335	2.496	2.139	1.936	2.328	3.091	6.476	15.09	35.31
310.0	456.0	508.4	458.0	290.9	201.1	195.5	224.9	267.2	333.9	441.3	637.8	959.0	888.0	446.2	339.7	878.1	3446	9420	8168	1382	21.29	7.839	5.219	3.985	3.227	2.713	2.252	1.874	1.681	1.545	1.221	1.052	1.167	1.180	1.249	1.280	1.175	1.106	0.986	0.995	0.930	0.915	0.888	0.974	1.105	1.332	1.364	1.511	1.417	1.150	1.085	1.023	1.103	0.943	0.910	0.958	1.028	1.169	1.406	1.479	1.466	1.841	2.047	2.147	2.637	3.106	4.050	4.695	5.164	4.860	3.576	2.570	2.041	1.968	2.506	4.339	8.790
315.0	505.4	569.5	489.1	315.4	231.0	221.4	258.9	309.4	375.8	476.2	605.7	716.4	871.8	819.0	359.8	355.0	884.3	2339	7615	9999.9	469.9	20.26	8.486	5.523	4.148	3.082	2.746	2.098	1.877	1.619	1.465	1.278	1.196	1.351	1.263	1.407	1.260	1.236	1.032	1.092	0.904	1.003	1.065	1.256	1.190	1.456	1.593	1.622	1.523	1.241	1.105	1.245	1.108	0.955	0.904	1.170	1.157	1.466	1.531	1.633	1.613	2.059	2.234	2.269	2.610	2.765	3.248	3.481	3.774	4.481	5.463	5.064	3.278	2.157	1.858	1.962	3.134
320.0	618.0	767.0	631.2	387.1	267.6	239.9	285.9	336.5	414.6	524.3	640.1	710.3	735.1	922.7	605.4	297.7	349.3	616.9	2161	9821	9455	372.7	14.16	7.397	4.929	3.771	2.770	2.533	2.005	1.757	1.670	1.281	1.294	1.116	1.298	1.321	1.263	1.244	1.071	1.113	0.966	1.013	1.186	1.203	1.419	1.779	1.991	2.162	1.930	1.417	1.235	1.287	1.212	1.195	1.069	1.216	1.374	1.445	1.505	1.611	1.845	2.230	2.290	2.695	3.114	2.996	3.134	3.378	3.629	3.715	4.422	5.266	5.299	3.777	2.590	1.931	1.847
325.0	790.9	1064	939.7	571.6	355.7	295.3	313.0	371.1	459.0	572.7	696.7	757.8	730.4	777.8	831.3	418.3	262.3	255.3	556.8	3166	9999.9	3818	57.29	10.45	6.595	4.714	3.393	3.117	2.391	1.912	1.615	1.603	1.245	1.169	1.430	1.265	1.361	1.214	1.102	1.079	1.035	1.106	1.238	1.437	1.799	2.303	2.531	2.861	2.601	2.082	1.952	1.879	1.569	1.277	1.377	1.376	1.506	1.710	1.704	2.066	2.165	2.343	2.470	2.956	3.163	3.065	3.603	3.709	3.560	3.921	3.897	4.205	5.098	5.640	4.879	2.710	2.273
330.0	1069	1468	1401	984.2	587.7	421.3	382.7	435.9	526.1	648.6	781.8	842.2	809.8	752.2	751.0	682.8	398.2	229.3	237.8	799.7	3219	7721	7186	1308	21.25	7.171	4.801	3.836	2.886	2.435	1.899	1.865	1.570	1.467	1.474	1.324	1.361	1.324	1.218	1.286	1.182	1.369	1.594	1.816	2.311	3.002	3.460	4.087	3.766	3.437	3.065	3.187	2.363	2.093	1.836	1.762	1.844	2.088	2.117	2.181	2.564	2.813	3.076	3.214	3.549	3.686	3.929	3.938	4.217	4.224	4.143	4.244	4.342	4.477	4.910	4.662	4.141
335.0	1237	1758	1777	1413	905.2	578.1	483.5	514.7	587.6	715.1	845.6	924.2	900.3	823.7	711.2	657.4	651.3	353.3	228.3	321.9	831.8	1942	6438	9999.9	413.3	22.95	7.257	5.045	3.584	3.175	2.323	2.334	1.814	1.794	1.594	1.449	1.692	1.407	1.290	1.253	1.314	1.553	1.716	2.196	2.642	3.689	4.161	4.840	4.962	4.663	4.240	4.435	3.538	3.032	2.449	2.247	2.358	2.226	2.380	2.503	2.879	2.981	3.529	3.405	3.779	4.052	4.378	4.471	4.566	4.560	4.494	4.480	4.488	4.494	4.484	4.135	4.289
340.0	1402	1904	2006	1595	1057	676.7	543.0	553.9	627.3	747.1	881.6	957.2	944.5	861.8	738.5	613.8	645.0	535.6	283.4	249.7	333.2	555.6	1858	8651	9035	361.2	13.77	6.806	4.567	3.819	2.844	2.413	2.081	1.803	1.758	1.512	1.502	1.485	1.371	1.248	1.536	1.724	1.880	2.269	2.926	3.738	4.298	5.222	5.487	5.248	4.750	5.048	4.185	3.632	2.843	2.520	2.604	2.519	2.724	2.697	2.931	2.993	3.642	3.937	4.051	4.373	4.421	4.490	4.853	4.906	4.909	4.863	4.818	4.581	4.161	3.916	3.924
345.0	1412	1927	2118	1710	1157	748.8	595.0	589.3	657.3	754.3	886.9	963.3	948.9	870.7	755.7	616.9	551.9	610.2	416.5	266.9	249.5	273.2	540.3	2728	9900	7248	51.91	10.44	5.527	4.352	3.229	2.746	2.238	1.916	1.753	1.574	1.619	1.511	1.463	1.376	1.357	1.677	1.824	2.267	2.821	3.897	4.497	5.456	5.762	5.327	5.167	5.255	4.441	3.965	3.447	2.782	2.803	2.661	3.012	3.021	3.027	3.231	3.466	3.731	3.842	4.136	4.591	4.702	4.855	4.897	4.925	4.792	4.975	4.615	4.117	3.834	3.716
350.0	1341	1868	2073	1763	1246	845.2	685.2	673.3	715.0	778.6	876.8	956.2	940.4	871.9	764.0	638.1	540.8	527.2	541.8	410.6	292.8	260.9	283.9	733.2	3002	7160	6089	1274	20.90	6.484	4.805	3.224	2.573	2.051	1.771	1.695	1.618	1.470	1.428	1.457	1.391	1.668	1.849	2.293	2.865	3.627	4.314	5.151	5.760	5.366	5.237	5.569	4.731	4.232	3.560	3.156	3.036	3.045	3.190	3.096	3.323	3.542	3.556	3.753	4.158	4.239	4.574	4.592	4.826	4.822	4.928	4.814	4.715	4.773	4.274	4.119	3.770
355.0	1255	1764	1950	1729	1267	910.1	754.4	743.6	759.6	781.4	865.1	924.7	916.9	860.9	774.9	663.1	571.9	513.1	502.2	557.1	425.1	315.3	276.8	325.3	784.8	1753	4882	9340	1933	25.66	7.182	4.289	3.302	2.527	2.182	1.901	1.758	1.686	1.495	1.458	1.467	1.654	1.721	2.244	2.746	3.367	4.103	5.060	5.340	5.332	4.789	5.526	5.016	4.449	3.749	3.234	3.332	3.506	3.674	3.407	3.809	3.818	3.839	3.982	4.344	4.151	4.568	4.628	4.465	4.618	4.758	4.911	4.660	4.584	4.519	4.245	4.258
360.0	1261	1666	1814	1657	1265	922.5	791.0	786.7	784.4	789.8	853.0	893.9	897.4	842.2	773.4	670.2	599.1	534.9	504.2	554.0	566.8	410.6	320.9	278.7	332.3	500.8	1352	6993	8895	365.5	17.73	6.254	3.855	3.032	2.471	2.120	1.754	1.646	1.614	1.457	1.469	1.672	1.741	2.093	2.460	3.386	3.806	4.580	4.926	5.027	4.665	5.485	5.148	4.784	3.822	3.589	3.435	3.734	3.738	3.575	3.747	3.989	3.875	4.227	3.940	4.178	4.165	4.472	4.489	4.659	4.756	4.867	4.451	4.550	4.308	4.319	4.314
365.0	1175	1625	1792	1634	1265	962.8	842.7	826.6	808.5	803.3	851.9	865.0	877.8	830.2	761.8	683.3	626.9	579.1	549.2	549.0	613.8	544.8	398.4	319.9	280.5	265.1	405.9	2071	8424	7610	299.8	10.55	5.247	3.636	2.548	2.386	1.798	1.627	1.475	1.553	1.530	1.760	1.872	2.079	2.545	3.411	3.646	4.552	5.021	4.922	4.781	5.659	5.081	4.537	4.048	3.768	3.867	3.907	3.786	3.864	4.200	4.097	4.036	4.196	3.962	4.004	4.152	4.331	4.327	4.674	4.759	4.411	4.430	4.520	4.339	4.370	4.476
370.0	1147	1539	1747	1593	1310	1026	915.0	884.6	872.8	848.4	862.8	846.1	851.7	817.2	763.2	699.8	661.9	631.9	618.3	608.1	623.9	654.9	575.2	433.5	350.1	285.4	256.6	581.4	2445	6495	5838	1298	20.89	5.822	3.474	2.847	2.147	2.032	1.819	1.559	1.656	1.727	1.832	2.144	2.527	3.207	3.513	4.372	4.689	4.666	4.674	5.417	5.031	4.554	4.036	3.839	4.042	4.130	4.097	4.175	4.357	4.302	3.979	4.299	4.255	4.240	4.133	3.990	4.256	4.468	4.480	4.506	4.549	4.583	4.283	4.465	4.613
375.0	1088	1445	1657	1564	1288	1046	949.7	928.0	913.7	861.0	852.3	835.7	828.7	797.9	751.0	709.0	685.1	674.3	671.4	667.7	665.1	668.7	688.0	592.8	444.9	354.1	282.3	298.4	662.6	1570	4151	8864	1998	25.87	5.574	3.732	2.952	2.224	2.016	1.946	1.748	1.842	2.082	2.106	2.480	3.136	3.283	4.193	4.580	4.297	4.476	5.049	4.819	4.703	4.333	3.879	4.169	4.215	4.406	4.217	4.398	4.477	4.211	4.113	4.181	4.104	3.991	3.962	4.252	4.308	4.445	4.536	4.514	4.731	4.474	4.309	4.509
380.0	1058	1372	1591	1493	1258	1055	956.6	933.5	905.3	860.7	837.9	809.1	814.2	781.1	743.9	703.9	691.7	683.2	694.3	697.9	695.5	688.0	691.4	684.1	536.9	411.9	324.4	272.8	295.3	448.9	1121	6005	8068	320.5	16.08	5.220	3.701	2.723	2.245	2.048	1.823	1.919	1.815	2.379	2.437	2.874	3.169	4.013	4.358	4.251	4.302	4.968	4.825	4.711	4.359	4.062	4.017	4.478	4.248	4.421	4.427	4.322	4.179	4.209	4.137	4.022	4.158	3.795	4.338	4.032	4.321	4.398	4.373	4.363	4.303	4.564	4.622
385.0	1013	1347	1515	1437	1233	1052	974.3	945.0	918.1	869.9	847.8	816.3	808.6	787.5	749.1	711.7	692.9	692.0	712.0	718.6	724.8	714.7	694.8	703.8	645.4	476.8	374.4	303.1	249.7	227.8	334.3	1711	6764	6293	260.8	9.474	4.742	3.109	2.468	2.122	2.084	2.149	1.985	2.202	2.246	2.520	3.442	3.879	4.207	4.107	4.170	4.803	4.722	4.382	4.250	4.231	4.286	4.202	4.467	4.679	4.246	4.403	4.334	4.149	4.143	3.834	3.945	3.916	3.983	4.186	4.383	4.353	4.392	4.447	4.476	4.445	4.657
390.0	1005	1292	1456	1433	1266	1105	1035	1008	981.7	949.8	923.2	888.6	872.6	845.1	793.5	745.5	717.4	720.7	741.9	763.0	774.8	778.2	755.8	728.7	712.9	625.4	482.2	380.5	302.6	231.3	198.9	463.7	1865	4822	4294	1051	18.65	5.036	3.532	2.609	2.214	2.126	2.241	2.225	2.369	3.001	3.149	3.701	4.102	3.989	4.055	4.784	4.705	4.484	4.379	4.128	4.604	4.480	4.666	4.619	4.709	4.475	4.598	4.295	4.389	4.163	3.965	3.890	4.100	4.320	4.389	4.261	4.366	4.499	4.590	4.538	4.629
395.0	1008	1269	1454	1455	1291	1167	1149	1121	1112	1123	1104	1080	1056	998.8	916.7	827.2	771.8	772.4	790.6	820.5	848.4	861.5	847.6	817.3	770.7	737.4	642.4	494.0	392.0	297.4	223.2	225.6	494.3	1148	2770	6339	1697	23.61	5.455	3.276	2.792	2.317	2.260	2.354	2.545	2.869	3.393	3.480	3.998	4.046	4.101	4.960	4.643	4.767	4.829	4.436	4.848	5.116	5.143	4.581	4.935	4.819	4.804	4.842	4.482	4.624	4.437	4.358	4.476	4.540	4.978	4.508	4.609	4.789	4.697	4.730	4.880
400.0	994.4	1265	1458	1442	1354	1260	1239	1251	1281	1300	1333	1330	1287	1215	1067	933.6	838.3	821.4	847.5	879.7	915.0	940.0	942.5	910.8	857.1	800.5	749.5	611.3	474.3	366.9	273.6	206.3	213.8	323.1	734.9	3968	5950	278.7	15.97	4.265	3.265	2.806	2.572	2.410	2.793	3.149	3.567	3.785	4.106	4.207	4.154	4.929	4.844	4.984	5.055	4.792	4.973	5.371	4.977	5.301	4.943	5.202	5.099	5.183	5.165	4.893	4.931	4.712	4.987	4.846	5.130	4.964	5.256	5.164	4.921	4.931	5.251
405.0	956.2	1257	1439	1449	1395	1343	1345	1379	1450	1523	1590	1603	1540	1434	1248	1054	916.0	878.7	897.6	938.9	985.0	1017	1029	1001	948.8	868.2	805.5	724.9	566.8	431.9	327.6	237.1	178.7	157.6	221.5	1092	4582	4835	240.8	8.816	3.948	2.968	2.779	2.535	2.988	3.129	3.468	3.682	4.134	4.092	4.264	4.936	4.860	5.128	4.938	5.008	5.562	5.285	5.099	5.471	5.497	5.425	5.533	5.487	5.519	5.489	5.475	5.465	5.603	5.777	5.629	5.782	5.739	5.726	5.197	5.221	5.465
410.0	979.5	1232	1411	1477	1451	1446	1453	1524	1628	1757	1865	1892	1804	1665	1433	1175	995.8	935.0	947.0	989.9	1049	1088	1105	1089	1033	946.5	851.6	780.2	679.6	517.9	388.5	282.6	202.0	145.7	126.7	297.3	1235	3445	3314	957.1	16.48	4.073	3.200	3.038	3.201	3.190	3.337	3.856	4.131	4.051	4.040	5.283	5.198	5.449	5.071	5.247	5.677	5.711	5.544	5.701	5.899	5.709	5.832	6.007	6.086	6.237	5.873	6.101	6.173	6.049	6.332	6.390	6.191	6.155	5.841	5.660	5.593
415.0	963.2	1186	1359	1438	1474	1478	1522	1586	1713	1883	1984	2028	1928	1769	1521	1220	1016	941.6	947.9	999.2	1061	1100	1130	1116	1061	975.0	874.4	782.5	709.4	594.8	436.9	316.9	226.5	161.5	119.1	130.3	317.7	810.3	1968	4599	1442	20.60	4.231	3.388	3.316	3.494	3.442	3.762	4.170	4.004	4.140	5.165	5.263	5.364	4.998	5.413	5.765	5.741	5.808	5.747	5.873	5.793	6.134	6.225	6.254	6.278	6.235	6.136	6.285	6.377	6.461	6.573	6.345	6.414	5.904	5.707	5.396
