Sample:	'1
File name:	ÒÚÀû.FD3
Run date:	'14:43:38, 06/17/2025
Operator:	dsjg
Comment:	'

Instrument
Model:	F-2700 FL Spectrophotometer
Serial number:	2198-001
ROM Version:	4J14000 07

Instrument parameters
Measurement type:	3-D scan
Data mode:	Fluorescence
EX  Start WL:	220.0 nm
EX  End WL:	600.0 nm
EX Sampling interval:	5.0 nm
EM  Start WL:	230.0 nm
EM  End WL:	650.0 nm
EM Sampling interval:	5.0 nm
Scan speed:	12000 nm/min
EX Slit:	5.0 nm
EM Slit:	5.0 nm
PMT Voltage:	700 V
Response:	Auto 
Corrected spectra:	Off
Contour interval:	50.000

Peak integration
Integration method:	Rectangular
Sensitivity:	1
Threshold:	1.000

Peaks
No.	ApexEX/EM(nm)	Height(Data)
1	225.0/315.0	208.7
2	225.0/360.0	215.1
3	225.0/370.0	212.2
4	225.0/540.0	45.59
5	230.0/405.0	183.4
6	230.0/505.0	116.3
7	235.0/410.0	174.3
8	235.0/520.0	94.13
9	240.0/525.0	87.00
10	245.0/425.0	177.7
11	245.0/535.0	68.93
12	250.0/405.0	178.7
13	250.0/545.0	60.28
14	250.0/595.0	12.93
15	255.0/280.0	215.7
16	255.0/395.0	176.9
17	255.0/555.0	51.19
18	260.0/285.0	231.6
19	260.0/435.0	189.1
20	260.0/570.0	43.53
21	260.0/635.0	10.46
22	265.0/290.0	244.2
23	265.0/425.0	189.6
24	265.0/585.0	38.48
25	270.0/300.0	324.5
26	270.0/595.0	36.61
27	275.0/305.0	391.7
28	275.0/605.0	32.85
29	280.0/310.0	365.8
30	280.0/345.0	231.6
31	280.0/620.0	26.18
32	285.0/315.0	362.8
33	285.0/630.0	22.34
34	290.0/320.0	322.4
35	290.0/640.0	17.17
36	295.0/330.0	249.7
37	300.0/335.0	229.8
38	305.0/340.0	238.6
39	310.0/345.0	206.4
40	315.0/355.0	180.8
41	320.0/360.0	210.9
42	325.0/365.0	193.0
43	335.0/380.0	192.7
44	340.0/385.0	184.6
45	350.0/400.0	158.0
46	355.0/405.0	154.0
47	360.0/410.0	135.4
48	365.0/415.0	126.4
49	370.0/425.0	121.8
50	375.0/430.0	101.4
51	380.0/435.0	90.78
52	385.0/445.0	86.26
53	390.0/450.0	71.82
54	395.0/455.0	64.00
55	400.0/465.0	59.55
56	405.0/470.0	48.93
57	410.0/475.0	43.72
58	415.0/485.0	39.19
59	420.0/490.0	34.11
60	425.0/495.0	29.35
61	430.0/505.0	24.93
62	435.0/510.0	20.21
63	440.0/515.0	17.84
64	445.0/525.0	14.85
65	450.0/530.0	11.99
66	460.0/545.0	8.292
67	465.0/550.0	6.747
68	475.0/565.0	4.499
69	540.0/295.0	2.078
70	550.0/305.0	2.262
71	560.0/310.0	2.217
72	570.0/315.0	2.211
73	580.0/320.0	2.169
74	585.0/325.0	1.965

Data points
	220.0	225.0	230.0	235.0	240.0	245.0	250.0	255.0	260.0	265.0	270.0	275.0	280.0	285.0	290.0	295.0	300.0	305.0	310.0	315.0	320.0	325.0	330.0	335.0	340.0	345.0	350.0	355.0	360.0	365.0	370.0	375.0	380.0	385.0	390.0	395.0	400.0	405.0	410.0	415.0	420.0	425.0	430.0	435.0	440.0	445.0	450.0	455.0	460.0	465.0	470.0	475.0	480.0	485.0	490.0	495.0	500.0	505.0	510.0	515.0	520.0	525.0	530.0	535.0	540.0	545.0	550.0	555.0	560.0	565.0	570.0	575.0	580.0	585.0	590.0	595.0	600.0
230.0	169.3	 3117	 6110	 1546	45.46	8.486	6.242	5.158	4.431	3.636	3.526	3.168	2.509	2.345	1.427	1.549	1.340	1.253	1.105	1.109	1.023	1.006	1.038	0.903	0.873	0.757	0.813	0.810	0.669	0.762	0.764	0.645	0.695	0.622	0.638	0.678	0.619	0.636	0.608	0.528	0.597	0.736	0.670	0.634	0.492	0.479	0.857	4.072	9.801	9.946	5.215	1.389	0.415	0.388	0.386	0.382	0.436	0.422	0.382	0.339	0.396	0.369	0.369	0.354	0.402	0.373	0.386	0.404	0.409	0.376	0.407	0.392	0.462	0.390	0.408	0.415	0.364
235.0	118.8	851.5	 3555	 4711	756.4	58.05	7.355	5.618	5.097	3.335	4.280	2.597	2.323	2.022	2.032	1.615	1.433	1.507	0.940	1.033	0.922	0.996	1.146	0.930	0.791	0.902	0.866	0.826	0.860	0.717	0.852	0.821	0.683	0.524	0.672	0.593	0.571	0.513	0.643	0.502	0.603	0.611	0.645	0.769	0.664	0.606	0.651	1.305	3.077	5.517	8.355	11.08	6.827	1.930	0.486	0.379	0.414	0.325	0.411	0.400	0.409	0.299	0.343	0.410	0.356	0.400	0.371	0.519	0.337	0.400	0.450	0.374	0.416	0.329	0.455	0.437	0.426
240.0	130.0	246.3	 1065	 3697	 4353	566.0	28.25	6.071	5.193	3.782	4.184	2.989	2.677	2.126	1.969	1.463	1.539	1.332	1.070	0.925	1.097	0.791	0.847	0.871	0.934	0.899	0.784	0.863	0.851	0.665	0.696	0.766	0.712	0.725	0.512	0.543	0.529	0.542	0.597	0.535	0.568	0.637	0.497	0.608	0.617	0.716	0.678	0.671	0.953	1.616	3.498	8.939	13.48	11.20	4.970	1.181	0.569	0.377	0.373	0.395	0.423	0.334	0.378	0.403	0.410	0.440	0.372	0.433	0.427	0.422	0.410	0.296	0.401	0.425	0.424	0.448	0.399
245.0	118.4	163.2	284.0	 1276	 4353	 3579	400.4	11.49	6.077	4.792	3.539	2.820	2.838	2.477	2.250	1.760	1.381	1.426	1.203	1.185	1.117	0.990	0.766	0.953	0.694	0.887	0.752	0.775	0.888	0.641	0.765	0.574	0.628	0.602	0.610	0.471	0.486	0.557	0.711	0.508	0.515	0.620	0.542	0.566	0.509	0.746	0.791	0.872	0.615	0.660	1.105	2.776	7.037	12.56	14.07	8.475	2.803	0.634	0.319	0.352	0.468	0.392	0.313	0.409	0.422	0.330	0.425	0.364	0.375	0.414	0.415	0.366	0.416	0.348	0.415	0.390	0.385
250.0	57.95	116.8	184.6	339.7	 1433	 3335	 3666	 1169	62.27	5.970	4.426	3.283	3.023	2.673	2.073	1.687	1.595	1.421	1.291	1.177	1.017	0.992	0.897	0.859	0.848	0.775	0.704	0.833	0.807	0.705	0.742	0.653	0.579	0.601	0.559	0.532	0.483	0.512	0.544	0.651	0.595	0.606	0.546	0.517	0.536	0.522	0.596	0.720	0.800	0.755	0.747	0.984	1.995	3.902	6.936	9.676	11.80	10.32	6.097	2.201	0.501	0.317	0.352	0.518	0.369	0.378	0.331	0.408	0.397	0.446	0.440	0.350	0.368	0.379	0.473	0.419	0.441
255.0	40.86	51.64	120.2	201.1	371.7	842.6	 2975	 3977	 1310	60.69	5.820	4.589	3.234	3.003	2.690	1.392	1.574	1.329	1.328	1.266	1.062	0.927	0.812	0.961	0.956	0.903	0.726	0.890	0.843	0.812	0.721	0.600	0.579	0.641	0.490	0.579	0.682	0.582	0.486	0.476	0.579	0.464	0.549	0.449	0.567	0.538	0.442	0.547	0.531	0.674	0.815	1.056	1.096	1.270	1.935	2.545	4.121	8.251	13.92	14.66	7.642	2.160	0.486	0.474	0.332	0.444	0.431	0.443	0.383	0.397	0.482	0.367	0.402	0.422	0.471	0.440	0.369
260.0	36.48	32.56	53.95	157.4	198.0	216.9	918.5	 3123	 3310	363.0	27.33	5.339	3.746	3.367	2.502	1.899	2.005	1.625	1.152	1.347	1.004	1.163	0.701	0.873	0.938	0.845	0.810	0.890	0.821	0.953	0.752	0.638	0.651	0.691	0.509	0.564	0.550	0.578	0.505	0.559	0.505	0.479	0.605	0.437	0.491	0.509	0.600	0.540	0.551	0.448	0.561	1.015	1.203	1.056	0.855	0.922	1.277	2.410	5.648	11.64	15.23	13.18	5.548	1.178	0.372	0.405	0.457	0.394	0.360	0.452	0.461	0.386	0.346	0.446	0.429	0.442	0.468
265.0	35.76	23.63	26.33	77.69	180.8	138.4	228.1	986.8	 2907	 2715	293.4	11.95	4.895	3.664	2.973	2.361	2.200	1.649	1.465	1.258	1.114	1.184	0.951	0.914	1.019	0.848	0.964	0.988	0.778	0.817	0.805	0.699	0.631	0.661	0.619	0.547	0.540	0.468	0.618	0.596	0.447	0.530	0.548	0.454	0.522	0.513	0.562	0.469	0.372	0.395	0.381	0.615	0.947	1.142	1.012	0.841	0.691	1.009	1.653	3.589	7.793	14.39	16.02	10.31	3.113	0.602	0.412	0.462	0.422	0.450	0.449	0.413	0.383	0.420	0.383	0.398	0.425
270.0	49.82	32.99	21.99	32.50	89.11	163.4	151.2	251.5	886.8	 2125	 2541	 1078	78.01	5.559	3.254	2.702	2.168	1.845	1.473	1.374	1.199	1.156	1.075	1.035	1.019	0.878	0.746	0.943	0.861	0.811	0.841	0.721	0.635	0.564	0.694	0.637	0.635	0.590	0.633	0.504	0.524	0.590	0.487	0.590	0.606	0.568	0.545	0.470	0.404	0.420	0.320	0.527	0.572	0.677	0.934	1.335	1.162	0.952	0.816	1.130	2.148	4.399	7.015	10.75	12.46	11.05	7.421	2.839	0.708	0.440	0.446	0.395	0.414	0.388	0.406	0.440	0.349
275.0	89.52	51.07	25.83	19.92	32.29	80.16	186.7	181.5	235.4	541.1	 1442	 2973	 1563	95.18	4.157	3.268	2.590	2.055	1.730	1.424	1.482	1.174	1.135	1.145	1.033	1.162	0.891	0.923	0.848	0.746	0.843	0.813	0.586	0.709	0.889	0.845	0.718	0.750	0.753	0.718	0.530	0.617	0.676	0.773	0.655	0.655	0.652	0.462	0.441	0.347	0.415	0.561	0.469	0.530	0.601	0.689	1.045	1.470	1.489	1.066	0.960	1.276	2.065	3.004	3.964	7.307	13.26	16.01	10.03	2.939	0.594	0.472	0.426	0.419	0.440	0.500	0.453
280.0	107.9	56.31	31.09	27.38	21.43	37.72	123.0	215.7	158.6	169.2	431.8	 1792	 3033	 1204	49.73	3.827	3.136	2.089	2.175	1.682	1.266	1.302	1.183	1.041	1.256	0.872	0.875	0.837	0.827	1.011	0.789	0.931	0.662	0.834	0.944	0.979	0.915	0.844	0.774	0.708	0.654	0.703	0.700	0.661	0.596	0.813	0.687	0.568	0.443	0.402	0.343	0.575	0.523	0.441	0.495	0.526	0.668	0.984	1.577	1.672	1.061	0.745	0.900	1.297	1.326	2.252	5.087	10.68	16.57	15.16	6.890	1.279	0.367	0.397	0.394	0.457	0.434
285.0	136.8	79.26	42.46	31.79	20.72	28.18	59.61	169.3	231.6	128.5	155.8	567.9	 2001	 2858	893.4	17.55	3.349	2.663	2.491	1.759	1.593	1.528	1.355	1.270	1.288	0.984	0.873	0.745	0.967	0.750	0.745	0.859	0.747	0.902	1.125	1.128	1.113	0.897	0.902	0.874	0.758	0.729	0.857	0.955	0.694	0.792	0.681	0.563	0.507	0.429	0.396	0.551	0.431	0.512	0.565	0.534	0.601	0.578	0.996	1.410	1.646	1.553	0.981	0.846	0.856	1.097	1.745	3.301	7.099	13.14	16.29	11.97	4.195	0.700	0.458	0.478	0.545
290.0	156.6	112.9	68.80	47.19	34.73	32.32	44.06	92.36	194.7	244.2	171.2	207.5	605.1	 1569	 2308	 1226	57.76	3.800	2.812	2.238	1.807	1.546	1.505	1.325	1.068	1.064	0.965	1.022	0.848	0.803	0.725	0.946	0.771	0.931	1.022	1.309	1.139	1.054	1.146	0.884	0.917	0.875	0.958	0.883	0.726	0.922	0.769	0.713	0.606	0.531	0.514	0.563	0.571	0.550	0.489	0.472	0.605	0.634	0.677	0.908	1.124	1.503	1.627	1.615	1.270	0.984	1.051	1.391	2.208	4.027	6.641	9.947	12.48	12.11	8.123	3.406	0.665
295.0	195.4	151.9	102.6	83.85	57.87	40.87	47.93	70.30	117.2	230.8	320.9	207.4	225.3	430.8	972.4	 2318	 1107	71.69	3.614	2.922	2.216	1.770	1.673	1.213	1.101	1.009	0.978	1.034	0.807	0.876	0.904	0.803	0.769	0.787	1.138	1.133	1.200	1.152	1.008	0.913	0.939	0.969	0.940	1.010	0.757	0.956	0.734	0.802	0.879	0.703	0.534	0.644	0.617	0.552	0.619	0.576	0.641	0.621	0.563	0.815	0.797	0.945	1.143	1.808	2.078	1.819	1.334	1.069	1.337	1.585	2.203	2.717	3.931	6.594	13.13	18.23	11.08
300.0	250.1	172.4	128.4	112.5	74.60	54.71	56.20	69.50	99.52	177.3	324.5	316.6	181.5	184.1	303.4	 1151	 2681	935.3	40.71	3.448	2.571	1.805	1.744	1.328	1.386	1.138	1.127	0.980	1.084	0.898	0.847	0.874	0.779	1.011	1.115	1.210	1.156	1.256	1.005	1.068	1.057	0.838	1.001	0.803	0.825	0.885	0.952	0.910	0.809	0.834	0.643	0.714	0.679	0.617	0.633	0.633	0.585	0.732	0.598	0.743	0.746	0.790	0.963	1.430	1.681	2.174	2.213	1.381	1.124	1.179	1.207	1.207	1.390	2.159	4.836	10.57	17.30
305.0	232.6	182.8	160.5	121.0	87.55	60.68	60.10	76.95	100.5	152.9	258.0	391.7	268.9	151.2	144.7	356.1	 1466	 2869	723.5	15.67	3.158	2.017	1.862	1.440	1.392	1.110	1.205	1.160	1.166	0.963	0.876	0.958	0.898	0.940	1.087	1.267	1.117	1.284	0.990	1.076	1.053	1.058	0.934	0.813	0.786	0.828	0.808	1.038	0.826	0.761	0.781	0.813	0.767	0.677	0.579	0.588	0.622	0.743	0.750	0.759	0.740	0.864	1.039	1.109	1.093	1.761	2.262	2.209	1.853	1.181	1.366	0.937	1.049	1.045	1.651	3.221	6.830
310.0	211.3	191.5	164.1	137.1	93.38	66.97	71.13	83.00	108.9	142.7	197.9	294.4	365.8	260.6	128.0	128.9	413.2	 1346	 2372	 1300	42.68	3.187	2.293	1.998	1.766	1.232	1.425	1.164	1.128	1.056	1.025	0.985	0.952	0.924	0.930	1.288	1.171	1.212	0.999	1.057	0.984	0.984	0.785	0.847	0.838	0.925	0.902	1.005	0.808	0.777	0.742	0.824	0.845	0.716	0.672	0.624	0.611	0.679	0.755	0.874	0.797	0.872	1.105	1.010	1.191	1.384	1.615	1.753	2.217	2.135	1.793	1.251	1.002	0.825	0.898	1.286	2.021
315.0	202.9	208.7	164.2	129.3	93.88	69.21	78.74	89.62	108.6	141.2	184.9	226.2	284.3	362.8	202.1	91.63	129.3	333.2	835.3	 2350	 2062	54.24	3.525	2.589	2.063	1.539	1.353	1.280	1.266	1.016	1.015	1.034	0.829	0.922	1.148	1.074	1.231	1.159	1.069	1.021	0.905	0.948	0.831	0.910	0.887	0.868	0.884	0.963	0.910	0.724	0.683	0.787	0.888	0.766	0.673	0.684	0.814	0.816	0.879	0.885	0.888	0.864	1.093	1.154	1.221	1.296	1.390	1.392	1.525	1.788	2.211	1.946	1.445	0.847	0.690	0.839	0.917
320.0	206.9	199.3	172.8	130.4	98.69	73.52	82.57	97.06	116.4	145.7	184.8	207.5	235.8	302.2	322.4	131.6	71.26	102.4	221.0	995.1	 3035	703.4	31.98	3.135	2.552	1.908	1.774	1.394	1.173	1.234	1.060	0.920	0.944	1.065	0.913	1.056	1.145	1.131	1.183	0.981	0.885	0.875	0.815	0.858	0.944	0.911	0.804	1.059	0.925	0.762	0.675	0.754	0.852	0.766	0.767	0.746	0.782	0.794	0.779	0.854	0.904	0.825	0.989	1.146	1.139	1.032	1.133	1.372	1.353	1.282	1.560	1.916	2.169	1.542	0.882	0.730	0.762
325.0	207.9	211.0	179.9	135.9	97.48	77.11	83.49	98.86	118.9	150.8	177.9	207.6	224.3	233.6	304.7	233.5	78.29	56.24	71.34	272.7	 1439	 2934	566.1	12.60	2.801	2.173	1.700	1.480	1.332	1.241	1.175	1.003	1.077	0.947	1.025	0.991	1.310	1.061	1.014	0.947	0.990	0.901	0.768	0.915	0.881	0.872	0.830	1.053	0.941	0.878	0.617	0.814	0.861	0.709	0.777	0.747	0.755	0.730	0.810	0.862	0.930	1.025	0.942	1.042	1.026	1.092	1.307	1.243	1.211	1.350	1.252	1.391	1.915	1.965	1.570	0.971	0.758
330.0	205.3	215.1	193.9	149.2	102.0	84.66	88.73	102.8	122.5	154.8	184.5	214.6	222.4	210.1	217.0	249.7	183.4	71.61	46.19	81.95	374.7	 1323	 2350	 1257	34.76	3.020	2.218	1.794	1.448	1.401	1.340	1.179	1.073	1.028	0.962	1.033	1.079	1.014	1.108	0.961	0.875	0.875	0.866	0.770	0.878	0.914	0.852	0.922	0.956	0.886	0.737	0.813	0.798	0.805	0.807	0.843	0.758	0.770	0.889	0.963	0.943	1.059	1.013	1.048	1.186	1.206	1.288	1.292	1.309	1.325	1.239	1.322	1.383	1.479	1.573	1.730	1.473
335.0	226.3	223.3	200.8	153.4	111.7	94.81	98.48	111.1	132.6	160.0	189.8	219.3	223.0	212.7	189.1	173.6	229.8	176.1	57.97	49.25	107.3	318.1	784.6	 2544	 1916	45.47	3.252	2.196	1.994	1.623	1.414	1.432	1.127	0.970	1.005	1.012	1.060	0.963	0.942	0.938	0.795	0.823	0.913	0.850	0.974	0.986	0.874	1.069	0.996	0.865	0.752	0.816	0.920	0.713	0.779	0.757	0.769	0.879	0.938	0.816	0.944	1.069	1.089	1.114	1.104	1.334	1.404	1.393	1.403	1.557	1.303	1.306	1.091	1.277	1.285	1.290	1.453
340.0	239.3	223.0	204.9	160.1	121.1	103.4	106.4	120.9	140.2	167.4	192.4	222.6	229.7	213.4	186.5	149.9	170.9	238.6	109.4	50.12	53.70	96.40	204.4	 1046	 3145	587.7	26.57	2.481	2.091	1.839	1.683	1.315	1.129	0.934	1.139	1.059	1.045	0.930	0.998	0.985	0.919	0.950	0.859	0.819	1.012	0.834	0.915	0.930	1.066	0.868	0.771	0.816	0.826	0.792	0.920	0.906	0.854	0.861	1.085	0.815	1.041	1.073	1.232	1.188	1.149	1.340	1.255	1.272	1.333	1.373	1.174	1.133	1.189	1.209	1.074	1.090	1.204
345.0	239.6	231.0	202.3	160.1	128.8	115.0	110.8	124.6	143.5	165.3	196.7	224.5	231.6	216.0	187.1	146.6	133.1	197.8	206.4	77.00	48.94	52.40	68.50	281.9	 1571	 2921	466.1	10.12	2.600	1.921	1.783	1.415	1.106	0.952	1.185	1.061	1.155	0.999	0.931	0.792	0.841	0.931	0.878	0.751	0.987	0.977	0.910	1.070	0.959	0.828	0.806	0.862	1.007	0.855	0.850	0.922	0.856	1.038	1.064	0.892	0.901	1.162	1.153	1.260	1.138	1.238	1.294	1.306	1.346	1.347	1.157	1.136	1.229	1.124	1.019	0.941	1.096
350.0	230.8	217.9	195.4	171.2	133.7	119.4	119.3	126.0	145.1	167.8	192.5	216.8	228.3	220.5	190.6	153.6	125.7	134.7	191.9	161.3	75.58	50.36	45.96	87.29	401.4	 1386	 2279	 1125	30.42	3.026	2.011	1.623	1.377	1.142	1.141	1.076	1.091	0.976	1.000	0.910	0.873	0.859	0.860	0.819	0.912	1.033	0.959	0.935	0.917	0.912	0.758	0.893	1.009	0.793	0.846	0.897	0.867	0.913	0.929	0.838	0.988	1.056	1.283	1.243	1.157	1.196	1.250	1.227	1.311	1.297	1.259	1.228	1.216	1.152	1.116	1.024	1.135
355.0	213.6	208.6	189.5	168.4	143.9	126.1	129.0	135.8	148.7	172.8	194.6	218.4	226.9	216.2	194.4	158.6	136.0	120.0	129.6	180.8	175.5	73.76	50.50	51.85	114.4	328.9	767.4	 2447	 1648	41.73	2.927	2.281	1.701	1.322	1.493	1.131	0.966	1.040	0.791	1.078	0.898	0.829	0.890	0.815	0.927	0.928	0.921	1.002	0.962	0.800	0.728	0.932	0.963	0.947	0.840	0.991	0.804	0.812	0.958	0.891	1.022	1.042	1.201	1.305	1.237	1.275	1.314	1.322	1.347	1.194	1.206	1.220	1.284	1.153	1.094	1.105	1.201
360.0	212.1	215.1	182.6	164.0	148.3	128.2	139.6	147.0	154.7	171.8	197.9	216.2	223.1	215.1	197.5	165.6	139.2	123.3	116.4	135.1	210.9	106.6	62.64	49.77	55.13	95.12	194.8	 1029	 2894	535.2	23.79	2.696	2.214	1.577	1.406	1.144	1.009	1.077	0.827	0.972	0.873	0.724	0.856	0.878	0.917	0.932	0.971	1.078	0.917	0.895	0.713	0.860	0.977	0.959	0.920	1.070	0.987	0.998	0.998	0.915	0.978	1.181	1.055	1.249	1.196	1.185	1.178	1.350	1.352	1.184	1.428	1.209	1.416	1.150	1.231	1.038	1.018
365.0	205.0	208.7	183.8	165.1	155.0	140.1	141.8	146.7	157.7	180.6	198.8	216.3	221.9	214.9	197.0	168.4	145.8	131.1	120.3	118.8	170.3	193.0	91.02	55.50	47.47	48.15	63.09	267.1	 1528	 2719	421.5	9.412	2.354	1.679	1.413	1.105	1.073	0.927	0.869	0.977	0.792	0.821	0.876	0.869	0.860	0.879	1.011	1.145	0.866	0.796	0.802	0.918	0.930	0.874	1.110	1.087	0.956	0.958	0.892	0.926	1.054	1.090	1.051	1.319	1.257	1.158	1.145	1.377	1.452	1.247	1.543	1.272	1.261	1.231	1.202	1.191	1.125
370.0	203.7	212.2	184.0	170.8	153.7	148.6	146.9	152.0	164.7	179.6	194.3	214.6	221.9	216.8	198.0	171.7	152.7	140.8	130.2	122.2	131.4	173.6	173.3	83.24	57.88	47.76	41.35	80.36	387.3	 1373	 2263	 1003	26.45	2.433	1.665	1.415	1.238	1.049	1.113	0.952	0.963	0.905	0.867	0.854	0.892	0.850	0.981	0.952	0.937	0.794	0.751	0.869	0.957	0.922	0.935	0.959	1.107	0.909	1.022	1.034	1.043	1.121	1.046	1.171	1.223	1.203	1.192	1.242	1.469	1.280	1.342	1.370	1.269	1.185	1.213	1.179	1.172
375.0	188.4	203.7	189.9	165.5	156.7	158.8	158.5	159.3	164.0	182.5	197.2	211.2	221.8	212.1	198.6	175.8	157.7	149.0	141.8	132.0	127.0	132.5	169.5	174.1	84.47	58.06	46.87	46.21	107.1	325.5	807.7	 2368	 1457	34.33	2.383	1.707	1.422	1.097	1.165	0.978	1.070	0.784	0.850	0.897	0.812	0.902	0.861	0.925	0.946	0.797	0.810	0.964	1.037	1.003	0.970	0.902	1.040	0.911	1.129	1.063	1.058	1.242	1.059	1.247	1.330	1.286	1.182	1.289	1.258	1.249	1.338	1.295	1.201	1.314	1.095	1.134	1.181
380.0	185.2	205.6	187.0	169.6	159.4	158.4	167.2	166.3	175.7	180.8	200.4	204.6	218.1	205.1	192.8	176.2	157.5	151.2	145.3	139.6	130.9	125.3	134.8	192.7	141.9	70.82	53.07	45.78	49.76	92.41	202.9	 1036	 2691	442.1	18.92	2.137	1.627	1.442	1.138	0.945	1.071	0.854	1.080	0.854	0.900	0.992	0.981	0.927	1.021	0.790	0.798	0.916	0.989	0.970	1.031	1.039	1.003	1.042	1.112	1.143	1.169	1.196	1.068	1.178	1.245	1.255	1.308	1.165	1.116	1.265	1.301	1.402	1.344	1.198	1.135	1.326	1.166
385.0	182.8	200.2	171.7	178.8	161.5	165.3	167.6	168.8	176.6	184.5	192.8	206.7	210.7	205.4	193.0	174.9	164.6	154.8	151.1	143.3	137.2	128.0	123.6	156.8	184.6	89.52	61.65	48.58	41.23	44.26	62.31	266.7	 1483	 2274	328.6	6.289	1.787	1.604	1.196	1.025	1.019	1.055	1.139	0.845	0.924	0.861	0.953	0.952	1.061	0.789	0.827	0.954	0.909	1.106	1.108	1.003	1.060	1.243	1.046	1.038	1.078	1.268	1.146	1.092	1.320	1.193	1.137	1.301	1.335	1.298	1.248	1.406	1.283	1.202	1.114	1.091	1.246
390.0	188.0	195.6	177.7	175.3	169.9	165.4	168.0	169.9	173.3	183.4	191.9	203.6	207.7	206.4	189.6	173.0	162.9	155.7	152.2	147.7	141.4	132.6	126.3	128.3	159.1	155.7	96.28	60.11	46.70	39.60	35.52	74.18	371.7	 1176	 1752	761.5	21.17	2.042	1.507	1.171	1.050	1.115	1.096	0.885	0.906	0.864	0.888	0.927	1.040	0.814	0.746	0.965	0.890	1.033	1.136	1.095	1.049	1.063	1.162	1.080	1.146	1.178	1.226	1.179	1.254	1.174	1.215	1.191	1.288	1.214	1.198	1.272	1.277	1.216	1.182	1.151	1.258
395.0	183.2	194.4	181.6	175.8	166.8	171.0	174.9	176.9	173.2	185.4	191.8	200.6	205.2	198.4	186.7	170.9	163.1	156.7	156.0	148.5	144.2	138.6	130.7	123.5	123.6	148.6	153.8	82.50	58.49	45.48	34.28	35.52	95.85	273.5	636.8	 1873	 1109	28.08	2.149	1.404	1.219	1.246	1.052	0.926	0.961	0.821	0.886	0.888	0.935	0.873	0.791	0.957	0.896	1.057	1.139	1.130	1.119	1.172	1.135	1.213	1.111	1.141	1.265	1.234	1.193	1.072	1.242	1.111	1.295	1.298	1.316	1.299	1.276	1.162	1.169	1.094	1.175
400.0	172.5	188.3	177.3	174.1	174.1	165.7	171.7	172.6	181.1	183.5	195.5	198.8	197.9	192.7	181.8	171.0	157.0	156.8	155.1	148.8	143.7	139.8	132.0	125.7	119.2	120.3	158.0	129.0	68.93	50.61	39.16	31.45	38.45	72.44	156.8	835.4	 2034	369.0	16.17	1.756	1.042	1.369	1.160	0.944	1.018	0.965	0.785	0.891	0.848	0.817	0.833	0.955	1.019	1.058	1.035	1.222	1.058	1.109	1.042	1.205	1.179	1.139	1.164	1.253	1.131	1.174	1.053	1.166	1.177	1.198	1.197	1.139	1.214	1.205	1.194	1.194	1.320
405.0	157.8	182.2	183.4	171.9	169.4	174.4	178.7	174.5	182.9	185.3	193.9	193.7	195.8	190.6	177.7	165.7	157.7	153.0	151.3	147.7	144.2	140.0	133.2	127.8	118.3	111.7	127.6	154.0	96.96	58.18	43.03	32.30	27.27	29.59	45.53	211.7	 1102	 1776	282.8	6.391	1.658	1.362	1.192	1.015	0.937	0.961	0.851	0.840	0.896	0.926	0.830	1.040	0.920	1.189	1.072	0.991	1.055	1.135	1.215	1.282	1.159	1.040	1.196	1.277	1.103	1.204	1.163	1.171	1.236	1.071	1.248	1.111	1.301	1.132	1.263	1.223	1.203
