Sample:	'1
File name:	t2025022709¶þ²ã³Ø9  2000±¶.FD3
Run date:	'13:01:37, 02/28/2025
Operator:	Administrator
Comment:	'

Instrument
Model:	F-2700 FL Spectrophotometer
Serial number:	23B8-004
ROM Version:	4J14000 07

Instrument parameters
Measurement type:	3-D scan
Data mode:	Fluorescence
EX  Start WL:	220.0 nm
EX  End WL:	600.0 nm
EX Sampling interval:	5.0 nm
EM  Start WL:	230.0 nm
EM  End WL:	650.0 nm
EM Sampling interval:	5.0 nm
Scan speed:	12000 nm/min
EX Slit:	5.0 nm
EM Slit:	5.0 nm
PMT Voltage:	700 V
Response:	Auto 
Corrected spectra:	Off
Contour interval:	50.000

Peak integration
Integration method:	Rectangular
Sensitivity:	1
Threshold:	1.000

Peaks
No.	ApexEX/EM(nm)	Height(Data)
1	225.0/490.0	186.0
2	230.0/250.0	313.8
3	230.0/500.0	161.5
4	235.0/255.0	364.8
5	235.0/515.0	128.1
6	240.0/265.0	417.0
7	240.0/525.0	116.9
8	245.0/270.0	399.5
9	245.0/540.0	110.2
10	250.0/275.0	546.6
11	250.0/550.0	101.8
12	255.0/565.0	138.4
13	260.0/575.0	208.2
14	265.0/585.0	276.6
15	270.0/300.0	3505
16	270.0/595.0	270.6
17	295.0/330.0	302.1
18	300.0/335.0	287.7
19	305.0/345.0	241.9
20	310.0/350.0	174.2
21	315.0/355.0	173.3
22	320.0/360.0	158.2
23	325.0/370.0	119.7
24	330.0/375.0	110.1
25	335.0/380.0	121.0
26	340.0/385.0	98.01
27	350.0/400.0	81.78
28	355.0/405.0	73.91
29	360.0/410.0	56.72
30	365.0/420.0	59.70
31	370.0/425.0	55.18
32	375.0/430.0	41.50
33	380.0/440.0	38.82
34	385.0/300.0	8.747
35	385.0/445.0	36.33
36	390.0/450.0	28.31
37	395.0/460.0	24.79
38	400.0/465.0	22.70
39	405.0/470.0	17.25
40	410.0/480.0	15.68
41	415.0/485.0	14.26
42	420.0/490.0	11.32
43	425.0/500.0	11.07
44	430.0/505.0	9.923
45	435.0/510.0	7.686
46	440.0/520.0	7.545
47	445.0/525.0	6.831
48	455.0/540.0	4.787
49	460.0/545.0	4.048
50	465.0/555.0	2.911
51	470.0/560.0	2.735
52	480.0/575.0	1.816
53	485.0/265.0	2.280
54	485.0/580.0	1.652
55	495.0/270.0	2.302
56	505.0/275.0	3.557
57	510.0/280.0	4.314
58	545.0/300.0	16.24
59	550.0/305.0	14.93
60	585.0/325.0	3.773

Data points
	220.0	225.0	230.0	235.0	240.0	245.0	250.0	255.0	260.0	265.0	270.0	275.0	280.0	285.0	290.0	295.0	300.0	305.0	310.0	315.0	320.0	325.0	330.0	335.0	340.0	345.0	350.0	355.0	360.0	365.0	370.0	375.0	380.0	385.0	390.0	395.0	400.0	405.0	410.0	415.0	420.0	425.0	430.0	435.0	440.0	445.0	450.0	455.0	460.0	465.0	470.0	475.0	480.0	485.0	490.0	495.0	500.0	505.0	510.0	515.0	520.0	525.0	530.0	535.0	540.0	545.0	550.0	555.0	560.0	565.0	570.0	575.0	580.0	585.0	590.0	595.0	600.0
230.0	111.2	839.4	2013	570.3	28.04	9.465	8.310	7.354	5.612	5.319	4.701	4.306	3.307	2.583	2.470	1.938	1.687	1.570	1.432	1.356	1.213	1.114	1.054	0.967	0.921	0.925	0.885	0.893	0.842	0.871	0.813	0.731	0.732	0.690	0.654	0.701	0.654	0.647	0.599	0.589	0.804	1.150	1.143	0.729	0.569	0.558	1.234	4.048	6.124	3.878	1.458	0.601	0.426	0.451	0.429	0.471	0.460	0.502	0.481	0.483	0.503	0.480	0.484	0.486	0.479	0.486	0.533	0.488	0.549	0.493	0.510	0.530	0.559	0.533	0.551	0.551	0.563
235.0	254.4	267.5	1152	1701	450.5	30.62	9.126	7.627	5.740	5.891	4.660	4.359	3.076	2.689	2.318	2.073	1.654	1.569	1.329	1.424	1.206	1.157	1.045	0.951	0.984	0.921	0.769	0.858	0.867	0.843	0.859	0.806	0.785	0.831	0.681	0.742	0.683	0.655	0.574	0.578	0.668	0.748	0.975	1.099	1.028	0.765	0.650	1.373	2.646	4.156	5.106	5.143	2.020	0.715	0.462	0.475	0.480	0.501	0.465	0.500	0.509	0.493	0.476	0.464	0.496	0.459	0.513	0.507	0.588	0.486	0.529	0.531	0.540	0.544	0.519	0.536	0.576
240.0	319.2	222.9	353.1	1407	1662	318.2	20.32	8.293	5.824	5.684	5.118	4.475	3.175	2.976	2.609	2.017	1.659	1.636	1.324	1.313	1.348	1.320	1.025	1.065	0.938	0.877	0.837	0.917	0.881	0.934	0.888	0.770	0.790	0.659	0.678	0.727	0.698	0.640	0.577	0.579	0.610	0.597	0.669	0.895	1.217	1.090	0.790	0.855	0.950	1.529	3.067	6.611	7.721	4.721	1.668	0.589	0.472	0.526	0.519	0.517	0.533	0.481	0.514	0.476	0.543	0.517	0.472	0.496	0.519	0.461	0.502	0.511	0.517	0.565	0.518	0.518	0.582
245.0	226.0	331.5	179.8	500.3	1855	1521	259.3	10.81	7.079	5.854	5.266	4.551	3.676	2.918	2.626	1.848	1.701	1.635	1.316	1.465	1.446	1.213	1.063	1.034	1.027	0.914	0.930	0.910	0.834	0.897	0.910	0.762	0.781	0.648	0.657	0.704	0.615	0.628	0.530	0.597	0.613	0.541	0.575	0.664	0.835	1.163	1.234	1.155	0.707	0.733	1.079	2.515	5.618	9.032	8.004	4.183	1.096	0.561	0.525	0.487	0.505	0.474	0.506	0.542	0.467	0.470	0.477	0.508	0.457	0.581	0.538	0.525	0.590	0.560	0.556	0.501	0.548
250.0	94.97	237.3	313.8	221.5	637.4	1643	3421	797.7	27.80	6.528	5.456	4.772	4.025	3.038	2.707	2.072	1.800	1.643	1.351	1.380	1.200	1.204	1.034	1.035	0.941	1.000	0.926	0.932	0.862	0.951	0.841	0.752	0.743	0.670	0.657	0.641	0.647	0.630	0.586	0.601	0.603	0.589	0.586	0.597	0.586	0.714	0.893	1.240	1.276	0.997	0.779	1.007	1.814	3.528	5.757	8.686	9.369	7.885	3.794	1.249	0.548	0.530	0.496	0.486	0.501	0.518	0.541	0.547	0.532	0.540	0.520	0.515	0.537	0.550	0.533	0.567	0.552
255.0	58.24	85.10	230.2	364.8	238.8	449.9	3492	4354	262.8	22.56	7.152	6.098	4.294	3.039	2.574	2.107	1.712	1.614	1.473	1.576	1.349	1.259	1.103	1.089	0.880	0.971	1.018	0.967	0.861	1.008	0.859	0.733	0.715	0.706	0.637	0.624	0.714	0.580	0.597	0.647	0.614	0.583	0.579	0.582	0.505	0.571	0.597	0.730	0.828	1.182	1.702	1.663	1.007	1.196	1.725	2.517	4.423	9.720	14.33	12.08	4.840	1.185	0.581	0.469	0.534	0.493	0.548	0.551	0.563	0.546	0.520	0.580	0.541	0.528	0.538	0.577	0.522
260.0	55.67	48.28	100.7	345.0	325.3	153.2	1156	4364	2052	201.7	12.30	6.981	4.529	3.337	3.091	2.417	1.978	1.877	1.644	1.686	1.181	1.265	1.104	1.000	0.861	1.036	1.080	0.919	0.980	0.926	0.922	0.803	0.736	0.746	0.682	0.629	0.658	0.615	0.581	0.717	0.584	0.629	0.533	0.574	0.570	0.604	0.501	0.581	0.551	0.736	1.211	2.008	2.010	1.151	0.867	0.957	1.534	3.162	7.569	14.35	17.39	11.18	3.740	0.787	0.493	0.512	0.623	0.553	0.544	0.579	0.517	0.552	0.509	0.550	0.516	0.576	0.550
265.0	53.60	38.58	43.87	161.3	417.0	216.4	298.2	1651	2919	1734	137.3	8.186	5.304	3.469	3.384	2.584	2.122	1.881	1.532	1.719	1.449	1.216	1.182	1.120	1.045	0.972	1.012	0.982	0.947	1.021	0.977	0.762	0.840	0.800	0.707	0.734	0.683	0.717	0.578	0.654	0.595	0.571	0.603	0.623	0.523	0.587	0.462	0.547	0.490	0.478	0.643	1.180	2.093	2.280	1.422	0.767	0.778	1.118	2.279	5.019	11.43	18.40	18.07	9.180	2.270	0.603	0.584	0.494	0.558	0.575	0.594	0.602	0.553	0.560	0.533	0.574	0.547
270.0	64.12	43.72	33.30	58.36	206.2	399.5	281.8	419.0	1056	2643	2529	538.0	20.39	4.783	4.433	2.828	2.227	1.952	1.665	1.890	1.612	1.325	1.333	0.994	1.068	1.003	0.993	0.928	0.988	1.113	0.903	0.867	0.884	0.812	0.719	0.766	0.739	0.687	0.661	0.649	0.605	0.654	0.613	0.570	0.640	0.604	0.484	0.528	0.481	0.419	0.493	0.661	0.966	1.511	2.067	2.302	1.938	1.140	1.059	1.601	3.196	6.176	10.82	15.71	17.40	14.88	8.737	2.030	0.668	0.555	0.540	0.577	0.547	0.597	0.555	0.580	0.577
275.0	206.1	107.4	60.23	46.02	74.68	215.0	546.6	339.7	357.4	844.2	2590	3951	159.0	16.72	5.802	3.266	2.374	2.158	1.621	2.114	1.526	1.356	1.240	1.118	1.082	1.062	1.103	0.978	0.911	1.059	0.946	0.926	1.174	1.162	1.085	1.000	0.996	0.959	0.867	0.776	0.821	0.836	0.787	0.794	0.894	0.781	0.643	0.586	0.513	0.470	0.468	0.600	0.591	0.768	0.979	1.513	2.857	3.557	1.993	1.341	1.419	2.377	3.499	4.779	6.977	14.00	25.04	21.87	10.34	2.052	0.729	0.610	0.560	0.628	0.546	0.572	0.596
280.0	559.4	326.4	163.5	100.1	89.36	136.2	456.0	743.1	347.7	697.4	1329	3990	3334	120.4	10.04	4.286	3.050	2.596	2.094	2.357	1.513	1.503	1.224	1.195	1.169	1.010	1.050	1.097	0.969	1.101	1.068	1.365	1.929	2.271	2.021	1.730	1.395	1.408	1.375	1.362	1.488	1.434	1.437	1.485	1.460	1.253	1.165	0.831	0.902	0.589	0.672	0.746	0.670	0.672	0.823	1.008	1.596	3.145	4.314	3.818	2.531	2.541	2.977	3.754	4.331	6.033	11.91	20.38	26.81	19.42	6.810	1.178	0.625	0.697	0.593	0.608	0.663
285.0	1152	669.0	363.0	219.2	160.4	169.3	366.4	976.7	1132	1180	1367	2194	4381	1072	84.32	5.808	3.652	2.924	2.521	2.508	1.777	1.549	1.273	1.215	1.179	1.052	1.092	1.033	0.990	1.178	1.195	1.733	3.059	4.108	3.444	2.965	2.529	2.191	2.146	2.308	2.399	2.391	2.608	2.539	2.469	2.185	1.837	1.455	1.096	0.985	0.956	1.014	0.934	0.866	0.975	1.036	1.413	2.319	4.015	5.420	6.250	5.193	4.799	5.761	6.119	6.219	7.467	9.500	15.74	24.09	25.22	14.45	3.708	0.901	0.717	0.728	0.708
290.0	1959	1220	660.0	428.6	283.0	257.0	458.4	978.7	1819	2271	2140	1960	1948	2740	3153	297.0	10.12	3.843	2.760	3.108	1.954	1.708	1.556	1.332	1.265	1.118	1.157	1.112	1.101	1.243	1.399	2.431	4.821	6.305	5.904	4.625	3.869	3.485	3.383	3.467	3.562	3.917	3.973	4.105	4.091	3.519	2.894	2.388	1.894	1.694	1.422	1.559	1.385	1.278	1.316	1.537	1.829	2.499	3.658	4.841	7.176	9.051	10.01	10.76	10.10	9.483	9.344	9.014	8.480	9.272	12.48	16.50	18.79	16.91	10.27	3.457	1.065
295.0	2567	1616	925.9	593.4	397.7	349.2	551.5	1071	1882	2980	3082	2280	1217	886.8	3081	2846	86.54	7.709	3.077	4.078	2.084	1.876	1.504	1.452	1.266	1.260	1.188	1.148	1.162	1.338	1.467	3.105	5.923	7.700	7.424	5.909	5.082	4.702	4.259	4.126	4.685	4.849	5.028	5.079	5.040	4.550	3.700	3.366	2.639	1.983	1.899	2.076	1.808	1.578	1.593	1.743	2.093	2.902	4.066	5.204	6.887	9.117	11.01	14.69	15.69	13.89	11.55	10.31	7.996	5.708	4.952	5.185	6.104	10.58	20.05	24.49	15.85
300.0	2713	1748	1032	657.7	433.6	366.8	573.1	1089	1876	2803	3505	2559	1102	434.9	930.8	2649	2454	66.84	4.362	5.064	2.458	2.371	1.567	1.495	1.300	1.340	1.180	1.217	1.233	1.398	1.670	3.204	6.598	8.747	8.245	6.650	5.693	5.020	4.544	4.799	4.784	5.154	5.450	5.376	5.411	4.965	3.810	3.735	2.929	2.133	2.187	2.302	1.947	1.784	1.621	1.789	2.284	3.077	4.172	5.610	6.612	8.771	10.47	13.40	15.85	16.24	13.93	11.25	8.625	5.167	3.552	2.761	2.643	3.532	7.180	15.33	26.26
305.0	2610	1737	1013	665.2	432.1	363.4	561.6	1034	1759	2531	3163	2840	1131	349.2	290.9	897.9	3100	2041	42.80	6.420	2.949	2.425	1.988	1.460	1.409	1.363	1.310	1.260	1.091	1.334	1.555	3.296	6.068	8.369	7.788	6.626	5.582	4.874	4.650	4.672	4.526	5.236	5.296	5.269	5.183	4.692	3.715	3.468	2.882	2.376	2.140	2.345	2.020	1.803	1.644	1.860	2.270	3.068	4.046	5.255	6.571	8.062	9.718	11.81	13.29	14.50	14.93	13.06	8.960	5.280	3.280	2.113	1.891	1.854	2.509	4.609	10.02
310.0	2215	1524	921.0	601.1	389.5	319.4	473.1	865.9	1469	2091	2465	2386	1372	407.4	152.9	238.2	985.2	2549	1502	261.3	6.717	2.795	1.958	1.683	1.503	1.453	1.357	1.300	1.155	1.372	1.390	2.871	5.252	7.432	7.432	5.952	5.155	4.540	4.338	4.207	4.159	4.615	4.571	4.668	4.787	4.272	3.477	3.126	2.637	2.293	1.880	2.060	1.834	1.630	1.520	1.687	2.085	2.563	3.387	4.263	5.506	7.014	8.127	9.841	10.96	10.68	11.30	11.44	9.776	6.853	4.410	2.395	1.681	1.452	1.466	1.842	2.989
315.0	1757	1229	777.9	508.0	328.8	249.7	366.9	664.2	1126	1605	1852	1684	1134	691.1	144.7	90.49	241.5	628.3	1462	4287	62.54	5.940	2.322	2.021	1.675	1.593	1.304	1.219	1.142	1.447	1.297	2.331	4.355	5.973	6.173	5.366	4.457	3.913	3.441	3.581	3.427	3.835	3.733	3.911	3.744	3.279	2.773	2.634	2.210	1.939	1.757	1.840	1.518	1.502	1.278	1.417	1.753	2.152	2.646	3.364	4.432	5.549	6.499	7.416	8.338	8.529	8.346	8.038	6.414	5.404	5.322	4.515	2.776	1.539	1.126	1.231	1.462
320.0	1446	1010	637.0	417.5	271.5	213.7	296.1	513.4	902.9	1268	1452	1298	789.5	682.3	333.0	68.09	76.07	156.3	425.2	5397	1691	54.41	3.500	2.213	1.721	1.655	1.375	1.243	1.271	1.572	1.358	2.190	3.718	5.225	5.284	4.708	3.822	3.277	3.047	2.751	2.910	3.161	3.158	3.397	2.955	2.697	2.514	2.406	1.912	1.624	1.566	1.665	1.369	1.294	1.138	1.214	1.391	1.669	2.222	2.813	3.399	4.462	5.110	6.327	7.054	6.741	6.941	6.192	5.117	3.797	3.766	4.045	4.467	2.770	1.379	1.035	1.036
325.0	1195	828.9	540.3	354.1	228.2	179.2	235.0	407.8	697.5	988.2	1149	1025	599.3	432.8	475.4	108.3	39.32	49.65	108.6	1804	1989	1665	38.42	2.780	2.149	1.660	1.431	1.245	1.278	1.438	1.431	1.825	3.186	4.334	4.429	3.960	3.304	2.720	2.500	2.452	2.350	2.570	2.706	2.758	2.535	2.434	2.168	1.940	1.706	1.384	1.284	1.451	1.190	1.211	0.965	1.123	1.132	1.624	1.911	2.287	2.898	3.680	4.270	5.067	5.534	5.514	5.421	4.997	4.197	2.983	2.743	2.507	3.174	3.773	2.892	1.618	1.051
330.0	900.9	652.8	427.5	279.7	183.9	139.5	177.4	302.6	500.4	715.2	834.4	758.3	446.4	251.1	279.4	302.1	118.9	27.95	35.05	420.2	611.0	1809	1135	182.4	6.400	2.094	1.630	1.351	1.351	1.696	1.469	1.705	2.690	3.479	3.492	3.108	2.684	2.309	2.081	2.037	1.971	2.201	2.151	2.148	2.158	1.956	1.770	1.606	1.431	1.285	1.117	1.240	1.102	1.042	0.844	0.996	1.096	1.290	1.507	1.706	2.124	2.834	3.090	3.715	3.986	4.060	4.043	3.765	3.195	2.505	2.106	1.673	1.709	2.051	2.631	2.603	2.369
335.0	685.8	507.7	347.2	225.3	147.5	108.0	126.4	210.3	346.3	499.1	584.3	536.9	330.6	174.9	126.1	182.3	287.7	72.10	18.62	104.0	145.0	438.4	1031	1635	53.00	5.125	2.122	1.733	1.607	1.816	1.379	1.433	2.248	2.658	2.836	2.764	2.330	1.878	1.677	1.765	1.595	1.824	1.786	1.775	1.580	1.441	1.372	1.314	1.240	1.051	1.036	0.989	0.941	0.842	0.804	0.789	0.991	1.099	1.223	1.401	1.721	1.987	2.290	2.558	2.931	2.987	2.935	2.913	2.608	2.165	1.687	1.340	1.330	1.289	1.364	1.426	2.234
340.0	539.1	399.5	278.0	184.2	120.8	90.89	103.3	158.6	255.1	370.9	435.2	410.8	262.0	139.1	83.02	80.96	224.6	210.7	36.27	32.60	40.95	106.5	288.9	1333	1305	46.97	2.942	1.673	1.558	1.905	1.471	1.400	1.875	2.375	2.453	2.379	1.917	1.876	1.627	1.626	1.447	1.475	1.374	1.619	1.380	1.313	1.171	1.283	1.028	0.928	0.842	0.921	0.869	0.731	0.771	0.721	0.873	0.834	1.063	1.112	1.469	1.630	1.832	2.010	2.319	2.240	2.522	2.311	2.033	1.821	1.361	1.211	1.251	1.096	0.914	1.085	1.290
345.0	433.4	336.3	230.0	152.7	103.9	74.88	87.92	123.8	195.5	287.1	337.2	319.0	211.2	116.0	64.77	45.69	99.77	241.9	79.83	22.32	16.86	31.82	72.74	406.0	1417	1150	36.10	2.279	1.607	2.254	1.495	1.335	1.634	2.016	2.087	2.199	1.658	1.614	1.404	1.385	1.189	1.253	1.273	1.210	1.132	1.169	1.069	1.124	0.972	0.798	0.783	0.864	0.825	0.713	0.727	0.710	0.820	0.870	0.933	1.041	1.210	1.366	1.572	1.792	1.860	1.978	1.983	1.922	1.694	1.507	1.174	1.077	1.092	0.967	0.867	0.879	0.940
350.0	349.1	271.7	186.3	128.3	81.75	61.28	67.67	93.85	142.5	205.6	242.3	234.8	161.5	95.05	52.41	33.41	40.16	105.6	174.2	101.2	20.10	14.60	23.44	97.78	419.9	1104	920.8	169.9	7.359	2.740	1.633	1.409	1.634	1.772	1.831	1.926	1.488	1.351	1.157	1.121	1.056	1.081	1.088	1.047	1.109	1.051	0.968	1.033	0.917	0.779	0.667	0.796	0.675	0.713	0.635	0.659	0.727	0.752	0.835	0.928	0.992	1.227	1.384	1.510	1.527	1.587	1.598	1.492	1.405	1.262	1.107	0.965	0.932	0.900	0.810	0.826	0.762
355.0	268.8	222.7	152.8	104.9	67.27	50.83	54.36	68.16	103.4	140.9	173.8	164.3	120.1	76.31	44.97	28.70	22.77	36.66	77.50	173.3	64.96	14.62	11.97	28.14	99.52	262.2	720.8	1207	248.5	12.29	2.008	1.389	1.485	1.695	1.522	1.686	1.401	1.144	1.203	0.899	0.937	0.927	0.951	0.918	0.967	0.903	0.884	0.919	0.771	0.696	0.625	0.709	0.601	0.675	0.637	0.600	0.720	0.620	0.738	0.816	0.895	0.932	1.140	1.207	1.237	1.241	1.332	1.212	1.088	0.980	1.019	0.820	0.851	0.854	0.833	0.749	0.683
360.0	240.8	174.6	135.5	91.45	63.27	44.60	44.81	57.90	82.03	112.2	133.7	132.5	97.30	65.21	40.34	26.76	19.12	20.85	30.77	108.5	158.2	44.57	9.676	12.47	27.85	63.89	190.6	865.5	1152	276.8	4.256	1.780	1.541	1.666	1.474	1.655	1.365	1.125	1.023	0.897	0.930	0.862	0.928	0.911	0.927	0.820	0.798	0.791	0.677	0.635	0.601	0.666	0.608	0.639	0.596	0.576	0.726	0.615	0.777	0.708	0.794	0.883	0.953	0.973	0.980	1.078	1.111	1.121	1.087	0.983	0.944	0.824	0.775	0.729	0.706	0.758	0.704
365.0	205.6	161.7	125.6	83.19	55.99	42.46	40.53	49.89	67.02	90.91	105.6	108.2	80.92	55.99	36.21	25.57	18.75	17.06	18.06	44.20	135.7	119.1	21.40	8.456	11.78	18.88	47.90	245.4	1036	2285	41.27	2.119	1.574	1.469	1.464	1.721	1.162	1.095	0.983	0.909	0.790	0.833	0.859	0.864	0.859	0.772	0.785	0.800	0.654	0.585	0.569	0.680	0.623	0.667	0.534	0.616	0.663	0.658	0.740	0.654	0.765	0.811	0.875	0.929	0.964	1.009	1.039	1.004	1.014	1.000	0.891	0.801	0.752	0.754	0.787	0.715	0.722
370.0	182.0	142.3	108.2	72.89	50.56	39.31	36.98	39.68	53.01	69.53	83.36	85.17	67.36	47.25	33.03	23.80	18.77	15.83	14.77	20.81	54.74	119.7	87.75	22.21	7.883	9.078	15.10	59.48	288.5	1801	1369	165.9	11.25	1.570	1.513	1.745	1.184	1.090	0.933	0.896	0.798	0.810	0.783	0.861	0.720	0.757	0.741	0.725	0.665	0.601	0.528	0.612	0.604	0.634	0.580	0.614	0.597	0.659	0.658	0.719	0.721	0.709	0.828	0.853	0.889	0.904	0.979	0.915	0.851	0.833	0.770	0.815	0.732	0.719	0.718	0.703	0.759
375.0	162.6	120.1	99.25	66.79	47.29	35.48	32.40	34.35	42.40	52.70	65.15	69.57	52.84	39.64	28.74	22.69	18.23	16.35	14.92	15.49	21.78	46.74	110.1	87.64	15.04	6.527	7.255	17.13	68.18	415.2	822.2	967.9	278.3	7.315	1.561	2.022	1.183	0.998	0.957	0.839	0.841	0.787	0.794	0.804	0.749	0.728	0.709	0.714	0.658	0.589	0.556	0.574	0.622	0.606	0.568	0.586	0.582	0.677	0.599	0.676	0.603	0.678	0.712	0.801	0.763	0.828	0.868	0.817	0.826	0.779	0.773	0.744	0.765	0.785	0.683	0.710	0.771
380.0	150.4	112.2	93.21	60.18	44.45	33.45	30.13	30.02	37.02	43.94	54.05	55.14	43.98	35.91	27.79	21.80	17.97	15.77	15.26	14.12	13.60	20.19	60.07	121.0	46.09	7.463	5.575	7.413	18.68	97.08	210.7	615.5	1138	40.62	3.142	2.255	1.292	0.975	0.895	0.813	0.790	0.812	0.780	0.681	0.732	0.691	0.734	0.745	0.591	0.585	0.498	0.576	0.594	0.574	0.587	0.591	0.629	0.613	0.624	0.594	0.663	0.685	0.669	0.785	0.742	0.759	0.791	0.707	0.885	0.788	0.695	0.738	0.783	0.737	0.686	0.710	0.706
385.0	134.2	100.8	82.05	53.49	40.75	33.36	30.46	29.16	33.15	38.85	44.64	47.55	40.20	31.69	24.99	20.74	18.04	16.69	14.83	14.19	12.68	12.64	24.83	85.38	98.01	23.75	4.747	4.908	7.667	25.29	51.09	167.2	854.2	725.7	33.45	3.401	1.167	1.035	0.931	0.807	0.811	0.859	0.728	0.813	0.703	0.695	0.672	0.710	0.606	0.604	0.505	0.567	0.566	0.597	0.552	0.595	0.580	0.616	0.628	0.659	0.593	0.654	0.745	0.756	0.720	0.721	0.743	0.708	0.865	0.774	0.719	0.748	0.843	0.748	0.615	0.730	0.697
390.0	122.4	94.93	79.94	53.44	40.93	31.25	26.67	26.01	28.70	32.70	37.44	39.16	35.36	27.97	23.16	19.57	17.53	15.87	14.47	13.19	11.45	10.71	12.54	31.67	78.01	69.73	21.02	4.421	4.342	8.902	14.58	40.42	224.8	518.7	495.0	856.1	9.120	1.174	1.016	0.914	0.816	0.830	0.729	0.711	0.695	0.712	0.621	0.718	0.595	0.550	0.464	0.590	0.540	0.601	0.526	0.584	0.542	0.649	0.638	0.642	0.555	0.630	0.680	0.702	0.718	0.700	0.717	0.676	0.789	0.733	0.699	0.754	0.711	0.755	0.689	0.708	0.676
395.0	115.1	93.87	72.56	52.88	39.26	31.50	26.01	22.47	24.36	27.51	31.52	32.79	29.04	25.25	21.05	18.62	17.23	14.72	13.79	12.53	10.74	9.248	9.549	13.45	27.51	68.98	70.22	14.98	3.706	4.651	6.035	11.34	52.71	121.0	298.1	3755	219.0	7.678	1.211	0.888	0.868	0.928	0.759	0.717	0.699	0.643	0.616	0.663	0.510	0.501	0.480	0.596	0.587	0.581	0.553	0.542	0.530	0.576	0.562	0.575	0.589	0.615	0.609	0.709	0.643	0.625	0.625	0.690	0.722	0.703	0.666	0.701	0.663	0.701	0.680	0.784	0.827
400.0	102.2	85.81	72.01	50.03	35.23	28.11	24.01	20.82	22.39	23.84	27.37	29.30	26.98	23.06	20.21	18.91	16.02	14.49	13.51	12.91	10.60	9.092	8.081	8.150	11.03	33.81	81.78	43.72	6.284	3.480	3.688	5.244	14.23	29.52	76.24	2166	760.8	36.01	3.288	0.952	0.909	0.810	0.847	0.728	0.706	0.612	0.631	0.690	0.516	0.549	0.463	0.600	0.558	0.541	0.532	0.542	0.548	0.533	0.584	0.510	0.611	0.628	0.607	0.604	0.637	0.616	0.611	0.631	0.660	0.666	0.636	0.644	0.620	0.647	0.646	0.755	0.776
405.0	102.1	82.65	65.69	46.14	34.50	25.12	22.97	19.20	20.30	21.38	24.23	26.04	22.79	21.16	19.27	17.79	15.78	14.23	12.69	11.96	10.69	8.629	7.719	6.583	6.410	13.21	50.72	73.91	22.24	3.628	2.870	3.503	5.371	9.004	19.60	551.1	562.5	615.5	31.61	1.484	0.998	0.811	0.830	0.762	0.679	0.627	0.584	0.684	0.555	0.583	0.518	0.581	0.567	0.521	0.466	0.515	0.551	0.556	0.569	0.575	0.605	0.593	0.604	0.599	0.623	0.590	0.636	0.607	0.588	0.602	0.601	0.636	0.590	0.646	0.653	0.702	0.752
410.0	86.47	78.84	58.07	44.37	31.39	24.91	21.97	18.29	18.47	19.05	20.72	21.90	19.85	18.74	16.79	15.37	14.93	13.07	12.03	11.13	9.706	8.137	7.330	5.675	4.884	6.294	17.99	51.32	56.72	19.83	3.522	2.519	3.136	4.278	6.272	126.1	148.0	420.5	496.4	126.5	6.834	0.948	0.844	0.777	0.667	0.633	0.582	0.620	0.566	0.541	0.489	0.582	0.570	0.557	0.508	0.507	0.542	0.586	0.525	0.566	0.593	0.555	0.560	0.574	0.569	0.612	0.596	0.599	0.604	0.611	0.640	0.631	0.584	0.675	0.625	0.647	0.733
