Sample:	'1
File name:	Default_20230302_151556.FD3
Run date:	'15:09:35, 03/02/2023
Operator:	user
Comment:	'

Instrument
Model:	F-2700 FL Spectrophotometer
Serial number:	2190-003
ROM Version:	4J14000 07

Instrument parameters
Measurement type:	3-D scan
Data mode:	Fluorescence
EX  Start WL:	220.0 nm
EX  End WL:	600.0 nm
EX Sampling interval:	5.0 nm
EM  Start WL:	230.0 nm
EM  End WL:	650.0 nm
EM Sampling interval:	5.0 nm
Scan speed:	12000 nm/min
EX Slit:	5.0 nm
EM Slit:	5.0 nm
PMT Voltage:	700 V
Response:	Auto 
Corrected spectra:	Off
Contour interval:	50.000

Peak integration
Integration method:	Rectangular
Sensitivity:	1
Threshold:	1.000

Peaks
No.	ApexEX/EM(nm)	Height(Data)
1	245.0/360.0	 5671
2	250.0/540.0	-36.39
3	270.0/300.0	 3429
4	270.0/590.0	221.2
5	290.0/500.0	1.875
6	290.0/640.0	-3.952
7	300.0/335.0	356.2
8	305.0/340.0	390.9
9	310.0/345.0	346.7
10	315.0/240.0	-15.29
11	315.0/265.0	-15.60
12	315.0/575.0	-13.33
13	320.0/360.0	240.1
14	325.0/365.0	214.0
15	330.0/245.0	-11.69
16	330.0/370.0	168.9
17	335.0/375.0	169.6
18	340.0/385.0	162.3
19	345.0/285.0	-9.729
20	345.0/390.0	138.2
21	350.0/395.0	135.4
22	350.0/585.0	-7.981
23	355.0/405.0	127.0
24	355.0/605.0	-8.334
25	355.0/630.0	-9.146
26	360.0/410.0	109.8
27	360.0/485.0	18.90
28	365.0/415.0	102.9
29	370.0/425.0	95.37
30	375.0/335.0	-6.619
31	375.0/430.0	75.72
32	380.0/435.0	70.35
33	385.0/445.0	62.65
34	390.0/450.0	49.94
35	395.0/455.0	44.39
36	400.0/465.0	37.20
37	405.0/470.0	28.85
38	405.0/540.0	-1.098
39	410.0/475.0	24.62
40	415.0/245.0	-5.148
41	415.0/485.0	21.11
42	420.0/375.0	-4.402
43	420.0/490.0	16.48
44	425.0/495.0	14.25
45	430.0/505.0	12.46
46	435.0/510.0	8.356
47	440.0/515.0	6.675
48	445.0/525.0	5.712
49	450.0/530.0	4.175
50	455.0/540.0	3.583
51	460.0/545.0	2.919
52	465.0/550.0	1.263
53	470.0/560.0	0.068
54	485.0/360.0	6.053
55	490.0/370.0	6.182
56	490.0/585.0	-2.872
57	495.0/365.0	6.156
58	500.0/600.0	-3.492
59	510.0/625.0	-3.758
60	535.0/295.0	2.588

Data points
	220.0	225.0	230.0	235.0	240.0	245.0	250.0	255.0	260.0	265.0	270.0	275.0	280.0	285.0	290.0	295.0	300.0	305.0	310.0	315.0	320.0	325.0	330.0	335.0	340.0	345.0	350.0	355.0	360.0	365.0	370.0	375.0	380.0	385.0	390.0	395.0	400.0	405.0	410.0	415.0	420.0	425.0	430.0	435.0	440.0	445.0	450.0	455.0	460.0	465.0	470.0	475.0	480.0	485.0	490.0	495.0	500.0	505.0	510.0	515.0	520.0	525.0	530.0	535.0	540.0	545.0	550.0	555.0	560.0	565.0	570.0	575.0	580.0	585.0	590.0	595.0	600.0
230.0	-445.7	-254.3	 1284	 1090	-100.6	-150.9	-126.2	-114.7	-102.8	-87.29	-75.13	-65.07	-52.49	-46.66	-38.16	-30.96	-27.00	-23.34	-20.32	-18.62	-16.00	-15.25	-13.71	-12.53	-11.71	-11.05	-10.38	-9.812	-10.14	-9.763	-9.105	-8.611	-8.330	-7.920	-6.825	-6.498	-6.500	-6.176	-6.001	-6.190	-5.646	-5.883	-5.644	-5.372	-5.273	-5.264	-4.637	-3.559	-0.526	0.425	-1.840	-4.397	-4.304	-4.698	-4.589	-4.548	-4.825	-4.973	-4.608	-4.991	-4.785	-4.964	-4.765	-5.093	-4.965	-4.937	-4.635	-5.276	-5.220	-5.295	-5.117	-5.098	-5.143	-5.190	-5.483	-5.666	-5.844
235.0	-473.8	-351.6	298.1	 2172	 1695	11.54	-124.8	-104.3	-97.65	-90.63	-81.07	-68.74	-50.01	-46.82	-34.28	-30.57	-24.27	-23.25	-22.17	-17.40	-16.54	-15.89	-13.94	-12.37	-12.11	-10.71	-9.598	-9.022	-10.47	-9.644	-9.389	-9.060	-8.182	-8.271	-6.718	-5.951	-6.355	-6.853	-5.925	-5.161	-6.005	-5.444	-5.859	-5.226	-5.486	-4.941	-4.386	-3.909	-3.199	-0.955	1.641	1.341	-1.288	-3.522	-4.732	-4.582	-4.701	-4.948	-4.964	-4.700	-5.024	-5.019	-5.052	-5.105	-4.868	-5.101	-5.290	-4.957	-5.227	-5.485	-4.902	-5.064	-5.473	-5.033	-5.303	-5.585	-5.499
240.0	-422.6	-368.8	-169.2	 1023	 3718	 1560	-50.93	-115.9	-104.0	-91.75	-77.72	-67.00	-51.37	-47.47	-38.47	-29.29	-26.76	-22.02	-18.63	-15.29	-16.88	-14.43	-13.23	-12.26	-11.88	-10.07	-10.45	-10.13	-9.894	-9.919	-9.185	-9.234	-8.513	-8.359	-7.584	-6.029	-6.319	-6.567	-5.945	-5.282	-5.872	-5.619	-5.746	-5.805	-5.566	-4.988	-4.524	-4.137	-3.687	-2.985	-1.300	3.177	5.374	2.373	-2.752	-4.973	-4.473	-4.880	-5.339	-4.458	-4.843	-5.114	-4.613	-5.062	-4.591	-4.876	-5.045	-5.212	-5.444	-5.615	-4.881	-5.347	-5.606	-5.552	-5.496	-5.693	-5.799
245.0	-402.7	-323.0	-221.5	66.72	 2136	 4439	 1220	-89.06	-93.95	-94.41	-77.04	-58.01	-57.94	-44.13	-42.19	-29.88	-27.78	-21.71	-17.09	-18.46	-14.28	-14.43	-11.69	-12.97	-11.59	-10.43	-10.62	-10.70	-10.89	-10.17	-10.15	-9.024	-7.672	-8.301	-7.208	-6.175	-6.926	-6.506	-6.395	-5.148	-5.970	-6.158	-5.843	-5.622	-5.319	-5.608	-4.001	-4.539	-3.968	-3.605	-3.192	-1.996	2.036	7.013	6.408	0.381	-3.818	-4.897	-4.937	-4.915	-4.831	-4.991	-4.578	-5.113	-5.169	-4.779	-4.890	-5.419	-5.271	-5.408	-4.948	-5.194	-4.976	-5.055	-5.614	-5.486	-5.745
250.0	-440.5	-340.8	-217.3	-81.37	415.3	 2358	 4434	 2659	201.8	-80.23	-76.29	-63.18	-58.30	-47.32	-39.05	-29.23	-25.67	-23.23	-17.93	-17.74	-14.72	-15.15	-12.40	-12.86	-11.77	-9.936	-10.90	-10.49	-9.982	-9.651	-9.575	-8.618	-7.649	-7.931	-7.723	-6.353	-6.976	-6.650	-5.948	-5.670	-5.803	-5.641	-5.734	-5.676	-5.381	-5.208	-4.095	-4.526	-4.058	-3.446	-3.504	-3.809	-2.705	-0.834	2.452	5.367	7.319	3.439	-1.347	-4.013	-5.053	-4.847	-4.997	-4.962	-4.781	-4.943	-5.097	-5.468	-5.037	-5.332	-5.049	-5.277	-5.101	-5.373	-5.650	-5.383	-5.687
255.0	-442.9	-346.4	-288.3	-69.38	53.21	441.5	 1602	 5748	 4157	241.8	-65.27	-57.24	-58.93	-46.61	-33.70	-29.49	-24.07	-20.47	-18.10	-15.32	-14.92	-15.57	-12.07	-12.27	-11.95	-10.27	-11.13	-10.19	-8.926	-8.627	-9.277	-8.520	-7.574	-8.068	-7.697	-6.424	-7.260	-7.021	-5.947	-5.980	-5.826	-5.914	-5.502	-5.800	-5.037	-4.901	-4.542	-4.573	-4.032	-3.572	-3.713	-3.977	-3.663	-3.743	-2.644	-2.146	-0.524	4.920	11.84	8.508	-0.460	-4.600	-5.268	-5.085	-4.882	-5.082	-5.254	-4.870	-4.701	-4.957	-5.130	-5.380	-5.429	-5.352	-5.628	-5.202	-5.496
260.0	-444.4	-374.4	-299.4	-129.2	65.66	53.79	271.4	 2650	 6945	 1534	68.81	-57.77	-53.87	-48.32	-37.16	-33.30	-24.52	-21.35	-17.27	-17.51	-15.97	-14.51	-13.66	-12.71	-11.98	-10.53	-9.981	-10.76	-9.913	-8.785	-9.390	-8.449	-8.433	-7.907	-7.362	-6.268	-6.987	-7.081	-6.125	-6.228	-5.521	-5.408	-5.976	-5.710	-5.209	-5.497	-4.703	-4.521	-4.213	-3.456	-3.471	-4.135	-3.571	-4.707	-3.645	-3.988	-3.935	-2.152	3.308	11.22	13.25	5.053	-3.280	-5.339	-5.169	-4.696	-5.340	-4.876	-5.273	-5.131	-5.600	-5.170	-5.288	-5.011	-4.981	-5.466	-5.620
265.0	-437.6	-374.3	-312.2	-205.1	4.026	77.00	8.371	578.9	 3803	 7115	 1226	-2.881	-48.91	-44.57	-34.52	-31.15	-23.94	-23.89	-17.90	-15.60	-16.67	-15.15	-12.20	-12.29	-11.16	-11.70	-10.30	-9.816	-10.76	-8.745	-9.764	-8.846	-8.296	-7.642	-6.629	-6.621	-6.322	-6.957	-5.621	-6.405	-5.933	-6.062	-5.579	-5.342	-5.612	-5.337	-4.428	-4.771	-4.310	-3.851	-3.444	-4.163	-4.130	-4.425	-3.791	-4.805	-4.356	-4.282	-2.844	0.155	7.554	12.84	10.83	1.951	-4.020	-5.336	-5.267	-5.130	-5.165	-5.280	-5.473	-5.188	-5.175	-5.032	-5.092	-5.569	-6.097
270.0	-466.9	-377.3	-290.6	-211.4	-116.5	59.53	133.2	107.7	884.7	 3462	 6414	 3804	257.8	-39.19	-33.43	-32.19	-25.67	-23.28	-19.67	-17.10	-15.23	-14.92	-12.74	-12.17	-11.30	-11.11	-9.737	-9.671	-9.821	-9.419	-9.349	-8.827	-8.226	-7.838	-7.273	-6.118	-6.539	-6.657	-6.411	-5.918	-5.937	-6.065	-5.609	-5.190	-5.501	-5.300	-4.200	-4.773	-4.365	-3.476	-3.463	-4.444	-4.322	-4.161	-3.519	-4.329	-4.291	-4.397	-4.435	-3.449	-1.696	0.652	5.583	9.469	9.695	5.763	-0.533	-4.553	-4.958	-5.229	-5.028	-5.273	-5.255	-5.310	-5.162	-5.392	-5.650
275.0	-462.2	-365.5	-279.5	-223.9	-145.9	-70.81	141.4	327.3	310.2	938.4	 2442	 7836	 5611	308.8	-30.99	-29.81	-26.21	-19.43	-17.81	-15.86	-14.22	-14.91	-13.42	-11.99	-10.74	-10.63	-9.909	-10.23	-9.818	-10.20	-8.682	-8.482	-7.563	-8.377	-7.503	-5.995	-6.374	-6.505	-6.259	-6.578	-5.945	-5.404	-5.973	-5.077	-5.266	-5.223	-4.913	-4.428	-4.266	-3.278	-3.527	-4.252	-4.476	-3.791	-4.252	-4.225	-4.245	-3.180	-3.936	-4.273	-4.028	-2.710	-2.338	-0.531	2.368	9.648	18.18	10.49	-1.103	-4.832	-5.035	-5.323	-5.349	-5.286	-5.153	-5.448	-5.961
280.0	-371.8	-318.9	-250.6	-202.6	-163.5	-57.17	94.12	515.7	629.4	786.8	 1303	 3955	 9109	 4211	131.4	-26.70	-23.39	-21.03	-19.69	-18.16	-14.11	-13.94	-12.67	-11.87	-10.63	-10.70	-10.51	-10.63	-10.42	-9.865	-9.161	-8.724	-8.181	-7.409	-7.569	-6.940	-6.118	-6.031	-6.286	-6.329	-5.593	-5.155	-5.580	-5.427	-5.323	-4.623	-4.203	-4.618	-4.051	-3.305	-3.706	-4.297	-4.400	-4.177	-4.028	-4.413	-4.646	-3.650	-2.780	-2.895	-3.719	-2.960	-2.879	-2.643	-2.215	0.539	7.982	17.53	18.09	6.067	-2.928	-5.255	-5.002	-5.016	-5.289	-5.284	-5.379
285.0	-353.6	-257.9	-236.1	-174.2	-134.2	-43.69	133.8	524.3	 1176	 1370	 1566	 2206	 5224	 8988	679.1	23.77	-21.74	-16.88	-18.26	-16.97	-13.94	-14.06	-13.52	-11.96	-10.26	-9.729	-10.78	-9.944	-10.55	-9.816	-9.150	-8.874	-8.265	-6.829	-7.913	-6.485	-6.398	-6.184	-6.262	-5.823	-6.004	-4.873	-5.308	-5.525	-5.340	-4.647	-4.466	-3.946	-4.013	-3.163	-3.661	-4.474	-4.409	-4.546	-4.202	-4.172	-4.284	-3.753	-2.729	-2.520	-1.733	-1.322	-1.351	-1.793	-1.378	-1.046	0.504	4.200	12.54	20.50	15.08	1.226	-3.943	-5.694	-5.024	-5.504	-5.641
290.0	-233.0	-181.6	-164.3	-150.8	-80.08	22.57	258.1	668.1	 1407	 2325	 2610	 2462	 2317	 4253	 6268	 2498	168.3	-15.44	-16.55	-16.84	-14.17	-13.33	-12.53	-11.47	-11.22	-9.982	-10.45	-10.23	-9.824	-9.470	-9.095	-8.500	-7.740	-7.366	-7.427	-6.099	-6.491	-6.497	-6.178	-6.299	-5.733	-5.216	-5.802	-5.490	-5.077	-4.798	-4.015	-4.261	-4.239	-3.163	-3.282	-4.161	-4.228	-4.328	-4.015	-4.214	-4.077	-3.651	-2.997	-2.677	-1.223	-0.270	0.836	0.881	1.009	0.249	0.367	-0.267	0.918	4.157	9.702	13.20	14.25	7.114	-0.766	-5.000	-5.388
295.0	-172.0	-188.3	-121.4	-137.1	-41.48	80.95	287.5	802.7	 1473	 2534	 3416	 2914	 1764	 1241	 2071	 6510	 3666	211.4	-13.96	-15.95	-14.00	-13.63	-12.44	-11.21	-11.64	-10.20	-9.418	-10.45	-9.587	-9.751	-8.269	-8.167	-7.312	-7.036	-7.390	-6.099	-6.239	-6.492	-6.331	-5.683	-5.510	-5.770	-5.974	-4.995	-5.257	-4.933	-4.467	-4.025	-3.638	-3.306	-3.167	-4.022	-4.258	-4.259	-3.614	-3.436	-4.024	-3.242	-3.007	-1.998	-0.998	-0.405	0.867	2.588	2.365	1.335	0.900	-0.815	-2.188	-1.978	-1.285	-0.656	4.405	13.63	23.02	14.07	-0.267
300.0	-202.4	-193.6	-98.55	-81.00	-31.85	66.27	302.7	823.1	 1512	 2416	 3429	 3279	 1679	592.0	522.4	 2656	 7401	 2859	121.8	-12.12	-11.09	-12.38	-12.74	-10.57	-11.16	-11.00	-9.576	-10.22	-8.752	-9.348	-8.554	-7.998	-7.681	-6.913	-6.936	-5.979	-6.951	-6.727	-6.367	-5.528	-6.107	-5.073	-5.734	-5.232	-4.768	-5.221	-4.043	-4.385	-3.881	-3.335	-3.616	-3.936	-4.309	-4.303	-3.973	-3.315	-3.423	-2.813	-2.566	-1.766	-1.105	0.121	0.656	1.988	2.360	1.958	1.134	0.149	-2.318	-3.727	-3.970	-4.083	-2.857	0.587	11.47	24.90	25.34
305.0	-161.7	-170.6	-74.84	-93.59	-59.16	71.52	313.0	757.3	 1443	 2262	 3010	 3152	 1832	446.5	181.5	644.6	 3638	 7571	 2110	34.82	-10.40	-11.65	-11.06	-10.48	-10.07	-10.06	-9.802	-10.52	-8.739	-9.025	-9.678	-8.352	-7.505	-7.694	-6.692	-6.252	-5.945	-6.786	-6.118	-5.209	-5.332	-5.846	-5.493	-5.106	-4.882	-4.845	-3.872	-4.554	-3.855	-3.438	-3.393	-3.935	-4.248	-4.227	-3.597	-3.527	-3.477	-3.375	-2.723	-1.515	-1.827	-0.505	-0.241	0.417	1.318	1.880	1.514	0.115	-2.479	-4.456	-4.712	-4.536	-3.745	-3.975	-0.914	5.682	19.00
310.0	-255.9	-192.9	-90.18	-100.2	-37.26	53.78	249.5	612.9	 1149	 1861	 2398	 2405	 1664	606.5	134.7	176.1	880.5	 3358	 5944	 3168	119.0	-9.434	-10.14	-10.05	-9.573	-10.68	-9.342	-9.608	-9.331	-9.478	-9.770	-8.303	-8.008	-7.636	-6.753	-6.404	-6.188	-6.759	-5.934	-5.641	-5.636	-6.031	-5.518	-5.545	-4.968	-4.819	-4.142	-4.350	-4.039	-3.439	-3.211	-4.152	-3.958	-3.852	-3.867	-3.877	-3.799	-3.547	-3.071	-2.463	-1.732	-1.212	-0.648	0.099	0.060	-0.210	-0.034	-0.989	-2.025	-3.908	-4.447	-4.939	-4.418	-5.041	-4.297	-2.969	0.578
315.0	-295.7	-213.7	-111.5	-76.20	-30.19	104.5	230.8	505.4	905.2	 1398	 1842	 1740	 1131	697.2	336.5	98.60	222.7	773.0	 1858	 6068	 4904	166.6	-7.339	-8.610	-9.626	-10.12	-9.130	-9.478	-9.213	-10.00	-7.960	-8.501	-7.978	-7.031	-6.791	-6.603	-6.398	-6.446	-6.152	-6.026	-6.026	-5.855	-5.596	-5.398	-4.905	-5.432	-4.295	-3.905	-3.895	-3.438	-3.364	-3.972	-3.818	-3.579	-4.048	-4.315	-3.902	-3.863	-3.865	-2.967	-2.277	-2.155	-1.317	-1.087	-1.407	-1.100	-1.135	-1.634	-3.169	-3.842	-3.528	-3.994	-4.231	-4.827	-4.591	-4.667	-3.681
320.0	-267.8	-108.7	25.87	89.36	58.54	179.1	311.9	485.8	786.4	 1146	 1484	 1405	882.1	509.7	538.3	206.9	102.4	210.4	437.4	 2397	 7281	 2064	100.3	-7.248	-8.261	-9.294	-8.911	-9.926	-8.809	-9.653	-8.483	-8.293	-7.363	-6.776	-6.766	-6.741	-6.113	-6.238	-5.986	-5.792	-5.605	-6.037	-5.869	-4.946	-5.539	-5.827	-4.119	-4.071	-4.124	-3.042	-3.418	-3.981	-3.730	-3.791	-3.738	-3.684	-3.954	-3.567	-3.618	-2.990	-3.028	-2.395	-2.062	-2.051	-1.861	-1.575	-1.872	-2.897	-3.947	-3.957	-3.512	-3.788	-3.990	-4.596	-5.243	-5.312	-5.115
325.0	-215.5	-23.29	299.8	327.9	281.7	419.3	475.1	590.9	793.7	 1025	 1229	 1143	757.2	403.8	502.5	425.4	130.1	94.40	128.0	579.1	 3441	 7048	 1674	41.95	-6.268	-8.541	-8.733	-8.713	-8.986	-9.396	-8.599	-7.843	-7.300	-7.673	-7.325	-6.287	-6.138	-6.301	-5.568	-5.875	-5.463	-5.395	-6.008	-5.196	-4.726	-4.929	-3.904	-3.645	-3.262	-3.046	-2.700	-3.616	-3.875	-3.388	-3.366	-3.688	-3.595	-3.564	-3.413	-2.900	-2.966	-2.419	-2.683	-2.836	-2.364	-2.395	-2.856	-3.220	-3.702	-4.018	-4.077	-3.750	-3.516	-3.218	-5.185	-5.744	-5.193
330.0	-203.8	79.03	547.2	801.8	958.4	 1079	 1064	 1008	998.5	 1074	 1076	914.2	617.7	375.0	340.7	412.0	338.3	124.9	73.82	160.8	829.6	 3065	 5841	 3571	97.22	-4.291	-7.769	-7.983	-8.294	-8.981	-8.022	-7.126	-7.085	-7.380	-6.476	-6.102	-6.267	-6.230	-5.474	-5.791	-5.747	-5.556	-5.449	-5.611	-4.919	-4.697	-3.808	-3.465	-2.640	-2.109	-2.240	-2.299	-2.596	-2.109	-1.633	-2.097	-2.310	-2.655	-2.608	-2.012	-2.525	-2.445	-2.247	-2.779	-2.758	-2.918	-2.963	-3.146	-3.748	-4.138	-4.081	-4.116	-3.753	-3.998	-4.035	-4.729	-4.667
335.0	-117.8	278.2	 1080	 1536	 1915	 2238	 2141	 1797	 1448	 1312	 1057	779.9	556.6	385.6	330.0	274.9	356.2	325.1	101.7	81.61	218.6	700.8	 1830	 6005	 4967	137.8	-5.862	-6.108	-7.301	-7.902	-8.567	-6.619	-6.792	-7.977	-6.918	-6.367	-6.417	-5.696	-5.721	-5.957	-5.631	-5.489	-5.255	-5.427	-5.130	-3.878	-3.398	-2.889	-1.742	-1.294	-1.233	-1.041	-0.821	0.342	-0.614	-0.035	-0.106	-0.317	-1.710	-1.447	-1.662	-1.571	-2.004	-2.560	-2.816	-2.745	-3.196	-3.955	-3.474	-4.205	-4.181	-4.274	-4.441	-4.156	-4.474	-4.907	-3.360
340.0	-67.66	475.5	 1503	 2209	 2776	 3034	 2972	 2490	 1898	 1601	 1082	723.2	506.0	388.7	333.4	255.6	248.7	390.9	213.6	78.77	84.76	177.4	425.0	 2333	 7263	 1608	87.55	-5.136	-6.123	-8.158	-7.975	-6.884	-6.926	-6.923	-5.608	-5.998	-5.778	-5.608	-6.109	-5.381	-4.915	-5.081	-5.948	-4.699	-4.725	-4.228	-3.439	-2.634	-1.708	-0.668	0.004	-0.008	0.822	2.272	0.767	1.508	1.139	0.965	-0.420	-0.980	-0.432	-1.524	-2.072	-2.484	-3.207	-3.247	-3.626	-3.763	-4.111	-4.215	-4.679	-4.120	-4.434	-4.458	-4.168	-5.291	-4.499
345.0	-1.201	545.0	 1654	 2640	 3474	 3878	 3770	 2986	 2278	 1794	 1108	671.7	476.3	376.2	316.6	253.9	204.0	278.6	346.7	135.6	59.43	64.78	107.1	552.9	 3417	 6918	 1392	41.28	-4.411	-6.350	-6.442	-7.672	-7.372	-6.923	-6.893	-5.646	-5.909	-5.617	-6.108	-5.334	-5.085	-5.985	-5.511	-4.698	-4.453	-4.167	-3.127	-2.181	-1.186	0.114	0.877	1.706	1.505	3.154	3.190	2.916	2.338	2.563	1.118	-0.058	-0.462	-1.366	-1.559	-2.206	-3.040	-3.435	-3.928	-3.538	-4.077	-4.015	-4.550	-4.266	-4.079	-4.672	-4.394	-5.081	-5.091
350.0	25.87	694.0	 1908	 3170	 4170	 4830	 4590	 3621	 2707	 1996	 1159	616.5	403.0	345.7	308.8	243.4	200.8	196.4	274.9	267.4	109.5	47.43	40.14	134.6	813.9	 3118	 5516	 3320	81.74	-4.058	-6.356	-6.589	-6.727	-6.273	-6.592	-5.639	-6.172	-5.384	-5.704	-5.592	-5.065	-5.611	-5.370	-5.160	-4.188	-4.014	-3.101	-2.067	-0.420	-0.014	1.274	2.941	3.546	4.397	4.669	4.671	4.253	3.782	1.619	1.229	0.211	-0.615	-1.352	-2.290	-2.638	-3.577	-4.056	-4.018	-3.874	-4.318	-4.083	-4.494	-4.256	-4.779	-4.794	-4.820	-4.916
355.0	93.06	793.2	 2142	 3541	 4782	 5400	 5163	 4057	 2983	 2154	 1177	552.1	362.0	332.5	308.9	251.7	206.7	178.9	175.5	226.6	226.1	78.50	31.35	44.60	193.7	704.5	 1814	 6014	 4475	113.5	-4.502	-5.369	-5.604	-5.872	-6.436	-5.597	-6.171	-5.928	-5.667	-5.697	-5.750	-5.372	-5.070	-5.005	-4.820	-4.300	-2.897	-1.616	0.326	0.713	2.145	3.893	4.314	5.102	5.597	6.075	4.921	4.650	3.157	1.230	0.271	0.101	-0.550	-2.066	-2.945	-3.627	-4.006	-4.046	-3.868	-4.128	-4.380	-4.316	-4.528	-4.355	-4.834	-4.721	-5.018
360.0	92.67	719.5	 2197	 3638	 4967	 5671	 5261	 4291	 3117	 2191	 1159	533.5	337.9	320.8	293.9	246.4	203.7	176.6	155.0	157.7	240.1	160.7	40.10	27.43	55.47	166.3	417.2	 2496	 7098	 1390	70.72	-3.197	-5.707	-4.763	-5.878	-5.463	-5.542	-5.386	-5.595	-5.361	-5.626	-5.587	-5.086	-4.902	-4.329	-3.856	-3.028	-1.457	-0.137	0.765	2.257	4.506	5.196	6.053	6.027	5.979	5.301	4.873	3.438	1.915	0.544	0.190	-0.666	-1.278	-2.948	-3.439	-4.301	-4.073	-4.445	-4.023	-4.244	-4.276	-4.686	-4.267	-5.018	-5.064	-5.029
365.0	21.47	747.8	 2085	 3639	 4975	 5648	 5400	 4228	 3091	 2174	 1184	497.1	308.0	302.4	291.4	240.1	208.7	173.3	153.6	132.2	160.2	214.0	88.59	30.19	30.58	49.67	103.3	593.0	 3539	 6770	 1188	30.28	-4.994	-4.231	-6.020	-5.260	-5.226	-5.125	-5.802	-5.290	-5.262	-6.193	-4.876	-4.642	-4.648	-4.063	-2.629	-1.664	-0.114	0.892	1.906	4.565	5.329	5.898	5.635	6.156	5.556	4.800	2.566	2.236	1.005	0.700	-1.071	-2.022	-3.469	-3.287	-4.166	-4.320	-4.343	-4.107	-4.711	-4.524	-4.503	-4.429	-4.032	-4.938	-4.414
370.0	7.694	766.9	 2016	 3570	 4815	 5403	 5240	 4074	 2980	 2121	 1085	465.2	270.5	279.0	272.8	223.0	202.8	175.6	157.6	124.2	104.5	142.0	168.9	84.53	31.12	26.48	36.46	140.8	845.7	 3252	 5569	 3235	62.69	-2.989	-5.127	-4.775	-5.311	-4.908	-5.890	-5.161	-5.497	-5.688	-4.993	-4.885	-4.406	-3.684	-2.926	-1.750	-0.246	0.532	1.774	3.693	4.515	5.609	6.182	5.671	5.234	4.026	2.360	1.095	0.846	-0.201	-1.324	-1.903	-2.880	-3.198	-4.449	-3.792	-4.443	-4.213	-4.613	-4.718	-4.256	-4.497	-4.217	-4.815	-4.334
375.0	-21.84	630.4	 1925	 3173	 4405	 5000	 4877	 3713	 2721	 1938	 1004	420.8	251.8	261.9	253.3	222.0	198.4	176.0	156.2	120.5	91.74	85.83	132.0	169.6	69.30	27.33	25.18	43.59	196.3	732.1	 1954	 6625	 4160	84.75	-3.033	-4.207	-4.606	-5.242	-4.801	-5.506	-4.402	-5.421	-5.293	-4.954	-3.886	-3.984	-2.956	-1.596	-0.620	0.364	1.528	3.826	3.639	4.607	5.522	4.923	4.000	2.578	2.108	1.136	0.135	-0.736	-1.009	-2.186	-3.267	-3.317	-4.256	-4.252	-4.207	-4.625	-4.922	-4.298	-4.003	-4.615	-4.242	-4.697	-5.117
380.0	-44.11	540.4	 1720	 2896	 4063	 4593	 4402	 3424	 2468	 1737	920.0	393.6	227.0	243.3	247.7	212.6	193.2	173.6	161.8	118.6	88.36	68.84	82.16	158.7	132.8	44.40	25.26	23.31	55.27	170.4	452.8	 2953	 7243	 1099	46.99	-2.980	-3.965	-4.734	-4.858	-5.239	-4.830	-4.812	-5.468	-4.747	-4.242	-4.323	-2.919	-2.054	-0.765	0.253	0.669	3.264	3.076	3.890	4.555	3.731	3.188	2.391	0.810	1.308	0.014	-0.728	-1.352	-2.856	-3.311	-3.628	-4.674	-3.983	-4.270	-4.490	-4.864	-4.673	-4.389	-4.450	-4.017	-4.280	-4.778
385.0	-64.27	470.8	 1537	 2606	 3739	 4224	 3971	 3076	 2245	 1562	825.4	341.9	210.0	232.6	243.2	209.7	190.9	167.6	154.9	118.8	89.84	72.76	62.39	100.6	162.3	87.62	32.34	21.97	25.60	46.28	108.6	712.6	 3975	 6003	881.8	10.56	-3.703	-4.749	-4.744	-4.981	-5.510	-4.206	-5.846	-5.171	-5.286	-4.703	-3.586	-2.599	-1.743	-0.145	0.239	2.483	2.551	3.364	3.562	3.153	2.165	1.663	0.693	0.295	-0.710	-0.942	-1.475	-2.826	-3.589	-3.673	-3.982	-4.498	-4.314	-4.800	-4.322	-4.680	-4.531	-4.396	-4.476	-4.505	-5.097
390.0	-92.87	345.6	 1253	 2183	 3088	 3490	 3338	 2602	 1877	 1309	709.9	298.5	187.9	216.6	224.2	206.8	179.4	164.7	149.9	122.2	89.98	72.31	64.10	67.39	106.8	138.2	78.89	28.49	21.00	21.17	32.52	164.6	967.8	 3133	 4774	 1991	44.03	-3.593	-4.469	-4.617	-4.822	-4.581	-4.860	-4.937	-4.879	-4.238	-3.453	-2.704	-1.339	-0.771	-0.168	1.027	1.782	2.601	2.331	2.168	1.867	0.556	0.322	-0.160	-1.150	-1.715	-2.168	-2.856	-3.812	-3.795	-4.089	-4.226	-4.614	-4.464	-4.463	-4.436	-4.554	-4.295	-4.377	-4.325	-4.939
