Sample:	'1
File name:	t2025022703¶þ²ã³Ø3  1Íò±¶.FD3
Run date:	'12:26:09, 02/28/2025
Operator:	Administrator
Comment:	'

Instrument
Model:	F-2700 FL Spectrophotometer
Serial number:	23B8-004
ROM Version:	4J14000 07

Instrument parameters
Measurement type:	3-D scan
Data mode:	Fluorescence
EX  Start WL:	220.0 nm
EX  End WL:	600.0 nm
EX Sampling interval:	5.0 nm
EM  Start WL:	230.0 nm
EM  End WL:	650.0 nm
EM Sampling interval:	5.0 nm
Scan speed:	12000 nm/min
EX Slit:	5.0 nm
EM Slit:	5.0 nm
PMT Voltage:	700 V
Response:	Auto 
Corrected spectra:	Off
Contour interval:	50.000

Peak integration
Integration method:	Rectangular
Sensitivity:	1
Threshold:	1.000

Peaks
No.	ApexEX/EM(nm)	Height(Data)
1	225.0/490.0	183.1
2	230.0/250.0	311.5
3	230.0/505.0	157.9
4	235.0/255.0	374.4
5	235.0/515.0	133.0
6	240.0/265.0	475.1
7	240.0/525.0	124.8
8	245.0/270.0	529.9
9	245.0/540.0	131.1
10	250.0/550.0	119.5
11	265.0/585.0	484.9
12	270.0/300.0	6361
13	270.0/590.0	477.3
14	300.0/335.0	288.2
15	305.0/345.0	243.1
16	310.0/350.0	175.6
17	315.0/355.0	177.8
18	320.0/360.0	160.0
19	325.0/370.0	125.0
20	330.0/375.0	114.1
21	335.0/380.0	124.4
22	340.0/385.0	99.75
23	350.0/400.0	83.79
24	355.0/405.0	75.30
25	360.0/410.0	56.69
26	365.0/420.0	57.79
27	370.0/425.0	55.75
28	375.0/430.0	41.82
29	380.0/440.0	38.49
30	385.0/300.0	15.62
31	385.0/445.0	36.69
32	385.0/585.0	2.013
33	390.0/450.0	27.66
34	395.0/455.0	25.19
35	400.0/465.0	23.59
36	405.0/470.0	17.44
37	410.0/480.0	15.59
38	415.0/485.0	14.77
39	420.0/490.0	11.44
40	425.0/500.0	10.99
41	430.0/505.0	9.966
42	435.0/300.0	10.91
43	435.0/510.0	7.691
44	440.0/520.0	7.373
45	445.0/525.0	6.835
46	455.0/540.0	4.769
47	460.0/545.0	3.956
48	465.0/555.0	3.122
49	470.0/560.0	2.728
50	475.0/260.0	2.203
51	480.0/575.0	1.861
52	485.0/265.0	2.513
53	535.0/585.0	2.775
54	540.0/300.0	30.41
55	540.0/595.0	2.899
56	585.0/325.0	4.068

Data points
	220.0	225.0	230.0	235.0	240.0	245.0	250.0	255.0	260.0	265.0	270.0	275.0	280.0	285.0	290.0	295.0	300.0	305.0	310.0	315.0	320.0	325.0	330.0	335.0	340.0	345.0	350.0	355.0	360.0	365.0	370.0	375.0	380.0	385.0	390.0	395.0	400.0	405.0	410.0	415.0	420.0	425.0	430.0	435.0	440.0	445.0	450.0	455.0	460.0	465.0	470.0	475.0	480.0	485.0	490.0	495.0	500.0	505.0	510.0	515.0	520.0	525.0	530.0	535.0	540.0	545.0	550.0	555.0	560.0	565.0	570.0	575.0	580.0	585.0	590.0	595.0	600.0
230.0	102.4	814.1	1864	528.9	27.15	9.224	7.671	6.658	5.336	5.257	5.218	4.359	3.062	2.497	2.137	1.753	1.529	1.407	1.248	1.150	1.165	0.967	0.953	0.953	0.884	0.883	0.900	0.766	0.793	0.771	0.747	0.700	0.707	0.619	0.639	0.608	0.585	0.572	0.580	0.583	0.801	1.121	1.135	0.726	0.534	0.521	1.153	4.196	6.321	4.090	1.540	0.591	0.412	0.417	0.412	0.399	0.450	0.463	0.456	0.452	0.466	0.452	0.463	0.477	0.497	0.507	0.505	0.487	0.495	0.489	0.523	0.469	0.495	0.496	0.504	0.548	0.510
235.0	238.2	253.2	1085	1589	436.1	27.55	8.318	7.144	5.534	5.065	5.259	4.563	3.376	2.752	2.462	1.824	1.541	1.462	1.391	1.221	1.192	1.001	1.025	0.893	0.899	0.896	0.964	0.741	0.889	0.815	0.735	0.721	0.711	0.694	0.616	0.572	0.573	0.532	0.559	0.533	0.630	0.766	0.937	0.979	0.883	0.684	0.666	1.368	2.584	4.125	5.567	4.965	2.318	0.787	0.391	0.407	0.498	0.475	0.449	0.464	0.431	0.481	0.518	0.445	0.468	0.494	0.484	0.451	0.448	0.512	0.491	0.551	0.519	0.498	0.472	0.465	0.535
240.0	301.8	209.9	338.8	1335	1571	304.3	15.99	7.264	6.377	5.631	5.342	4.813	3.461	2.570	2.259	2.027	1.719	1.575	1.348	1.234	1.087	1.013	0.955	0.968	0.904	0.919	0.940	0.824	0.916	0.803	0.677	0.770	0.743	0.631	0.704	0.587	0.572	0.549	0.561	0.554	0.591	0.637	0.631	0.820	0.972	1.184	0.760	0.755	0.946	1.513	3.233	6.815	7.535	4.862	1.693	0.548	0.484	0.438	0.547	0.490	0.452	0.471	0.465	0.439	0.477	0.503	0.535	0.522	0.528	0.518	0.502	0.547	0.487	0.523	0.499	0.475	0.531
245.0	218.7	327.6	159.2	470.2	1695	1436	197.8	8.658	7.056	5.910	5.570	4.692	3.453	2.550	2.163	2.151	1.897	1.490	1.335	1.268	1.057	1.053	0.982	0.946	0.983	0.889	0.995	0.774	0.828	0.825	0.699	0.691	0.739	0.643	0.668	0.589	0.668	0.661	0.654	0.540	0.557	0.539	0.602	0.551	0.796	1.228	1.240	0.982	0.702	0.671	1.069	2.550	5.950	9.046	7.898	3.921	1.106	0.496	0.500	0.461	0.474	0.491	0.521	0.506	0.464	0.559	0.493	0.475	0.513	0.478	0.465	0.481	0.488	0.493	0.550	0.516	0.556
250.0	96.12	243.4	311.5	212.6	574.9	1532	1709	514.2	28.18	7.359	6.174	5.057	3.800	2.906	2.315	2.109	1.756	1.390	1.349	1.127	1.112	1.119	0.984	0.998	0.920	0.879	0.974	0.836	0.777	0.749	0.765	0.766	0.719	0.700	0.648	0.626	0.612	0.615	0.572	0.552	0.572	0.550	0.554	0.512	0.575	0.704	0.871	1.123	1.249	1.028	0.750	1.031	1.848	3.327	5.755	8.092	9.668	8.183	3.815	1.146	0.532	0.472	0.447	0.500	0.441	0.466	0.482	0.460	0.517	0.489	0.547	0.501	0.471	0.498	0.519	0.509	0.540
255.0	61.18	87.03	240.4	374.4	236.3	433.7	1507	2414	266.4	23.76	6.866	6.344	3.947	2.965	2.455	2.090	1.710	1.583	1.333	1.225	1.153	1.042	0.958	1.036	0.952	0.878	0.880	0.819	0.823	0.730	0.709	0.710	0.751	0.742	0.764	0.720	0.649	0.599	0.640	0.604	0.585	0.644	0.582	0.522	0.495	0.535	0.536	0.612	0.794	1.258	1.556	1.549	1.068	1.198	1.721	2.318	4.603	9.812	14.77	12.92	5.496	1.265	0.514	0.521	0.453	0.454	0.522	0.506	0.546	0.506	0.438	0.672	0.493	0.518	0.502	0.516	0.505
260.0	54.58	50.12	99.95	344.0	352.0	180.4	523.2	2249	2066	203.9	12.08	7.256	4.476	3.344	2.513	2.235	1.881	1.530	1.491	1.201	1.269	1.088	1.082	0.910	0.952	0.860	0.973	0.838	0.792	0.802	0.763	0.775	0.735	0.720	0.668	0.697	0.690	0.591	0.607	0.587	0.566	0.591	0.519	0.518	0.478	0.467	0.453	0.468	0.503	0.647	1.126	2.203	1.997	1.252	0.985	1.072	1.617	3.261	7.657	15.25	17.49	11.18	3.826	0.832	0.479	0.509	0.483	0.494	0.491	0.505	0.473	0.535	0.508	0.497	0.549	0.512	0.596
265.0	49.02	39.79	47.21	187.4	475.1	301.8	214.3	860.0	2867	1747	139.6	9.625	5.400	3.783	2.685	2.173	2.055	1.542	1.476	1.180	1.186	0.971	1.043	0.970	0.933	0.928	1.054	0.839	0.840	0.857	0.776	0.701	0.718	0.710	0.702	0.748	0.611	0.601	0.600	0.536	0.557	0.645	0.627	0.564	0.495	0.524	0.475	0.429	0.452	0.437	0.609	1.279	2.170	2.513	1.665	1.116	1.071	1.350	2.312	5.282	11.74	18.55	17.76	8.798	1.855	0.621	0.536	0.484	0.455	0.507	0.487	0.510	0.505	0.480	0.584	0.550	0.575
270.0	74.60	50.72	39.73	85.91	300.0	529.9	340.6	304.2	1029	2530	2497	571.7	22.95	5.202	3.379	2.698	2.063	1.687	1.569	1.369	1.278	1.151	1.181	0.977	1.011	0.915	1.012	0.884	0.773	0.852	0.779	0.798	0.736	0.755	0.781	0.707	0.604	0.648	0.615	0.648	0.591	0.655	0.643	0.571	0.548	0.559	0.499	0.492	0.475	0.421	0.480	0.807	1.150	1.856	2.566	2.889	2.263	1.685	1.314	1.897	3.324	6.226	10.50	14.90	16.36	13.81	7.217	2.047	0.697	0.580	0.548	0.537	0.518	0.499	0.546	0.562	0.563
275.0	313.5	170.8	86.27	97.36	196.9	421.5	745.4	373.5	449.4	950.4	2609	4486	160.6	21.17	5.345	3.414	2.427	2.019	1.882	1.469	1.286	1.342	1.186	1.122	0.941	0.895	1.105	0.892	0.872	0.847	0.995	1.088	1.190	1.441	1.412	0.991	0.966	0.940	1.080	1.058	1.021	1.090	1.087	0.984	1.027	0.918	0.836	0.665	0.533	0.546	0.517	0.782	0.929	1.235	1.677	2.236	3.620	4.491	2.974	1.955	1.982	3.022	3.873	5.102	7.305	13.98	23.43	21.30	10.56	2.273	0.718	0.523	0.558	0.550	0.519	0.610	0.597
280.0	1056	543.2	272.2	183.3	242.0	387.7	777.7	1058	934.3	1231	1861	4698	3273	125.3	10.03	4.398	3.064	2.277	2.157	1.756	1.438	1.457	1.194	1.208	1.143	1.016	0.990	0.887	1.017	0.949	1.125	1.633	2.500	3.581	3.062	2.399	2.174	2.102	2.220	2.221	2.246	2.275	2.404	2.308	2.329	2.066	1.592	1.338	1.058	0.865	0.725	1.034	1.042	1.371	1.697	1.974	3.209	4.708	5.866	5.125	4.248	4.656	5.424	6.316	7.365	8.781	13.73	22.22	27.81	18.56	6.852	1.263	0.701	0.628	0.640	0.678	0.587
285.0	2193	1198	568.1	378.6	356.4	472.6	796.2	1553	1996	2071	2622	3159	4389	1081	79.06	6.132	3.888	2.971	2.395	1.737	1.658	1.709	1.308	1.252	1.186	1.124	1.149	1.025	1.073	0.973	1.358	2.812	5.005	6.675	6.282	4.549	3.779	3.781	4.005	3.903	4.224	4.554	4.618	4.929	4.342	4.021	2.912	2.376	1.906	1.378	1.249	1.473	1.601	1.578	1.929	2.349	3.270	4.223	5.966	8.594	9.515	9.921	9.706	11.59	12.69	12.06	12.66	14.27	18.09	23.87	25.53	14.28	3.738	1.026	0.828	0.775	0.729
290.0	3783	2124	1065	671.5	531.6	614.5	1024	1858	3218	4185	4298	3623	2464	2609	2064	311.0	10.50	3.962	2.904	2.480	2.060	1.821	1.602	1.515	1.285	1.205	1.212	1.138	1.150	1.080	1.634	4.136	8.331	11.40	10.59	8.072	6.744	6.255	6.286	6.503	6.718	7.237	7.808	8.044	7.819	6.835	4.963	4.192	3.249	2.394	2.086	2.282	2.247	2.233	2.483	3.092	3.895	5.427	7.109	9.497	12.45	16.42	18.40	20.46	21.40	19.69	18.62	17.33	14.22	11.66	13.52	16.62	18.27	17.04	10.18	3.326	1.061
295.0	4877	2851	1453	898.1	659.4	710.6	1188	2115	3618	5453	5837	4454	2029	980.4	2056	3079	87.13	7.893	3.253	2.681	2.179	2.163	1.687	1.700	1.329	1.270	1.371	1.126	1.273	1.234	1.767	5.008	10.84	15.09	13.71	10.28	8.856	8.305	7.896	8.073	8.985	9.477	9.758	10.18	9.916	8.843	6.340	5.527	4.380	3.197	2.857	2.918	2.724	2.676	2.757	3.264	4.479	6.115	7.948	10.57	13.63	18.23	22.07	27.25	29.89	26.20	23.54	21.84	16.22	9.709	6.420	5.976	6.440	11.17	20.91	22.18	13.56
300.0	5200	3028	1610	999.3	688.7	714.1	1199	2170	3669	5389	6361	4856	2009	595.7	693.7	2815	2317	67.38	4.904	3.467	2.768	2.270	1.950	1.698	1.358	1.371	1.458	1.197	1.293	1.160	2.081	5.367	11.70	15.62	14.49	11.50	9.216	8.656	8.217	8.625	9.585	10.05	10.47	10.91	10.10	9.363	7.025	6.054	4.857	3.478	3.018	3.211	2.885	2.687	2.889	3.489	4.773	6.162	8.007	11.26	14.18	18.64	22.02	26.43	30.41	29.36	26.90	23.06	16.37	9.449	5.565	3.777	3.073	3.972	7.583	14.16	23.12
305.0	4808	2955	1588	970.6	668.5	673.9	1123	2031	3427	4964	5832	5014	2011	532.5	269.2	957.2	2910	1714	44.65	4.132	2.980	2.257	1.879	1.858	1.660	1.421	1.330	1.248	1.305	1.205	1.888	5.106	10.74	15.51	14.41	11.48	9.227	8.163	8.116	8.396	9.218	9.557	9.905	10.10	9.795	8.972	7.094	5.918	4.714	3.640	3.086	3.256	2.787	2.615	2.780	3.253	4.196	5.733	7.857	10.54	13.34	17.59	20.21	24.21	27.01	27.15	26.92	24.66	16.72	9.249	5.359	3.407	2.386	2.291	2.996	4.508	9.300
310.0	4097	2564	1408	872.0	585.2	562.5	913.3	1668	2834	4071	4665	4187	2109	582.2	178.1	258.3	932.2	2062	1460	219.9	6.977	2.625	2.159	1.780	1.593	1.572	1.408	1.410	1.327	1.206	1.759	4.463	9.254	13.31	12.64	9.870	8.333	7.703	7.300	7.307	7.784	8.204	8.439	8.977	8.619	7.767	6.027	5.110	4.140	3.365	2.807	3.086	2.571	2.282	2.338	2.724	3.620	5.004	6.425	8.703	11.07	14.70	17.07	19.99	22.05	21.77	21.20	20.46	15.98	10.33	5.878	3.422	2.416	1.831	1.837	1.975	3.041
315.0	3164	2050	1132	709.5	465.5	436.3	684.3	1258	2138	3055	3496	3035	1716	842.0	198.3	101.6	231.5	516.7	1427	2196	62.58	5.212	2.434	1.920	1.783	1.382	1.362	1.314	1.176	1.206	1.631	3.505	7.338	10.33	9.713	8.273	6.901	6.215	6.070	5.810	6.056	6.628	6.964	6.855	7.002	6.479	5.299	4.002	3.415	2.705	2.287	2.551	2.129	2.112	1.935	2.234	2.990	3.647	5.036	6.511	8.479	11.14	12.87	15.23	16.80	16.38	15.69	14.57	11.45	8.226	6.797	5.336	3.086	1.676	1.516	1.297	1.490
320.0	2519	1655	920.0	583.0	383.2	348.7	535.4	981.8	1665	2374	2703	2333	1246	801.2	376.3	78.34	75.65	130.7	418.5	1928	1665	52.82	3.467	2.140	1.835	1.510	1.681	1.246	1.072	1.140	1.412	3.028	6.003	8.845	8.252	7.232	5.984	5.200	4.934	4.993	5.108	5.295	5.677	5.402	5.669	5.252	4.007	3.631	2.887	2.274	1.950	2.060	1.787	1.730	1.623	1.837	2.521	3.051	4.070	5.269	6.595	8.621	10.08	11.94	13.21	13.26	12.20	11.07	8.446	6.014	4.927	4.815	4.600	3.118	1.626	1.247	1.095
325.0	2007	1345	764.4	476.6	321.6	281.4	418.0	763.8	1284	1848	2106	1824	949.6	528.1	508.6	113.1	40.50	43.58	106.7	621.0	1955	1314	37.84	2.976	1.969	1.610	1.559	1.172	1.184	1.209	1.469	2.620	4.843	6.982	6.653	5.753	5.112	4.245	4.120	3.871	3.946	4.411	4.498	4.542	4.300	4.202	3.349	3.072	2.394	1.899	1.698	1.796	1.528	1.442	1.485	1.444	2.023	2.480	3.330	4.134	5.135	6.626	7.868	9.027	10.30	10.37	9.614	8.950	6.783	4.757	3.339	2.908	3.536	4.068	3.013	1.685	1.036
330.0	1482	997.8	586.9	369.7	246.9	212.0	308.7	538.9	905.5	1304	1506	1312	697.7	328.0	302.9	310.0	121.5	27.52	34.93	150.3	604.3	1444	1072	182.9	6.566	1.990	1.754	1.426	1.253	1.212	1.328	2.249	3.682	5.235	5.183	4.481	3.932	3.456	3.196	3.136	3.021	3.175	3.359	3.599	3.415	3.211	2.649	2.332	1.952	1.625	1.395	1.464	1.230	1.190	1.174	1.203	1.680	1.915	2.506	3.076	3.898	4.907	5.756	6.628	7.416	7.569	7.079	6.465	5.201	3.725	2.569	2.139	2.021	2.279	2.563	2.891	2.454
335.0	1056	754.8	444.4	284.4	186.2	157.2	224.1	378.6	624.9	886.4	1040	906.6	499.6	236.0	147.0	191.2	288.2	73.80	19.26	43.60	143.6	353.2	983.3	1597	53.13	5.184	1.921	1.466	1.346	1.232	1.328	1.837	2.759	4.024	4.022	3.265	2.829	2.674	2.502	2.409	2.430	2.500	2.560	2.605	2.478	2.577	2.050	1.870	1.596	1.315	1.162	1.159	1.119	1.093	0.870	0.967	1.305	1.461	1.843	2.297	2.747	3.337	4.132	4.938	5.366	4.929	5.091	4.527	3.779	2.801	1.971	1.753	1.598	1.396	1.386	1.599	2.133
340.0	836.8	595.9	359.5	233.7	155.7	133.4	174.8	289.1	465.9	649.4	764.0	678.5	387.4	188.8	99.72	90.55	226.4	213.7	38.28	19.46	41.49	88.36	277.5	1313	1351	47.56	3.328	1.732	1.638	1.243	1.312	1.695	2.556	3.068	3.326	2.665	2.354	2.356	2.173	1.973	1.932	1.995	1.956	2.115	2.083	2.034	1.684	1.595	1.320	1.173	0.999	0.975	0.940	0.909	0.859	0.838	1.140	1.250	1.597	1.721	2.312	2.632	3.022	3.621	3.804	3.912	3.753	3.406	2.917	2.213	1.749	1.432	1.291	1.092	1.108	1.102	1.214
345.0	676.6	487.6	302.3	201.8	126.7	107.4	140.7	220.2	346.0	490.6	569.2	523.1	305.6	156.1	83.38	55.47	104.1	243.1	80.80	20.38	18.95	28.29	70.93	406.3	1461	1136	38.86	2.179	1.743	1.372	1.309	1.526	2.218	2.759	2.686	2.359	2.018	2.158	1.892	1.825	1.570	1.687	1.700	1.670	1.896	1.665	1.324	1.297	1.253	1.086	0.888	0.966	0.912	0.769	0.759	0.782	0.914	1.094	1.322	1.511	1.776	2.099	2.444	2.923	3.091	3.207	2.807	2.812	2.337	1.920	1.437	1.265	1.075	0.905	1.100	0.946	0.975
350.0	524.0	380.6	248.3	161.3	104.7	86.70	105.7	158.6	242.6	343.9	400.8	375.5	231.5	127.0	69.58	43.38	46.62	109.8	175.6	102.0	23.68	15.95	24.73	99.47	434.4	1097	910.9	176.0	8.064	1.578	1.369	1.366	1.927	2.238	2.204	2.067	1.695	1.682	1.521	1.478	1.396	1.324	1.459	1.349	1.472	1.328	1.187	1.216	1.000	0.920	0.731	0.830	0.772	0.713	0.702	0.676	0.811	0.897	0.974	1.205	1.438	1.656	1.828	2.064	2.276	2.273	2.229	2.218	1.927	1.574	1.281	1.118	1.030	0.918	0.951	0.818	0.820
355.0	433.6	314.7	213.4	140.3	89.64	67.59	78.36	108.6	168.1	238.6	280.6	263.7	169.9	101.4	59.99	38.84	32.22	41.68	84.08	177.8	66.08	18.61	14.44	31.12	103.8	261.4	707.6	1274	255.7	6.173	1.692	1.479	1.707	1.842	1.895	1.786	1.541	1.415	1.298	1.302	1.234	1.137	1.205	1.141	1.134	1.091	1.044	1.013	0.939	0.875	0.736	0.682	0.703	0.643	0.714	0.635	0.713	0.723	0.803	0.936	1.178	1.263	1.397	1.455	1.702	1.872	1.818	1.703	1.428	1.188	1.009	0.941	0.922	0.859	0.811	0.763	0.788
360.0	349.8	275.2	195.0	122.7	80.11	59.24	69.40	87.34	128.9	181.7	210.9	203.1	138.7	88.14	54.28	36.10	28.20	27.45	39.11	112.4	160.0	47.72	14.51	15.59	30.47	64.36	187.9	893.0	1161	46.87	3.407	1.589	1.747	1.731	1.732	1.418	1.448	1.429	1.171	1.075	1.093	1.059	1.025	1.022	0.956	0.993	0.956	0.870	0.872	0.866	0.702	0.639	0.617	0.611	0.669	0.591	0.644	0.779	0.722	0.789	1.054	1.014	1.121	1.194	1.460	1.436	1.439	1.413	1.346	1.092	0.924	0.984	0.832	0.791	0.769	0.750	0.705
365.0	324.4	238.0	177.1	103.9	70.35	51.66	58.05	70.44	104.6	144.0	167.1	162.3	118.2	77.31	51.35	34.17	26.93	25.07	25.67	51.48	141.3	122.9	27.06	12.12	13.53	19.99	47.29	253.2	1036	945.2	40.26	2.080	1.654	1.671	1.591	1.411	1.565	1.237	1.056	1.086	1.013	0.978	0.947	1.009	0.954	0.895	0.888	0.828	0.806	0.679	0.616	0.619	0.605	0.636	0.638	0.593	0.627	0.711	0.697	0.756	0.958	0.860	0.992	1.104	1.362	1.198	1.243	1.230	1.240	1.059	0.883	0.932	0.783	0.839	0.723	0.784	0.691
370.0	265.0	216.3	160.7	98.40	64.24	47.43	50.72	59.12	82.60	112.6	128.5	127.5	94.90	64.57	46.96	33.57	27.59	24.82	23.67	28.68	62.10	125.0	90.44	26.38	10.15	9.927	15.39	61.31	288.8	756.9	977.9	172.8	10.15	1.654	1.455	1.364	1.334	1.184	1.080	1.014	0.867	0.891	0.932	0.955	0.874	0.920	0.769	0.823	0.771	0.667	0.643	0.622	0.591	0.575	0.588	0.611	0.595	0.615	0.654	0.728	0.815	0.820	0.933	0.961	1.064	0.974	1.050	1.146	1.121	0.958	0.890	0.887	0.755	0.777	0.756	0.732	0.723
375.0	234.8	189.3	148.9	87.88	60.42	45.66	43.80	49.74	62.72	85.18	100.3	98.20	76.06	55.22	41.71	32.44	28.42	25.17	24.26	23.61	29.80	52.40	114.1	91.32	18.14	7.244	7.575	17.93	68.12	177.4	555.9	1066	260.0	7.965	1.536	1.335	1.278	1.087	1.106	0.867	0.929	0.900	0.883	0.919	0.808	0.924	0.812	0.770	0.720	0.596	0.612	0.674	0.589	0.616	0.562	0.618	0.605	0.624	0.554	0.645	0.777	0.765	0.812	0.852	0.917	0.867	1.026	0.971	0.880	0.800	0.774	0.819	0.783	0.675	0.711	0.740	0.707
380.0	208.4	173.7	137.0	90.83	55.44	43.10	40.22	42.33	54.21	68.56	81.30	84.02	66.19	51.27	39.21	30.87	29.02	25.94	24.96	22.74	22.73	26.33	66.08	124.4	48.10	8.511	5.872	8.231	18.84	43.59	141.9	681.3	1025	41.10	3.666	1.524	1.387	1.166	1.044	0.886	1.003	0.820	0.855	0.883	0.864	0.957	0.763	0.728	0.733	0.556	0.563	0.613	0.545	0.572	0.555	0.589	0.567	0.551	0.539	0.612	0.692	0.675	0.725	0.778	0.858	0.849	0.883	0.833	0.811	0.743	0.844	0.759	0.711	0.740	0.724	0.677	0.713
385.0	197.6	168.9	123.8	88.86	54.97	42.45	39.54	39.65	50.11	57.70	71.00	71.09	57.99	46.74	36.88	30.86	28.66	26.64	24.29	22.64	20.01	19.84	31.20	88.68	99.75	25.23	5.263	5.257	7.764	12.86	35.28	184.5	796.3	761.4	34.10	1.946	1.400	1.119	0.951	0.903	0.861	0.792	0.879	0.832	0.880	0.910	0.777	0.756	0.712	0.547	0.532	0.622	0.651	0.593	0.507	0.637	0.558	0.571	0.645	0.724	0.655	0.541	0.725	0.722	0.834	0.769	0.718	0.732	0.802	0.738	0.822	0.710	0.745	0.709	0.738	0.674	0.705
390.0	179.0	151.4	115.5	78.24	54.27	39.23	35.58	34.71	40.22	47.69	57.21	60.98	50.95	41.21	34.35	30.22	28.16	26.45	24.41	22.53	19.37	17.66	18.69	35.71	80.57	71.00	21.66	4.925	4.441	5.586	10.71	44.39	211.3	541.9	612.3	138.9	9.046	1.277	0.985	0.880	0.871	0.858	0.823	0.756	0.775	0.773	0.708	0.745	0.689	0.539	0.499	0.617	0.617	0.568	0.518	0.589	0.561	0.577	0.594	0.650	0.641	0.590	0.738	0.612	0.765	0.769	0.721	0.674	0.787	0.711	0.754	0.734	0.672	0.698	0.807	0.728	0.721
395.0	153.5	140.4	109.7	75.89	52.05	38.69	33.84	30.64	34.81	39.56	48.19	50.82	43.62	35.67	32.60	28.75	26.83	25.53	23.84	21.28	19.44	16.59	14.49	16.45	29.82	69.51	70.37	14.87	3.464	3.828	5.062	12.52	49.72	126.0	318.1	683.3	211.2	7.113	1.141	0.951	0.827	0.833	0.792	0.818	0.718	0.708	0.759	0.713	0.633	0.527	0.520	0.595	0.561	0.640	0.500	0.475	0.558	0.556	0.551	0.578	0.601	0.576	0.673	0.611	0.679	0.617	0.672	0.593	0.693	0.667	0.726	0.733	0.644	0.735	0.675	0.799	0.801
400.0	138.3	130.2	101.4	71.60	51.58	35.95	32.83	30.99	29.79	35.99	42.57	44.55	38.81	32.92	30.66	29.05	26.85	24.84	23.05	21.35	18.25	16.08	13.29	11.87	13.94	34.95	83.79	42.96	6.750	2.985	3.483	5.440	13.33	30.62	80.20	410.2	673.3	35.70	2.970	1.020	0.799	0.794	0.877	0.748	0.724	0.775	0.677	0.701	0.665	0.581	0.505	0.597	0.554	0.623	0.533	0.528	0.593	0.575	0.611	0.582	0.576	0.564	0.730	0.679	0.636	0.592	0.620	0.613	0.672	0.691	0.714	0.610	0.667	0.712	0.731	0.707	0.780
405.0	134.9	119.3	100.2	65.17	48.91	33.30	28.80	29.56	27.29	33.63	37.44	40.03	35.57	30.84	28.96	27.31	25.50	23.59	22.07	21.42	17.81	15.33	12.46	10.20	9.300	14.51	53.27	75.30	22.07	3.458	2.861	3.507	5.514	9.148	20.57	109.8	490.8	510.0	29.70	1.487	1.036	0.812	0.930	0.757	0.691	0.698	0.644	0.683	0.646	0.581	0.506	0.546	0.507	0.574	0.536	0.534	0.572	0.578	0.581	0.607	0.524	0.632	0.626	0.608	0.556	0.646	0.684	0.558	0.695	0.735	0.678	0.679	0.655	0.723	0.708	0.662	0.765
410.0	131.2	111.1	91.91	69.55	46.37	34.28	25.98	26.03	25.42	28.57	32.33	35.75	31.37	29.64	26.68	24.80	23.81	22.79	21.09	20.07	17.14	14.20	11.24	9.318	7.710	8.008	19.43	52.07	56.69	19.67	3.608	2.642	3.334	4.246	6.452	26.62	128.9	348.6	360.1	121.2	8.465	0.951	0.789	0.718	0.701	0.685	0.601	0.666	0.596	0.557	0.517	0.536	0.527	0.580	0.500	0.508	0.538	0.646	0.581	0.589	0.521	0.555	0.578	0.602	0.625	0.600	0.620	0.602	0.647	0.673	0.660	0.620	0.665	0.668	0.604	0.682	0.687
