Sample:	'1
File name:	Default_20240316_161647.FD3
Run date:	'16:10:26, 03/16/2024
Operator:	dsjg
Comment:	'

Instrument
Model:	F-2700 FL Spectrophotometer
Serial number:	2198-001
ROM Version:	4J14000 07

Instrument parameters
Measurement type:	3-D scan
Data mode:	Fluorescence
EX  Start WL:	220.0 nm
EX  End WL:	600.0 nm
EX Sampling interval:	5.0 nm
EM  Start WL:	230.0 nm
EM  End WL:	650.0 nm
EM Sampling interval:	5.0 nm
Scan speed:	12000 nm/min
EX Slit:	5.0 nm
EM Slit:	5.0 nm
PMT Voltage:	700 V
Response:	Auto 
Corrected spectra:	Off
Contour interval:	50.000

Peak integration
Integration method:	Rectangular
Sensitivity:	1
Threshold:	1.000

Peaks
No.	ApexEX/EM(nm)	Height(Data)
1	225.0/495.0	67.71
2	225.0/575.0	13.63
3	225.0/595.0	12.37
4	225.0/605.0	16.32
5	230.0/340.0	 1226
6	230.0/505.0	65.89
7	230.0/555.0	10.49
8	230.0/600.0	8.957
9	235.0/255.0	160.7
10	235.0/515.0	56.40
11	240.0/265.0	186.8
12	240.0/525.0	48.99
13	245.0/270.0	154.8
14	245.0/540.0	42.90
15	250.0/275.0	171.5
16	250.0/550.0	34.85
17	255.0/280.0	196.2
18	255.0/560.0	29.71
19	260.0/285.0	181.0
20	260.0/570.0	23.76
21	265.0/480.0	15.48
22	265.0/585.0	24.57
23	275.0/610.0	38.09
24	280.0/320.0	700.9
25	280.0/615.0	37.47
26	290.0/645.0	26.70
27	315.0/355.0	174.3
28	320.0/360.0	170.4
29	325.0/365.0	141.9
30	335.0/380.0	101.6
31	340.0/385.0	89.24
32	345.0/390.0	68.40
33	350.0/395.0	67.72
34	355.0/405.0	68.24
35	355.0/610.0	1.487
36	360.0/410.0	55.14
37	365.0/415.0	54.23
38	370.0/425.0	52.51
39	375.0/430.0	42.75
40	380.0/435.0	39.73
41	385.0/445.0	38.12
42	390.0/450.0	29.13
43	395.0/455.0	26.88
44	400.0/465.0	24.56
45	405.0/470.0	18.93
46	410.0/475.0	17.13
47	415.0/485.0	15.00
48	420.0/490.0	12.72
49	425.0/495.0	11.59
50	430.0/505.0	10.66
51	435.0/510.0	8.541
52	440.0/515.0	7.650
53	445.0/525.0	6.809
54	450.0/530.0	5.473
55	455.0/535.0	4.964
56	460.0/335.0	2.719
57	460.0/545.0	4.557
58	465.0/340.0	2.774
59	465.0/550.0	3.592
60	470.0/560.0	3.129
61	475.0/565.0	2.559
62	480.0/570.0	1.851
63	485.0/580.0	1.532
64	555.0/305.0	2.837
65	560.0/310.0	3.073
66	565.0/315.0	2.992
67	580.0/320.0	3.304
68	585.0/325.0	3.199

Data points
	220.0	225.0	230.0	235.0	240.0	245.0	250.0	255.0	260.0	265.0	270.0	275.0	280.0	285.0	290.0	295.0	300.0	305.0	310.0	315.0	320.0	325.0	330.0	335.0	340.0	345.0	350.0	355.0	360.0	365.0	370.0	375.0	380.0	385.0	390.0	395.0	400.0	405.0	410.0	415.0	420.0	425.0	430.0	435.0	440.0	445.0	450.0	455.0	460.0	465.0	470.0	475.0	480.0	485.0	490.0	495.0	500.0	505.0	510.0	515.0	520.0	525.0	530.0	535.0	540.0	545.0	550.0	555.0	560.0	565.0	570.0	575.0	580.0	585.0	590.0	595.0	600.0
230.0	26.30	626.1	 1390	391.3	9.848	3.615	2.566	2.076	1.822	1.340	1.367	0.923	1.204	1.096	0.702	0.826	0.563	0.371	0.271	0.379	0.366	0.318	0.295	0.280	0.259	0.127	0.231	0.187	0.199	0.278	0.232	0.206	0.208	0.267	0.274	0.415	0.490	0.444	0.356	0.413	0.369	0.475	0.556	0.340	0.290	0.244	0.331	1.227	2.798	2.612	1.302	0.375	0.221	0.177	0.134	0.154	0.196	0.188	0.159	0.181	0.174	0.182	0.103	0.118	0.129	0.180	0.100	0.129	0.192	0.151	0.077	0.092	0.115	0.077	0.082	0.107	0.067
235.0	59.59	174.2	761.5	 1199	380.6	16.33	2.886	2.429	1.903	1.394	2.277	1.562	0.881	0.599	0.494	0.777	0.465	0.278	0.341	0.324	0.462	0.144	0.308	0.158	0.416	0.232	0.157	0.249	0.235	0.232	0.192	0.142	0.194	0.262	0.197	0.210	0.373	0.423	0.290	0.334	0.335	0.306	0.281	0.455	0.369	0.414	0.334	0.461	0.912	1.602	2.286	2.870	1.752	0.588	0.156	0.228	0.293	0.213	0.251	0.185	0.086	0.083	0.101	0.159	0.130	0.196	0.087	0.147	0.096	0.086	0.098	0.009	0.171	0.206	0.104	0.065	0.007
240.0	95.43	88.65	227.3	924.5	 1078	273.3	7.677	1.993	1.944	1.526	2.228	1.825	1.575	1.545	1.033	0.574	0.225	0.367	0.381	0.404	0.507	0.369	0.413	0.111	0.264	0.281	0.203	0.109	0.321	0.232	0.140	0.134	0.208	0.207	0.096	0.245	0.228	0.383	0.432	0.313	0.244	0.364	0.269	0.579	0.346	0.640	0.433	0.309	0.424	0.590	0.957	2.150	3.227	2.834	1.261	0.441	0.180	0.225	0.198	0.151	0.231	0.104	0.145	0.163	0.107	0.143	0.150	0.165	0.122	0.152	0.150	0.071	0.093	0.233	0.127	0.165	0.120
245.0	77.03	115.9	79.46	310.1	 1067	896.1	159.2	4.383	2.046	2.043	1.732	1.135	0.814	0.480	1.011	0.500	0.072	0.361	0.297	0.227	0.533	0.447	0.152	0.130	0.155	0.369	0.158	0.159	0.282	0.061	0.155	0.162	0.246	0.192	0.204	0.235	0.220	0.395	0.379	0.369	0.365	0.383	0.355	0.491	0.346	0.518	0.551	0.539	0.289	0.342	0.394	0.815	1.854	3.221	3.570	2.378	0.667	0.203	0.066	0.070	0.231	0.179	0.132	0.118	0.164	0.117	0.188	0.141	0.253	0.078	0.100	0.056	0.150	0.187	0.087	0.069	0.129
250.0	32.41	97.35	127.0	110.9	344.1	857.5	913.9	299.7	20.37	2.193	2.407	1.833	1.228	0.750	0.643	0.804	0.337	0.344	0.276	0.323	0.372	0.420	0.200	0.391	0.340	0.321	0.209	0.154	0.303	0.235	0.258	0.209	0.172	0.164	0.143	0.245	0.089	0.232	0.241	0.407	0.480	0.424	0.458	0.352	0.356	0.420	0.376	0.457	0.489	0.482	0.391	0.393	0.633	1.040	1.837	2.659	3.333	3.193	1.958	1.009	0.201	0.146	0.164	0.169	0.105	0.126	0.110	0.153	0.206	0.067	0.148	0.045	0.142	0.049	0.011	0.135	0.038
255.0	13.74	29.48	100.2	160.7	117.7	221.4	664.8	 1217	399.7	21.07	2.359	2.284	1.145	0.871	0.892	0.987	0.711	0.603	0.300	0.447	0.416	0.441	0.357	0.327	0.280	0.349	0.211	0.177	0.190	0.265	0.268	0.133	0.231	0.155	0.163	0.368	0.124	0.151	0.264	0.197	0.409	0.375	0.480	0.376	0.339	0.456	0.328	0.393	0.366	0.423	0.580	0.574	0.434	0.397	0.638	0.774	1.327	2.508	4.596	6.288	2.331	0.607	0.102	0.229	0.119	0.203	0.107	0.075	0.155	0.093	0.141	0.126	0.138	0.078	0.021	0.167	0.049
260.0	17.02	15.57	37.18	148.7	149.3	71.54	200.6	913.2	 1269	300.7	7.616	2.225	1.312	1.419	0.940	1.118	0.871	0.483	0.445	0.626	0.325	0.303	0.326	0.266	0.230	0.089	0.218	0.143	-0.004	0.159	0.414	0.269	0.210	0.210	0.205	0.308	0.110	0.199	0.189	0.089	0.163	0.397	0.440	0.396	0.437	0.323	0.227	0.371	0.334	0.325	0.420	0.575	0.821	0.662	0.384	0.408	0.443	0.783	1.909	4.907	4.986	3.972	1.754	0.426	0.103	0.164	0.106	0.081	0.213	0.138	0.156	0.124	0.101	0.132	0.075	0.207	0.059
265.0	13.26	12.25	13.14	73.50	186.8	99.37	58.51	300.1	 1157	 1150	212.4	3.681	1.612	1.798	1.364	1.041	0.662	0.525	0.426	0.421	0.270	0.270	0.390	0.426	0.309	0.186	0.164	0.148	0.227	0.225	0.290	0.199	0.175	0.258	0.142	0.172	0.149	0.125	0.142	0.121	0.176	0.237	0.482	0.317	0.399	0.378	0.289	0.382	0.285	0.319	0.327	0.349	0.704	0.755	0.672	0.354	0.356	0.294	0.582	1.473	2.734	4.328	5.475	3.269	0.935	0.231	0.175	0.122	0.137	0.168	0.127	0.050	0.076	0.091	0.182	0.184	0.134
270.0	18.15	10.32	11.17	23.16	86.48	154.8	112.4	87.54	351.8	895.5	 1121	480.3	37.27	2.151	1.488	1.133	0.913	0.481	0.470	0.449	0.397	0.262	0.443	0.262	0.239	0.220	0.067	0.236	0.345	0.280	0.168	0.151	0.173	0.207	0.230	0.189	0.152	0.181	0.103	0.086	0.145	0.138	0.306	0.306	0.450	0.427	0.364	0.305	0.300	0.335	0.298	0.296	0.371	0.444	0.569	0.800	0.625	0.467	0.358	0.575	0.714	1.338	2.554	3.681	4.269	5.436	2.156	0.706	0.235	0.149	0.077	0.075	0.119	0.097	0.139	0.121	0.113
275.0	22.55	17.56	9.688	10.40	21.65	67.59	171.5	136.0	98.06	223.3	633.7	 1276	291.5	32.95	1.704	1.174	0.945	0.763	0.638	0.495	0.376	0.094	0.209	0.298	0.144	0.467	0.085	0.277	0.349	0.285	0.237	0.170	0.251	0.186	0.235	0.274	0.219	0.142	0.149	0.149	0.170	0.196	0.167	0.186	0.408	0.501	0.422	0.397	0.274	0.321	0.298	0.214	0.358	0.365	0.385	0.417	0.539	0.937	0.796	0.528	0.397	0.460	0.663	1.024	1.267	3.923	4.621	4.690	2.690	1.087	0.092	0.039	0.097	0.123	0.281	0.099	0.114
280.0	21.69	26.37	17.66	11.69	8.184	21.75	103.4	196.2	101.2	63.00	179.6	791.1	 1193	233.1	11.95	1.441	1.138	0.875	0.687	0.774	0.636	0.338	0.303	0.437	0.299	0.336	0.160	0.160	0.331	0.414	0.360	0.226	0.174	0.213	0.275	0.182	0.335	0.204	0.193	0.204	0.217	0.166	0.219	0.227	0.255	0.467	0.434	0.373	0.351	0.369	0.317	0.311	0.277	0.345	0.246	0.399	0.316	0.667	0.848	1.089	0.744	0.306	0.285	0.381	0.455	1.204	1.742	3.522	4.961	4.302	1.996	0.202	0.174	0.098	0.166	0.056	0.116
285.0	29.50	36.38	22.84	10.42	9.849	9.658	41.12	151.7	181.0	58.76	52.13	248.2	895.0	 1051	172.4	4.036	1.654	0.821	0.708	0.955	0.603	0.319	0.411	0.345	0.318	0.335	0.232	0.332	0.348	0.179	0.243	0.347	0.281	0.230	0.246	0.287	0.330	0.301	0.200	0.183	0.174	0.159	0.125	0.246	0.141	0.319	0.496	0.521	0.437	0.338	0.285	0.331	0.327	0.288	0.204	0.301	0.299	0.304	0.501	0.862	1.186	0.757	0.445	0.299	0.204	0.392	0.508	1.096	2.393	4.149	4.914	3.234	0.997	0.145	0.130	0.042	0.074
290.0	35.90	45.14	29.51	17.53	13.37	13.49	23.00	64.29	152.0	182.2	87.75	81.49	270.4	668.8	851.5	440.5	33.41	1.802	0.964	0.800	0.552	0.442	0.276	0.446	0.415	0.349	0.212	0.301	0.230	0.208	0.258	0.263	0.282	0.271	0.319	0.366	0.298	0.347	0.230	0.295	0.115	0.172	0.229	0.285	0.204	0.216	0.353	0.522	0.450	0.413	0.348	0.334	0.211	0.288	0.285	0.241	0.226	0.327	0.387	0.452	0.759	0.781	0.895	0.880	0.433	0.309	0.339	0.451	0.668	1.297	2.260	3.117	3.885	3.487	2.396	0.923	0.205
295.0	46.36	54.63	46.93	32.89	28.95	34.91	44.79	66.01	97.54	199.3	251.5	125.3	113.3	197.4	454.0	973.6	636.4	28.93	2.351	0.671	0.745	0.563	0.411	0.343	0.335	0.475	0.294	0.221	0.299	0.191	0.204	0.264	0.295	0.288	0.375	0.533	0.415	0.287	0.246	0.313	0.275	0.251	0.202	0.164	0.218	0.264	0.259	0.355	0.516	0.438	0.364	0.386	0.316	0.350	0.324	0.428	0.331	0.576	0.331	0.454	0.464	0.529	0.674	1.114	1.315	0.943	0.542	0.442	0.431	0.587	0.751	0.905	1.471	2.328	4.392	5.408	3.264
300.0	87.70	87.21	78.96	71.65	70.96	76.61	99.18	125.4	161.6	241.7	372.6	320.1	198.9	171.9	224.2	651.5	 1117	139.1	15.38	1.560	1.038	0.621	0.772	0.466	0.467	0.366	0.318	0.237	0.361	0.284	0.219	0.167	0.299	0.312	0.388	0.532	0.417	0.465	0.383	0.305	0.367	0.306	0.282	0.252	0.324	0.316	0.405	0.325	0.440	0.488	0.499	0.448	0.460	0.476	0.439	0.531	0.539	0.559	0.646	0.641	0.689	0.725	0.907	1.036	1.370	2.027	1.579	1.222	0.833	0.740	0.823	0.670	0.924	1.214	2.090	4.077	5.946
305.0	133.5	150.2	149.7	114.4	128.3	155.8	186.1	229.0	305.4	380.2	508.1	619.2	486.6	276.7	298.2	376.1	857.0	 1043	111.6	4.804	1.186	0.966	0.744	0.569	0.520	0.371	0.416	0.338	0.207	0.439	0.305	0.180	0.368	0.473	0.565	0.617	0.593	0.503	0.535	0.535	0.474	0.469	0.359	0.332	0.391	0.405	0.536	0.405	0.479	0.537	0.665	0.657	0.671	0.584	0.623	0.731	0.767	0.904	1.021	1.065	1.039	1.375	1.642	1.471	1.788	2.079	2.520	2.837	2.103	1.777	1.445	1.080	1.365	1.322	1.352	1.936	3.510
310.0	207.7	239.7	224.8	183.6	177.2	208.3	268.1	318.1	400.9	469.2	560.6	657.0	691.0	511.9	390.9	331.5	447.4	728.5	761.5	377.7	20.71	1.474	0.754	0.646	0.597	0.484	0.380	0.421	0.340	0.324	0.310	0.338	0.318	0.366	0.530	0.624	0.707	0.570	0.614	0.612	0.522	0.494	0.512	0.447	0.546	0.548	0.676	0.655	0.664	0.680	0.669	0.702	0.845	0.721	0.819	0.930	1.000	1.232	1.261	1.498	1.505	1.598	1.982	1.934	1.947	2.117	2.490	2.824	3.073	2.889	2.226	1.815	1.847	1.683	1.596	1.470	1.907
315.0	270.1	333.6	326.0	258.2	234.5	257.0	322.4	367.8	443.2	513.6	610.9	663.3	696.3	689.4	536.5	364.6	346.8	363.8	372.4	801.2	501.2	13.90	1.103	0.756	0.612	0.690	0.295	0.315	0.400	0.399	0.320	0.297	0.558	0.449	0.447	0.634	0.692	0.682	0.681	0.713	0.578	0.620	0.709	0.587	0.685	0.529	0.903	0.887	0.827	0.831	0.673	0.794	0.844	1.005	1.025	1.185	1.184	1.390	1.477	1.525	1.665	1.757	1.940	1.964	2.092	2.236	2.664	2.694	2.920	2.992	2.909	2.726	2.191	1.966	1.734	1.643	1.663
320.0	403.6	513.0	456.2	325.2	264.0	283.2	346.1	396.2	464.7	541.4	629.1	687.2	700.9	686.7	660.6	410.9	339.0	282.0	149.5	439.4	876.9	94.82	5.592	1.165	0.878	0.686	0.290	0.461	0.447	0.362	0.411	0.400	0.418	0.481	0.583	0.673	0.884	0.853	0.743	0.698	0.723	0.673	0.605	0.767	0.713	0.817	1.002	1.206	1.222	1.062	0.917	0.895	0.999	1.027	1.180	1.213	1.120	1.490	1.460	1.777	1.615	1.896	2.052	2.162	2.299	2.353	2.650	2.698	3.021	2.960	2.872	3.296	3.304	2.847	2.047	1.846	1.748
325.0	471.6	695.5	613.2	399.1	302.5	287.2	340.0	398.1	446.5	521.8	609.8	673.9	678.4	627.6	656.8	494.1	333.8	254.8	96.73	151.6	518.4	755.2	74.56	2.376	1.203	0.774	0.503	0.375	0.511	0.321	0.296	0.414	0.419	0.437	0.504	0.536	0.865	0.920	0.753	0.603	0.711	0.884	0.635	0.776	0.980	1.134	1.419	1.583	1.758	1.445	0.994	1.073	1.181	0.985	1.132	1.198	1.132	1.318	1.514	1.800	1.634	1.826	1.859	2.029	2.155	2.271	2.573	2.513	2.921	2.546	2.584	2.859	2.818	3.199	2.206	1.947	1.623
330.0	570.0	877.7	858.0	623.3	432.6	333.1	339.0	378.6	423.5	489.4	568.1	637.1	633.9	582.9	567.5	509.7	407.7	253.1	100.4	76.65	169.4	440.7	623.5	303.4	17.61	1.159	0.644	0.299	0.581	0.360	0.335	0.294	0.433	0.472	0.458	0.591	0.662	0.761	0.665	0.667	0.750	0.791	0.768	0.893	1.200	1.339	1.622	1.909	2.077	1.958	1.464	1.460	1.539	1.384	1.248	1.181	1.435	1.385	1.507	1.732	1.637	1.704	1.851	2.009	2.146	2.208	2.462	2.498	2.733	2.592	2.416	2.707	2.413	2.639	2.400	2.435	2.083
335.0	693.6	 1099	 1111	900.9	655.2	425.2	360.3	366.5	403.8	463.7	546.7	620.3	614.7	577.3	542.3	450.9	453.7	337.2	133.1	85.69	91.39	145.0	289.8	768.9	439.5	11.63	1.063	0.672	0.646	0.387	0.356	0.270	0.576	0.522	0.478	0.577	0.577	0.808	0.720	0.702	0.795	0.764	0.769	1.130	1.280	1.565	1.987	2.443	2.719	2.391	2.078	2.139	2.057	1.856	1.660	1.248	1.566	1.374	1.456	1.431	1.666	1.622	1.787	1.997	2.071	2.340	2.393	2.342	2.676	2.745	2.399	2.504	2.432	2.376	2.109	2.217	2.519
340.0	736.1	 1126	 1226	 1009	744.4	459.1	340.2	346.4	369.9	431.9	510.2	575.5	586.1	546.8	504.5	412.3	389.7	381.7	174.6	93.94	78.16	79.89	111.3	393.0	920.3	75.78	3.386	0.873	0.469	0.559	0.425	0.421	0.470	0.437	0.403	0.591	0.687	0.734	0.688	0.741	0.740	0.711	0.793	1.113	1.155	1.795	2.148	2.741	2.508	2.774	2.384	2.474	2.276	2.159	1.592	1.428	1.166	1.404	1.492	1.331	1.756	1.537	1.825	1.690	2.000	2.076	2.088	2.295	2.436	2.404	2.340	2.283	2.410	2.263	1.965	1.919	2.119
345.0	692.4	 1058	 1172	 1020	734.4	441.2	322.0	311.1	327.7	388.2	449.0	504.2	523.6	503.9	466.0	373.3	323.1	329.5	238.3	105.5	73.85	65.96	63.33	132.1	551.7	611.6	59.87	1.614	0.762	0.668	0.647	0.551	0.356	0.357	0.473	0.771	0.652	0.782	0.695	0.835	0.612	0.730	0.864	1.076	1.196	1.503	2.037	2.688	2.449	2.590	2.267	2.456	2.280	2.205	1.685	1.323	1.131	1.263	1.475	1.359	1.370	1.563	1.539	1.569	1.759	1.968	1.815	2.038	2.221	2.159	2.112	2.154	2.184	2.042	1.870	1.783	1.915
350.0	613.8	978.8	 1104	 1002	746.3	424.4	280.9	265.1	279.6	318.3	377.1	427.5	450.3	437.1	405.1	334.0	274.9	240.9	222.6	163.8	86.95	61.95	55.18	58.29	154.0	386.4	546.5	246.3	13.40	0.827	0.637	0.543	0.387	0.438	0.582	0.658	0.597	0.771	0.625	0.660	0.631	0.705	0.794	0.914	1.099	1.432	1.766	2.328	2.364	2.475	2.217	2.322	2.453	2.044	1.708	1.174	1.047	1.008	1.154	1.338	1.235	1.249	1.390	1.394	1.456	1.661	1.582	1.722	1.728	1.947	1.873	1.880	1.934	1.860	1.557	1.552	1.584
355.0	538.8	851.9	 1023	941.6	720.8	391.2	248.1	221.3	232.6	265.2	312.5	344.5	372.1	376.5	344.8	285.8	234.3	193.6	151.0	174.3	148.6	66.74	50.69	42.49	47.20	94.53	229.8	665.9	365.1	9.621	0.609	0.717	0.357	0.505	0.563	0.552	0.690	0.522	0.503	0.638	0.655	0.520	0.673	0.824	0.871	1.302	1.411	2.035	2.192	2.243	2.002	2.288	2.115	2.051	1.432	1.060	0.995	0.935	0.819	1.084	1.131	1.064	1.203	1.280	1.096	1.308	1.344	1.492	1.424	1.670	1.655	1.788	1.536	1.698	1.338	1.396	1.377
360.0	459.5	732.6	895.9	828.0	639.2	355.9	215.4	188.1	201.9	226.0	256.5	293.0	310.6	316.9	294.1	245.8	204.2	162.6	118.8	121.0	170.4	96.22	48.62	35.06	22.98	27.53	60.70	327.2	810.4	68.88	3.043	0.775	0.592	0.483	0.425	0.529	0.596	0.651	0.501	0.556	0.577	0.539	0.632	0.760	0.684	1.213	1.393	1.516	1.771	1.984	1.767	2.122	1.980	1.865	1.304	0.814	0.947	0.669	0.761	0.860	0.996	0.988	1.196	1.121	1.021	1.165	1.106	1.370	1.319	1.567	1.501	1.237	1.372	1.255	1.306	1.111	1.245
365.0	401.9	632.7	749.1	721.1	561.2	315.7	187.6	154.5	168.1	191.4	225.4	245.5	260.8	265.5	250.0	210.4	176.0	138.7	99.94	87.44	123.9	141.9	58.29	30.98	16.65	12.58	17.84	89.50	494.5	555.0	54.24	1.328	0.773	0.576	0.518	0.495	0.533	0.545	0.389	0.469	0.542	0.401	0.594	0.623	0.709	0.869	1.179	1.262	1.561	1.714	1.443	1.853	1.727	1.615	1.209	0.814	0.841	0.692	0.701	0.682	0.779	0.873	0.950	0.912	0.966	0.999	1.135	1.097	1.220	1.352	1.245	1.098	1.265	1.057	1.134	0.979	0.978
370.0	299.6	500.6	597.0	607.5	481.4	273.9	156.8	131.7	135.8	151.8	175.4	198.9	211.5	217.8	205.5	174.0	145.6	116.7	86.49	69.93	73.24	110.5	106.7	45.84	15.11	9.183	8.634	23.44	128.7	361.3	511.4	217.7	11.88	0.696	0.678	0.473	0.500	0.556	0.420	0.385	0.384	0.407	0.448	0.542	0.507	0.815	0.865	1.143	1.248	1.417	1.238	1.507	1.510	1.365	1.143	0.783	0.708	0.642	0.579	0.573	0.625	0.727	0.737	0.844	0.868	0.834	0.913	0.950	1.023	1.033	1.033	1.022	1.059	1.023	0.967	0.878	0.817
375.0	223.9	386.0	491.1	477.8	385.5	230.3	127.3	109.7	110.6	117.9	142.4	153.9	162.7	169.8	162.6	138.4	116.4	93.79	72.97	57.37	50.87	57.77	93.20	91.30	25.10	8.948	6.717	9.176	32.03	85.82	220.8	605.6	298.0	10.92	0.910	0.661	0.542	0.678	0.472	0.337	0.493	0.382	0.485	0.538	0.502	0.642	0.727	0.887	1.042	1.049	1.072	1.211	1.384	1.066	0.932	0.623	0.615	0.501	0.463	0.534	0.593	0.556	0.462	0.566	0.728	0.729	0.749	0.662	0.872	0.737	0.831	0.891	0.808	0.747	0.799	0.747	0.664
380.0	180.4	317.0	392.8	387.1	324.6	190.5	110.4	86.29	89.80	99.00	117.3	125.1	136.0	138.3	133.1	115.2	98.01	81.04	63.59	49.89	42.12	39.50	54.08	101.6	59.04	11.73	6.155	5.866	10.68	22.38	56.79	299.5	634.2	58.30	3.476	0.689	0.500	0.604	0.333	0.293	0.446	0.472	0.366	0.430	0.477	0.474	0.661	0.789	0.922	0.894	0.891	1.045	1.090	0.864	0.771	0.576	0.409	0.438	0.441	0.479	0.478	0.542	0.526	0.554	0.511	0.564	0.677	0.777	0.669	0.615	0.629	0.728	0.685	0.708	0.726	0.539	0.560
385.0	169.8	248.2	336.2	328.4	277.1	162.1	92.73	72.85	78.48	82.69	93.76	110.1	112.0	119.9	109.1	97.28	83.74	71.79	55.10	43.00	36.51	33.32	34.13	64.78	89.24	28.82	6.297	5.123	5.723	7.814	15.49	80.09	393.7	636.8	45.91	1.244	0.494	0.616	0.557	0.377	0.417	0.448	0.295	0.330	0.426	0.476	0.469	0.775	0.693	0.640	0.791	0.973	0.979	0.820	0.617	0.489	0.479	0.403	0.515	0.429	0.410	0.407	0.375	0.455	0.460	0.601	0.646	0.710	0.700	0.715	0.558	0.531	0.635	0.703	0.608	0.589	0.483
390.0	134.4	203.6	263.6	259.6	223.0	132.5	83.12	59.91	65.15	67.85	74.69	86.92	90.09	95.58	89.89	79.21	68.82	58.90	48.28	37.90	32.57	28.31	26.14	31.56	59.47	68.40	25.39	5.899	4.586	5.024	6.549	20.44	102.1	365.1	397.7	175.1	10.98	0.767	0.474	0.484	0.377	0.436	0.284	0.271	0.383	0.463	0.447	0.594	0.560	0.585	0.611	0.799	0.787	0.720	0.612	0.435	0.403	0.375	0.372	0.367	0.388	0.329	0.353	0.392	0.361	0.469	0.533	0.471	0.674	0.648	0.630	0.637	0.618	0.560	0.450	0.575	0.392
395.0	109.5	155.8	198.4	207.5	170.0	112.1	68.44	50.63	51.34	55.57	60.31	69.91	74.62	74.28	73.02	65.19	56.81	49.62	39.48	33.53	27.73	24.85	23.31	20.29	25.36	51.65	67.72	20.82	5.068	4.249	4.504	7.249	25.27	85.04	165.9	462.4	240.7	15.06	0.594	0.386	0.355	0.324	0.352	0.294	0.311	0.371	0.502	0.457	0.484	0.424	0.500	0.638	0.538	0.569	0.532	0.379	0.287	0.328	0.355	0.323	0.422	0.205	0.206	0.256	0.426	0.310	0.433	0.453	0.547	0.524	0.511	0.528	0.526	0.474	0.503	0.475	0.323
400.0	85.59	125.9	159.1	171.7	149.9	97.82	56.01	46.43	44.64	47.13	50.67	56.58	63.05	62.34	60.75	55.76	49.38	41.81	35.00	30.94	25.08	22.75	20.38	16.72	15.73	25.49	66.01	51.02	9.780	4.648	3.898	4.436	8.084	21.40	41.86	223.1	480.8	239.1	4.178	0.524	0.362	0.281	0.247	0.215	0.230	0.381	0.421	0.441	0.432	0.500	0.549	0.639	0.528	0.528	0.451	0.268	0.324	0.322	0.223	0.282	0.371	0.291	0.223	0.239	0.334	0.282	0.234	0.396	0.514	0.535	0.353	0.527	0.592	0.415	0.485	0.397	0.441
405.0	75.57	102.6	139.5	151.0	129.9	81.99	53.54	44.29	40.29	39.79	46.99	50.07	54.43	53.09	53.76	48.85	42.83	37.11	32.94	27.51	24.73	20.87	19.01	15.81	13.02	14.30	36.55	68.24	28.01	6.053	4.243	3.701	4.223	6.860	11.88	58.50	283.0	656.5	42.22	1.419	0.411	0.362	0.352	0.191	0.217	0.413	0.330	0.370	0.385	0.480	0.471	0.504	0.512	0.377	0.377	0.333	0.269	0.318	0.305	0.234	0.256	0.201	0.153	0.162	0.213	0.283	0.260	0.307	0.476	0.422	0.389	0.377	0.484	0.382	0.367	0.379	0.482
