Sample:	'1
File name:	C2025060310圣泉新材料萃取前（固） 125000000倍.FD3
Run date:	'13:45:11, 06/04/2025
Operator:	Administrator
Comment:	'

Instrument
Model:	F-2700 FL Spectrophotometer
Serial number:	23B8-004
ROM Version:	4J14000 07

Instrument parameters
Measurement type:	3-D scan
Data mode:	Fluorescence
EX  Start WL:	220.0 nm
EX  End WL:	600.0 nm
EX Sampling interval:	5.0 nm
EM  Start WL:	230.0 nm
EM  End WL:	650.0 nm
EM Sampling interval:	5.0 nm
Scan speed:	12000 nm/min
EX Slit:	5.0 nm
EM Slit:	5.0 nm
PMT Voltage:	700 V
Response:	Auto 
Corrected spectra:	Off
Contour interval:	50.000

Peak integration
Integration method:	Rectangular
Sensitivity:	1
Threshold:	1.000

Peaks
No.	ApexEX/EM(nm)	Height(Data)
1	230.0/505.0	162.1
2	235.0/515.0	139.8
3	240.0/265.0	506.9
4	240.0/525.0	122.9
5	245.0/270.0	558.8
6	245.0/540.0	129.6
7	250.0/275.0	740.1
8	250.0/550.0	116.3
9	265.0/585.0	442.4
10	270.0/300.0	5582
11	290.0/325.0	482.6
12	295.0/330.0	331.4
13	300.0/335.0	304.4
14	305.0/345.0	258.0
15	310.0/350.0	186.3
16	315.0/355.0	181.3
17	320.0/360.0	164.3
18	330.0/375.0	114.1
19	335.0/380.0	129.0
20	340.0/385.0	103.0
21	350.0/400.0	88.68
22	355.0/405.0	79.81
23	360.0/410.0	61.87
24	365.0/420.0	63.09
25	370.0/425.0	58.78
26	375.0/430.0	44.73
27	380.0/440.0	42.97
28	385.0/445.0	39.28
29	385.0/590.0	2.081
30	390.0/300.0	18.07
31	390.0/450.0	29.96
32	390.0/585.0	2.084
33	395.0/460.0	27.60
34	400.0/465.0	23.73
35	405.0/470.0	18.15
36	410.0/480.0	17.34
37	415.0/485.0	14.91
38	420.0/490.0	11.88
39	425.0/500.0	11.58
40	430.0/300.0	10.66
41	430.0/505.0	10.17
42	435.0/510.0	8.032
43	440.0/520.0	8.025
44	445.0/525.0	6.672
45	450.0/535.0	5.499
46	455.0/540.0	4.858
47	465.0/555.0	3.233
48	470.0/560.0	2.784
49	480.0/575.0	1.877
50	495.0/270.0	2.657
51	535.0/270.0	52.48
52	540.0/300.0	24.03
53	585.0/325.0	3.513

Data points
	220.0	225.0	230.0	235.0	240.0	245.0	250.0	255.0	260.0	265.0	270.0	275.0	280.0	285.0	290.0	295.0	300.0	305.0	310.0	315.0	320.0	325.0	330.0	335.0	340.0	345.0	350.0	355.0	360.0	365.0	370.0	375.0	380.0	385.0	390.0	395.0	400.0	405.0	410.0	415.0	420.0	425.0	430.0	435.0	440.0	445.0	450.0	455.0	460.0	465.0	470.0	475.0	480.0	485.0	490.0	495.0	500.0	505.0	510.0	515.0	520.0	525.0	530.0	535.0	540.0	545.0	550.0	555.0	560.0	565.0	570.0	575.0	580.0	585.0	590.0	595.0	600.0
230.0	161.2	3006	6446	1618	53.27	11.02	9.337	6.871	5.459	5.521	5.343	6.109	3.569	3.558	2.553	2.524	1.980	1.772	1.622	1.469	1.298	1.178	1.208	1.109	0.920	0.923	0.868	0.824	0.745	0.702	0.754	0.721	0.700	0.679	0.651	0.608	0.620	0.600	0.529	0.551	0.739	1.100	1.002	0.640	0.434	0.496	2.383	9.237	14.57	9.124	3.602	0.736	0.377	0.364	0.335	0.349	0.364	0.351	0.284	0.356	0.340	0.317	0.290	0.322	0.329	0.342	0.327	0.319	0.302	0.344	0.308	0.301	0.322	0.312	0.330	0.309	0.313
235.0	267.1	856.1	4061	5640	673.4	72.46	11.74	8.379	6.302	5.487	6.155	6.870	3.450	4.215	2.603	2.655	1.960	1.978	1.567	1.367	1.284	1.166	1.138	0.989	1.087	0.844	0.868	0.781	0.795	0.744	0.767	0.722	0.772	0.711	0.655	0.694	0.619	0.543	0.518	0.448	0.562	0.711	0.881	1.158	0.841	0.640	0.842	2.599	5.865	9.129	13.73	13.29	5.403	1.336	0.406	0.377	0.347	0.300	0.303	0.332	0.384	0.343	0.289	0.324	0.421	0.329	0.274	0.317	0.328	0.319	0.278	0.385	0.337	0.336	0.330	0.316	0.304
240.0	393.5	353.3	1234	5170	4999	525.0	35.31	9.701	8.329	7.102	5.817	7.397	4.304	3.882	2.857	2.931	2.165	2.139	1.907	1.460	1.305	1.118	1.104	1.015	1.055	0.881	0.853	0.918	0.772	0.755	0.744	0.802	0.737	0.723	0.782	0.731	0.608	0.593	0.561	0.522	0.550	0.584	0.588	0.884	1.048	1.092	0.776	0.994	1.636	2.801	7.907	18.54	19.99	14.65	4.316	0.786	0.441	0.384	0.339	0.369	0.359	0.361	0.314	0.377	0.385	0.359	0.301	0.345	0.286	0.334	0.277	0.280	0.312	0.380	0.312	0.295	0.321
245.0	276.3	382.4	366.4	1862	6260	4272	379.0	16.29	9.349	8.473	6.902	7.818	4.881	4.406	3.578	3.023	2.473	2.290	1.867	1.452	1.316	1.024	1.253	1.210	0.997	1.053	0.937	0.970	0.710	0.846	0.700	0.764	0.688	0.637	0.687	0.594	0.587	0.627	0.569	0.540	0.556	0.524	0.546	0.569	0.769	1.061	1.280	0.987	0.732	0.912	2.129	6.586	15.15	30.90	22.00	11.26	3.201	0.494	0.371	0.375	0.400	0.385	0.369	0.403	0.337	0.357	0.296	0.329	0.286	0.331	0.299	0.307	0.388	0.354	0.336	0.301	0.357
250.0	122.9	272.6	372.7	532.7	2158	6124	6673	1416	73.40	12.06	8.933	11.14	5.579	4.867	3.632	3.165	2.663	2.344	2.033	1.602	1.406	1.367	1.351	1.189	1.001	1.051	0.893	0.986	0.854	0.851	0.814	0.686	0.700	0.680	0.674	0.569	0.594	0.658	0.603	0.526	0.593	0.538	0.562	0.565	0.545	0.641	0.881	1.102	1.299	1.046	1.022	1.802	3.976	10.42	14.74	22.37	30.02	19.31	11.66	3.228	0.589	0.416	0.368	0.378	0.318	0.356	0.342	0.359	0.330	0.303	0.345	0.334	0.322	0.350	0.358	0.310	0.385
255.0	71.55	96.38	277.1	448.2	583.8	1653	7164	9424	1782	57.34	11.99	14.66	6.815	6.225	3.764	3.644	2.639	2.663	2.396	1.687	1.533	1.406	1.296	1.224	1.182	1.010	1.135	0.983	0.831	0.840	0.869	0.733	0.767	0.785	0.719	0.597	0.655	0.677	0.585	0.564	0.581	0.558	0.580	0.506	0.525	0.539	0.504	0.643	0.857	1.144	1.720	1.729	1.446	2.705	3.740	5.748	12.71	25.11	48.84	30.23	17.13	2.948	0.429	0.468	0.373	0.425	0.387	0.395	0.400	0.318	0.302	0.380	0.358	0.287	0.315	0.353	0.345
260.0	66.23	54.79	123.1	403.0	419.0	458.5	2377	9307	8738	289.3	30.89	21.51	9.831	7.367	4.721	4.400	3.117	2.984	2.542	1.909	1.705	1.465	1.467	1.182	1.132	1.215	1.053	0.935	0.904	0.749	0.875	0.888	0.761	0.727	0.807	0.626	0.629	0.824	0.597	0.570	0.624	0.453	0.592	0.499	0.509	0.532	0.505	0.463	0.504	0.620	1.338	2.046	1.925	1.511	1.348	1.789	3.395	7.256	23.98	45.63	57.42	27.25	12.50	1.565	0.485	0.498	0.378	0.442	0.363	0.340	0.355	0.376	0.408	0.395	0.265	0.335	0.394
265.0	64.42	49.85	59.97	222.1	506.9	340.2	624.4	3555	9999.9	7912	225.5	32.54	11.82	8.878	5.853	5.090	3.627	3.177	2.503	2.084	2.026	1.616	1.586	1.343	1.205	1.248	1.126	1.084	0.981	0.938	0.963	0.803	0.891	0.720	0.821	0.736	0.686	0.739	0.665	0.530	0.578	0.576	0.614	0.560	0.606	0.489	0.479	0.511	0.431	0.423	0.623	1.273	2.198	2.450	1.646	1.132	1.427	2.120	6.088	15.23	35.33	56.26	65.03	24.20	7.068	0.724	0.455	0.414	0.384	0.431	0.353	0.408	0.324	0.385	0.257	0.388	0.426
270.0	98.03	65.25	50.06	99.42	305.7	558.8	424.9	916.6	3665	9999.9	9999.9	4241	56.02	15.94	8.601	6.990	4.741	3.928	2.922	2.330	2.144	1.790	1.868	1.514	1.372	1.261	1.208	1.124	1.005	1.017	0.996	1.010	1.006	0.929	0.938	0.820	0.774	0.801	0.773	0.650	0.634	0.561	0.644	0.665	0.600	0.598	0.523	0.529	0.451	0.445	0.493	0.727	1.157	1.756	2.324	2.657	2.256	1.514	1.978	4.071	8.858	17.46	35.50	52.48	51.45	43.65	15.36	5.692	0.727	0.463	0.481	0.397	0.362	0.397	0.316	0.383	0.426
275.0	348.3	207.4	97.61	87.17	176.9	409.0	740.1	530.4	1040	2929	9999.9	9999.9	1268	66.28	14.65	9.818	6.571	5.191	3.840	2.896	2.659	2.160	2.154	1.810	1.542	1.398	1.386	1.223	1.076	1.152	1.232	1.219	1.590	2.026	1.828	1.665	1.251	1.276	1.085	1.078	1.177	1.056	0.950	1.180	0.989	1.069	0.822	0.738	0.598	0.498	0.514	0.678	0.748	1.115	1.360	2.035	3.129	3.911	2.688	2.201	3.040	5.265	9.223	13.60	20.07	39.23	71.95	74.03	23.93	5.227	0.700	0.527	0.451	0.430	0.397	0.409	0.435
280.0	1105	595.2	219.3	114.7	169.2	338.4	739.3	1062	1006	1636	4123	9999.9	9999.9	942.4	30.15	14.50	9.374	6.137	4.678	3.661	3.219	2.373	2.433	2.112	1.604	1.733	1.474	1.451	1.160	1.301	1.398	2.044	3.286	4.514	4.878	3.787	2.798	2.735	2.293	2.559	2.476	2.428	2.655	2.794	2.490	2.353	1.739	1.258	0.920	0.721	0.618	0.693	0.833	0.935	1.339	1.587	2.329	4.168	5.257	4.638	3.832	4.552	5.788	7.414	9.575	14.36	31.77	66.84	83.12	33.69	18.57	2.652	0.720	0.687	0.564	0.633	0.568
285.0	2298	1149	401.9	163.0	215.4	379.1	703.3	1506	1921	2246	2783	7820	9999.9	9276	128.4	22.48	11.87	8.437	5.864	4.492	3.707	2.748	2.435	2.046	1.997	1.748	1.764	1.519	1.351	1.439	1.477	3.081	5.984	8.316	8.886	7.023	5.911	4.804	4.290	4.645	4.462	4.916	4.837	4.765	4.263	4.129	2.685	2.156	1.458	0.913	0.697	0.756	1.021	1.167	1.506	1.631	2.421	3.568	5.206	7.541	8.681	8.113	8.429	9.852	11.70	12.04	14.98	24.83	43.74	65.80	90.80	31.39	11.71	1.379	0.741	0.766	0.687
290.0	3527	1906	618.7	228.8	272.2	481.4	874.1	1709	2980	3902	3982	4463	5383	9999.9	9999.9	2310	38.02	12.99	8.160	5.729	4.330	3.380	2.921	2.379	2.282	2.160	1.950	1.717	1.594	1.642	1.899	4.408	9.151	13.25	13.47	11.33	9.335	7.490	7.026	6.936	7.358	7.571	8.101	8.031	7.229	6.244	4.175	3.116	1.993	1.214	0.913	0.998	1.199	1.484	1.771	2.221	3.114	3.984	5.682	7.728	10.40	13.76	15.39	16.76	17.78	16.76	16.23	17.57	18.45	21.66	39.84	63.45	69.56	56.88	19.63	9.333	1.623
295.0	4503	2328	773.0	271.2	294.8	533.2	1007	1878	3226	4894	5190	4177	2395	2842	9999.9	9999.9	715.2	35.11	11.93	7.680	5.610	4.563	3.871	3.256	2.636	2.457	2.330	2.109	1.681	1.637	2.409	5.138	11.24	16.56	17.31	13.71	11.74	9.090	8.747	8.530	8.759	9.430	10.13	9.858	8.604	7.457	5.235	3.649	2.328	1.395	1.106	1.125	1.352	1.534	1.974	2.615	3.730	4.570	6.242	8.775	10.82	14.40	17.69	22.01	23.80	21.48	19.63	18.19	14.03	9.785	11.41	15.64	19.56	35.59	73.43	98.43	31.35
300.0	4700	2389	765.5	276.8	290.7	535.2	1008	1874	3187	4704	5582	4201	1728	846.9	3037	9999.9	9999.9	527.8	18.44	10.53	7.490	5.547	4.649	3.495	2.806	2.688	2.510	2.199	1.870	1.722	2.369	5.435	11.73	17.23	18.07	14.12	11.79	9.107	8.657	8.788	9.421	10.28	10.66	9.597	8.955	7.807	5.465	3.917	2.213	1.451	1.162	1.099	1.369	1.573	1.861	2.792	3.677	4.799	6.441	8.315	10.74	13.73	17.11	20.26	24.03	23.98	22.00	18.67	13.23	7.493	5.264	4.923	5.431	9.438	24.63	64.13	93.29
305.0	4354	2235	724.6	262.5	269.6	487.3	935.4	1738	2948	4227	5043	4261	1527	385.7	755.5	4335	9999.9	5466	76.02	15.43	9.448	7.011	5.392	4.188	3.153	2.865	2.748	2.322	1.932	1.871	2.520	5.468	11.76	16.52	17.25	13.90	11.16	9.101	8.099	8.345	8.730	9.185	9.896	9.385	8.647	7.390	5.255	3.627	2.017	1.427	1.173	1.217	1.244	1.459	1.782	2.514	3.437	4.549	5.969	7.666	10.72	13.19	15.64	18.29	21.13	21.42	21.43	19.02	12.77	6.412	3.416	2.354	2.284	3.096	6.591	16.62	36.15
310.0	3523	1839	604.1	226.1	225.1	397.3	764.9	1408	2386	3398	3863	3449	1603	327.0	232.4	1035	3831	9999.9	9999.9	1603	27.46	9.557	7.290	5.103	3.893	3.405	3.079	2.543	2.157	2.074	2.484	4.885	9.720	13.78	14.00	11.83	9.248	7.770	7.071	6.911	7.428	7.765	8.117	7.856	7.074	6.277	4.275	3.147	1.923	1.255	0.986	1.077	1.044	1.171	1.679	2.177	2.911	3.769	4.874	6.521	8.384	10.68	12.31	14.88	16.69	16.35	15.66	15.67	12.25	7.242	3.675	1.898	1.484	1.600	2.334	4.617	8.949
315.0	2637	1428	496.2	188.9	174.3	295.3	562.0	1034	1756	2496	2797	2361	1243	585.3	151.7	275.2	883.2	2476	9730	9999.9	517.3	26.87	10.59	6.889	4.819	3.947	3.775	2.837	2.281	2.418	2.411	4.070	8.083	10.83	10.79	9.378	7.661	6.265	5.700	5.489	5.933	6.343	6.208	6.160	5.841	4.580	3.322	2.506	1.789	1.176	0.897	1.033	0.978	1.206	1.225	1.703	2.470	2.963	3.867	4.883	6.332	8.335	9.355	11.29	12.43	11.71	11.18	10.87	7.890	5.274	4.548	3.647	1.985	1.230	1.286	1.806	2.678
320.0	2069	1124	406.6	153.2	144.0	232.3	436.4	803.6	1346	1915	2101	1743	807.3	591.7	318.5	115.1	222.8	581.2	2682	9999.9	9999.9	415.2	17.49	9.269	6.221	4.516	4.186	3.203	2.661	2.508	2.511	3.803	6.514	9.048	8.843	7.430	6.154	4.883	4.798	4.526	4.564	5.132	5.218	5.022	4.548	3.725	2.609	2.051	1.431	1.041	0.787	0.922	0.890	1.008	1.076	1.358	2.152	2.268	3.140	3.931	5.018	6.390	7.504	8.634	9.736	9.012	8.454	7.940	5.868	3.495	2.869	3.533	3.589	2.504	1.283	1.129	1.242
325.0	1607	891.4	352.1	135.5	121.3	182.9	341.0	622.3	1027	1450	1609	1325	565.2	339.7	482.6	128.7	73.50	152.9	627.0	3293	9999.9	9600	62.08	12.85	7.683	5.835	4.700	3.407	2.828	2.650	2.473	3.376	5.343	7.334	7.361	6.186	5.006	4.220	4.026	3.861	3.700	4.021	4.224	4.079	3.784	3.118	2.429	1.797	1.304	0.951	0.748	0.877	0.849	0.985	0.924	1.268	1.677	1.905	2.446	3.171	3.722	4.756	5.703	6.630	7.238	7.064	6.347	6.108	4.518	2.664	1.813	1.859	2.576	3.513	2.701	1.438	0.896
330.0	1206	688.0	292.5	117.3	94.47	137.4	247.9	432.8	713.1	1006	1109	924.3	387.6	162.7	272.7	331.4	134.5	55.52	157.6	760.3	3301	9999.9	8923	1488	23.20	8.326	6.109	4.400	3.361	3.166	2.510	3.245	4.250	5.635	5.872	4.853	3.856	3.524	3.048	2.885	2.844	3.139	3.245	3.035	2.910	2.548	1.954	1.608	1.121	0.797	0.702	0.833	0.749	0.810	0.872	1.016	1.401	1.616	1.790	2.300	2.868	3.472	4.166	4.900	5.268	5.009	4.631	4.365	3.280	1.937	1.237	1.121	1.221	1.865	2.212	2.739	2.200
335.0	866.4	516.2	244.2	103.3	81.38	101.1	170.8	286.3	474.0	677.0	743.2	627.3	272.2	98.35	113.8	204.6	304.4	84.98	50.66	185.5	752.3	2358	7804	9999.9	443.0	26.09	8.888	6.131	4.201	3.665	3.106	3.288	3.956	4.784	4.612	3.998	3.217	2.885	2.407	2.281	2.280	2.499	2.308	2.304	2.285	2.023	1.690	1.530	1.090	0.852	0.688	0.756	0.722	0.774	0.789	0.928	1.214	1.240	1.465	1.795	2.133	2.542	2.926	3.277	3.828	3.378	3.336	3.133	2.161	1.583	0.944	0.936	0.835	1.056	1.063	1.434	1.929
340.0	633.1	429.4	221.6	99.63	71.19	86.93	127.7	215.2	349.8	494.0	550.0	467.3	203.6	79.20	71.83	94.91	235.9	230.1	50.50	55.23	182.3	542.1	2118	9509	9999.9	393.9	16.07	7.059	5.084	4.440	3.302	3.077	3.899	3.862	3.822	3.266	2.669	2.607	2.201	1.913	1.941	2.134	2.012	2.097	1.915	1.763	1.489	1.297	1.013	0.883	0.734	0.762	0.640	0.791	0.757	0.781	1.105	0.977	1.147	1.464	1.773	2.074	2.063	2.631	2.793	2.759	2.465	2.266	1.870	1.157	0.951	0.835	0.760	0.946	0.745	0.855	1.119
345.0	520.9	338.2	193.9	97.66	69.91	71.97	100.8	166.0	260.2	370.3	406.6	343.9	160.8	68.17	59.59	56.41	101.7	258.0	88.70	30.38	52.91	135.0	491.1	2829	9999.9	9076	55.70	10.28	6.341	5.236	3.490	3.744	3.746	3.771	3.425	2.703	2.341	2.283	1.884	1.681	1.782	1.846	1.768	1.824	1.580	1.725	1.322	1.193	0.923	0.781	0.686	0.748	0.675	0.793	0.775	0.768	0.891	0.893	1.025	1.214	1.474	1.679	1.666	1.985	2.179	2.084	2.012	1.851	1.446	0.977	0.739	0.729	0.698	0.722	0.575	0.646	0.709
350.0	397.2	272.8	159.4	88.57	60.72	59.00	77.62	120.5	180.8	248.2	282.0	239.9	118.3	57.45	49.97	42.06	39.20	112.2	186.3	111.4	31.89	41.08	121.5	647.4	2948	8396	7104	1388	21.81	6.787	4.662	4.403	3.793	3.483	3.219	2.547	2.112	2.132	1.662	1.567	1.564	1.325	1.414	1.563	1.435	1.450	1.109	1.024	0.854	0.712	0.661	0.717	0.706	0.727	0.652	0.694	0.892	0.818	0.908	0.924	1.118	1.251	1.325	1.648	1.629	1.598	1.539	1.421	1.181	0.862	0.660	0.651	0.654	0.645	0.550	0.564	0.602
355.0	308.7	230.0	130.8	73.73	52.64	49.16	61.18	87.82	121.4	168.9	187.6	161.4	83.71	46.04	40.57	35.06	21.77	36.54	79.52	181.3	72.70	22.94	35.78	154.0	666.5	1948	5295	9999.9	2101	26.70	6.652	5.351	4.458	3.604	3.119	2.527	2.078	1.894	1.664	1.529	1.443	1.293	1.113	1.317	1.172	1.167	0.996	0.954	0.791	0.655	0.574	0.732	0.680	0.627	0.617	0.613	0.752	0.711	0.809	0.826	0.820	1.043	1.042	1.370	1.200	1.241	1.312	1.025	1.001	0.744	0.709	0.543	0.557	0.590	0.578	0.563	0.552
360.0	244.3	179.4	111.3	68.22	44.72	44.34	47.97	73.36	91.14	124.3	139.1	120.0	67.39	41.51	37.86	30.11	16.83	18.20	29.69	109.6	164.3	50.76	16.58	42.71	157.7	445.3	1364	7580	9736	390.4	16.94	6.756	5.306	4.056	3.352	2.415	2.268	2.114	1.648	1.353	1.313	1.229	1.083	1.324	1.032	1.023	0.916	0.936	0.760	0.632	0.645	0.641	0.691	0.605	0.735	0.622	0.712	0.604	0.854	0.849	0.763	0.829	0.970	1.051	1.024	0.966	0.935	0.887	0.830	0.771	0.702	0.544	0.492	0.550	0.550	0.510	0.496
365.0	195.6	149.4	102.3	66.27	47.38	44.25	42.30	55.59	74.02	94.45	108.6	97.06	55.73	35.59	33.81	26.67	14.04	13.42	14.76	42.16	140.2	126.1	24.38	16.31	43.05	108.9	316.5	2114	8724	9121	318.0	10.46	6.125	4.623	3.722	2.856	2.239	2.015	1.731	1.442	1.255	1.178	1.126	1.221	1.051	1.075	0.899	0.936	0.793	0.652	0.618	0.659	0.653	0.644	0.700	0.621	0.805	0.663	0.646	0.637	0.733	0.749	0.850	0.841	0.927	0.875	0.835	0.810	0.721	0.572	0.623	0.619	0.493	0.614	0.467	0.387	0.529
370.0	165.6	128.2	89.47	56.07	43.56	36.55	36.06	44.13	56.75	71.80	81.49	71.97	42.90	30.05	27.83	24.07	14.12	11.26	10.48	16.62	53.95	122.7	91.98	25.07	16.05	32.15	79.36	482.9	2405	7462	6271	1371	22.08	6.190	4.861	3.343	2.598	2.367	1.800	1.491	1.285	1.167	1.149	1.203	1.040	1.055	0.814	0.849	0.701	0.621	0.618	0.634	0.586	0.600	0.647	0.614	0.713	0.614	0.617	0.558	0.614	0.631	0.669	0.779	0.796	0.753	0.694	0.726	0.645	0.618	0.528	0.563	0.474	0.517	0.518	0.469	0.493
375.0	139.7	102.3	76.18	52.41	38.62	32.55	26.39	33.61	43.76	53.88	59.71	54.73	34.40	26.46	24.89	20.64	12.50	11.02	9.381	10.19	18.65	44.09	114.1	92.30	18.36	13.25	24.37	115.4	543.4	1716	4216	9999.9	2235	26.05	6.736	4.266	3.349	2.797	1.957	1.544	1.347	1.238	1.128	0.966	0.977	1.020	0.801	0.763	0.699	0.609	0.536	0.656	0.588	0.711	0.658	0.625	0.746	0.568	0.602	0.539	0.609	0.640	0.621	0.600	0.659	0.593	0.678	0.625	0.590	0.579	0.504	0.490	0.534	0.484	0.476	0.509	0.522
380.0	135.1	96.27	75.93	50.97	36.52	29.22	26.39	29.18	34.62	42.41	47.29	45.90	29.35	25.11	21.46	19.08	11.97	9.937	8.247	8.656	10.17	16.66	59.97	129.0	49.55	10.44	11.20	32.56	128.8	391.8	1067	7066	9999.9	340.7	17.38	5.513	3.910	3.187	2.320	1.631	1.410	1.317	1.110	1.267	1.059	1.066	0.815	0.778	0.702	0.604	0.533	0.610	0.657	0.684	0.550	0.540	0.759	0.516	0.495	0.565	0.634	0.588	0.598	0.610	0.562	0.568	0.665	0.639	0.545	0.587	0.545	0.536	0.400	0.520	0.489	0.488	0.491
385.0	120.5	90.69	69.48	48.35	36.35	28.22	25.64	25.38	29.05	35.79	40.47	40.32	25.24	23.24	20.08	16.72	12.40	9.720	8.156	7.707	7.954	9.626	22.75	87.38	103.0	27.80	7.857	13.06	35.41	95.33	247.8	1899	8257	8209	287.2	9.101	4.716	3.485	2.632	1.932	1.601	1.445	1.222	1.312	0.975	1.060	0.766	0.866	0.639	0.669	0.530	0.631	0.565	0.607	0.545	0.628	0.758	0.583	0.564	0.578	0.690	0.489	0.557	0.633	0.604	0.543	0.525	0.511	0.503	0.569	0.473	0.610	0.590	0.494	0.470	0.499	0.507
390.0	112.5	81.69	57.17	43.23	32.91	28.50	23.56	23.59	23.82	28.66	33.25	33.54	22.24	20.13	18.51	15.84	11.26	9.602	8.028	7.583	7.349	7.470	10.71	31.49	81.40	75.78	25.22	8.862	13.48	27.80	62.16	432.4	2189	6019	7744	1125	18.41	5.000	3.268	2.454	1.884	1.515	1.230	1.228	1.024	1.052	0.877	0.804	0.687	0.612	0.573	0.610	0.602	0.670	0.599	0.591	0.653	0.588	0.585	0.571	0.598	0.555	0.518	0.570	0.642	0.512	0.556	0.527	0.494	0.521	0.461	0.549	0.494	0.535	0.548	0.561	0.499
395.0	99.37	73.78	53.40	37.12	32.99	24.66	22.76	22.26	19.66	21.85	28.49	28.76	19.62	17.32	16.77	14.13	10.40	8.852	8.284	7.471	6.965	6.734	7.428	12.05	28.85	73.58	77.63	18.34	7.756	11.32	19.27	103.2	494.3	1374	4196	8410	1882	22.26	4.677	3.033	2.222	1.774	1.530	1.442	1.168	1.125	0.925	0.814	0.693	0.601	0.545	0.686	0.642	0.662	0.575	0.663	0.560	0.513	0.616	0.470	0.551	0.547	0.475	0.481	0.543	0.564	0.558	0.459	0.461	0.542	0.612	0.596	0.486	0.481	0.502	0.606	0.705
400.0	94.52	73.54	50.19	34.36	28.90	25.03	20.04	21.96	18.34	20.49	26.71	24.43	18.04	16.52	16.11	13.54	10.08	8.923	8.057	6.908	6.869	6.413	6.486	7.523	12.16	36.49	88.68	47.73	10.09	7.254	8.993	29.11	116.0	312.8	1034	5484	7325	296.4	13.90	3.296	2.762	2.019	1.705	1.399	1.194	1.127	0.916	0.918	0.771	0.614	0.584	0.663	0.679	0.632	0.533	0.691	0.539	0.484	0.521	0.546	0.627	0.472	0.481	0.473	0.475	0.577	0.541	0.463	0.481	0.589	0.532	0.490	0.453	0.475	0.446	0.527	0.604
405.0	88.81	69.63	44.76	34.68	28.14	23.54	20.46	20.64	16.94	17.51	21.43	21.66	16.14	15.59	15.40	12.56	9.649	8.448	7.492	6.775	7.001	6.243	6.617	6.450	7.772	15.09	55.68	79.81	26.16	6.338	6.014	11.16	30.94	74.98	237.6	1492	5708	7109	249.4	6.462	3.140	2.510	1.912	1.553	1.248	1.327	0.948	0.950	0.843	0.640	0.704	0.624	0.577	0.674	0.588	0.596	0.514	0.516	0.576	0.578	0.642	0.443	0.522	0.566	0.406	0.599	0.528	0.419	0.458	0.477	0.458	0.492	0.529	0.564	0.438	0.525	0.571
410.0	85.56	57.67	45.20	33.36	25.99	21.47	17.22	17.84	15.04	15.87	18.60	19.50	15.51	14.54	12.92	11.83	9.162	7.998	6.788	6.627	6.605	6.079	6.027	6.004	6.204	8.034	20.64	56.62	61.87	23.52	5.702	6.358	11.02	21.30	57.80	338.9	1506	5274	5555	997.5	15.58	3.082	2.438	1.890	1.379	1.470	1.041	0.976	0.806	0.684	0.651	0.681	0.647	0.635	0.574	0.609	0.589	0.547	0.573	0.468	0.514	0.545	0.500	0.545	0.563	0.545	0.484	0.469	0.431	0.445	0.457	0.485	0.506	0.485	0.435	0.458	0.467
