Sample:	'1
File name:	L2025090914»ª·áÂ·ÇÅ.FD3
Run date:	'17:08:52, 09/09/2025
Operator:	Administrator
Comment:	'

Instrument
Model:	F-2700 FL Spectrophotometer
Serial number:	3064-004
ROM Version:	4J14000 07

Instrument parameters
Measurement type:	3-D scan
Data mode:	Fluorescence
EX  Start WL:	220.0 nm
EX  End WL:	600.0 nm
EX Sampling interval:	5.0 nm
EM  Start WL:	230.0 nm
EM  End WL:	650.0 nm
EM Sampling interval:	5.0 nm
Scan speed:	12000 nm/min
EX Slit:	5.0 nm
EM Slit:	5.0 nm
PMT Voltage:	700 V
Response:	Auto 
Corrected spectra:	Off
Contour interval:	50.000

Peak integration
Integration method:	Rectangular
Sensitivity:	1
Threshold:	1.000

Peaks
No.	ApexEX/EM(nm)	Height(Data)
1	225.0/580.0	34.50
2	230.0/610.0	28.33
3	230.0/635.0	25.53
4	235.0/345.0	764.2
5	235.0/565.0	45.34
6	235.0/640.0	26.76
7	240.0/520.0	243.4
8	240.0/595.0	28.47
9	240.0/615.0	23.68
10	245.0/530.0	225.4
11	245.0/620.0	21.05
12	250.0/545.0	196.9
13	255.0/280.0	681.2
14	255.0/555.0	188.1
15	260.0/285.0	818.9
16	260.0/565.0	165.8
17	265.0/290.0	861.7
18	265.0/580.0	166.2
19	270.0/295.0	 1206
20	270.0/590.0	143.3
21	275.0/305.0	 1495
22	275.0/380.0	 1046
23	275.0/605.0	143.9
24	280.0/310.0	 1491
25	280.0/340.0	 1116
26	280.0/615.0	115.5
27	285.0/315.0	 1466
28	285.0/630.0	93.74
29	290.0/240.0	12.40
30	290.0/320.0	 1391
31	290.0/640.0	75.97
32	295.0/330.0	 1084
33	300.0/335.0	919.2
34	305.0/340.0	916.9
35	310.0/345.0	789.9
36	315.0/355.0	693.6
37	320.0/360.0	756.0
38	325.0/365.0	745.8
39	330.0/375.0	684.9
40	335.0/380.0	711.4
41	340.0/385.0	695.8
42	350.0/400.0	607.1
43	355.0/405.0	579.7
44	365.0/420.0	493.4
45	370.0/425.0	458.2
46	415.0/485.0	122.3
47	430.0/505.0	74.48
48	440.0/515.0	51.26
49	445.0/525.0	44.75
50	450.0/530.0	36.07
51	460.0/345.0	3.269
52	460.0/545.0	26.01
53	505.0/275.0	2.801
54	510.0/280.0	3.521
55	520.0/285.0	4.043
56	520.0/400.0	4.082
57	530.0/290.0	3.997
58	540.0/295.0	5.438
59	540.0/340.0	4.860
60	545.0/300.0	6.674
61	550.0/305.0	7.075
62	560.0/310.0	6.581
63	570.0/315.0	6.471
64	575.0/290.0	77.17
65	575.0/320.0	7.099
66	580.0/325.0	6.401
67	590.0/330.0	5.906

Data points
	220.0	225.0	230.0	235.0	240.0	245.0	250.0	255.0	260.0	265.0	270.0	275.0	280.0	285.0	290.0	295.0	300.0	305.0	310.0	315.0	320.0	325.0	330.0	335.0	340.0	345.0	350.0	355.0	360.0	365.0	370.0	375.0	380.0	385.0	390.0	395.0	400.0	405.0	410.0	415.0	420.0	425.0	430.0	435.0	440.0	445.0	450.0	455.0	460.0	465.0	470.0	475.0	480.0	485.0	490.0	495.0	500.0	505.0	510.0	515.0	520.0	525.0	530.0	535.0	540.0	545.0	550.0	555.0	560.0	565.0	570.0	575.0	580.0	585.0	590.0	595.0	600.0
230.0	20.28	534.0	 3477	 1995	131.7	13.22	7.118	8.135	5.590	3.772	3.694	5.438	4.210	4.152	5.846	2.824	2.356	2.272	2.221	1.943	1.957	1.598	1.612	1.516	1.329	1.154	0.959	1.046	0.738	0.868	0.624	0.839	0.697	0.697	0.777	0.627	0.703	0.583	0.604	0.542	0.714	0.603	0.699	0.567	0.351	0.449	1.840	6.670	10.79	7.999	2.863	0.622	0.165	0.332	0.183	0.248	0.141	0.147	0.169	0.288	0.241	0.215	0.156	0.204	0.169	0.145	0.167	0.156	0.106	0.151	0.180	0.170	0.072	0.017	0.064	0.080	0.148
235.0	51.80	148.1	 1545	 3995	 3010	422.6	8.905	10.57	9.382	5.871	4.053	5.643	5.575	3.291	9.843	3.348	1.968	2.435	2.142	2.540	1.304	2.123	1.469	1.597	1.458	1.280	0.873	0.926	0.654	0.888	0.631	0.724	0.898	0.628	0.806	0.629	0.709	0.911	0.619	0.539	0.726	0.439	0.637	0.686	0.707	0.716	0.720	2.068	4.747	8.131	10.24	10.30	4.229	1.150	0.215	0.214	0.165	0.203	0.316	0.305	0.158	0.084	0.059	0.253	0.371	0.062	0.120	0.110	0.075	0.137	0.116	-0.026	0.108	0.077	0.168	0.189	0.110
240.0	51.42	95.42	392.0	 2383	 7081	 5064	85.62	13.75	8.884	6.325	5.881	6.243	5.085	3.158	12.40	3.441	1.952	2.962	1.880	2.065	2.061	2.134	1.544	1.511	1.228	1.072	0.893	0.985	0.752	0.849	0.971	0.848	0.931	0.746	0.473	0.722	0.639	0.730	0.577	0.449	0.506	0.490	0.634	0.504	0.782	0.811	0.761	0.935	1.481	2.628	5.786	14.01	15.83	10.36	3.096	0.444	0.243	0.281	0.283	0.306	0.255	0.177	0.040	0.275	0.198	0.150	0.160	0.182	0.095	0.054	0.188	-0.029	0.016	0.148	0.171	-0.005	0.203
245.0	34.67	103.5	140.7	639.6	 5319	9999.9	776.3	120.3	10.11	4.991	6.109	7.684	5.813	3.417	12.34	3.272	1.787	2.718	2.290	1.828	2.657	1.621	1.414	1.891	1.355	1.066	1.207	1.368	0.739	1.095	1.038	0.867	0.669	0.654	0.587	0.836	0.610	0.721	0.322	0.814	0.337	0.339	0.438	0.494	0.529	0.922	0.849	0.692	0.780	1.099	1.640	4.849	12.24	20.15	19.24	8.405	2.438	0.349	0.419	0.279	0.268	0.156	0.123	0.238	0.270	0.192	0.099	0.327	0.260	0.170	0.151	-0.007	-0.001	0.025	0.113	0.146	0.139
250.0	17.90	51.07	150.8	244.8	 1437	 6735	 5774	 7115	220.5	12.69	9.721	8.863	6.648	5.416	10.18	4.121	3.127	2.586	2.533	2.296	1.835	1.519	1.503	1.801	1.493	1.210	1.578	1.122	0.923	0.980	0.906	1.098	0.730	0.568	0.645	0.657	0.716	0.652	0.551	0.569	0.546	0.495	0.396	0.619	0.404	0.607	0.640	0.898	1.190	0.967	0.896	1.441	3.243	6.955	12.52	17.01	21.50	17.43	9.166	2.322	0.325	0.231	0.225	0.248	0.227	0.081	0.092	0.164	0.155	0.208	0.128	0.061	0.173	0.136	0.080	0.109	0.101
255.0	14.95	21.31	78.60	279.3	468.0	 1566	 2660	9999.9	 4585	296.3	14.67	10.02	8.011	7.035	10.43	4.092	3.694	3.222	3.110	2.260	2.121	1.442	1.876	1.440	1.719	1.036	1.440	1.182	1.099	0.925	1.006	1.056	0.604	0.934	0.582	0.711	0.747	0.816	0.509	0.512	0.646	0.649	0.702	0.666	0.392	0.571	0.468	0.548	0.764	1.037	1.339	1.209	1.341	2.010	3.207	4.578	9.719	22.50	36.79	32.16	13.21	2.280	0.201	0.285	0.335	0.186	0.276	0.141	0.112	0.208	0.165	0.303	0.080	0.247	0.094	0.077	0.028
260.0	13.29	11.83	38.78	174.1	382.4	458.5	678.0	 7332	9999.9	 3846	149.1	13.55	9.740	7.341	9.059	4.797	3.963	3.205	3.316	1.975	2.399	2.005	2.057	1.396	1.654	1.364	1.464	1.282	1.008	0.936	0.918	1.215	0.733	0.785	0.653	0.661	0.565	0.717	0.360	0.547	0.686	0.613	0.412	0.488	0.535	0.440	0.497	0.587	0.568	0.571	1.007	1.507	1.611	1.302	1.053	1.356	2.544	6.518	18.57	37.97	46.92	32.32	8.904	0.831	0.410	0.255	0.307	0.234	0.140	0.071	0.126	0.283	0.163	0.196	0.271	0.252	0.038
265.0	16.50	15.13	21.01	69.75	310.4	399.6	212.1	 2049	9999.9	9999.9	 2714	59.30	13.14	10.02	9.352	5.374	4.597	3.839	3.062	2.452	2.000	2.373	2.339	1.418	1.775	1.860	1.397	1.461	1.654	1.108	1.233	0.961	0.930	0.855	0.504	0.873	0.606	0.675	0.579	0.496	0.551	0.705	0.608	0.722	0.687	0.613	0.599	0.473	0.623	0.527	0.604	0.914	1.949	1.834	1.340	0.815	0.967	1.709	4.797	12.65	31.32	54.44	48.32	25.23	4.191	0.292	0.307	0.146	0.243	0.079	0.199	0.258	0.089	0.210	0.124	0.276	0.371
270.0	29.18	18.50	24.67	29.26	117.7	366.0	370.7	563.5	 2810	 6385	9999.9	 6354	173.9	15.24	15.30	7.070	5.617	4.482	3.193	3.020	2.401	2.252	1.979	1.949	1.790	1.560	1.579	1.734	1.394	1.325	1.073	1.004	1.150	1.091	0.745	0.862	0.746	0.716	0.671	0.513	0.519	0.680	0.604	0.625	0.639	0.698	0.625	0.684	0.582	0.616	0.420	0.589	0.854	1.091	1.555	2.223	1.787	1.251	1.543	3.292	7.916	17.17	32.22	48.60	52.38	46.22	18.38	4.092	0.394	0.204	0.214	0.181	0.271	0.240	0.280	0.294	0.274
275.0	46.82	49.05	48.41	31.56	47.61	137.2	384.8	613.6	721.2	 1513	 4140	9999.9	9999.9	205.7	22.05	10.88	8.210	5.410	5.029	3.769	2.726	2.432	2.872	1.912	2.031	1.777	1.360	1.835	1.369	1.684	1.311	1.190	1.219	1.283	0.710	0.775	0.701	0.881	0.974	0.599	0.851	0.629	0.538	0.692	0.601	0.911	0.762	0.572	0.731	0.582	0.433	0.488	0.532	0.545	0.735	1.417	2.357	2.801	2.342	1.388	2.318	4.379	7.519	11.95	21.17	51.38	87.17	50.48	25.48	2.895	0.340	0.384	0.295	0.289	0.137	0.414	0.236
280.0	72.16	71.25	67.78	52.93	52.20	70.56	186.9	681.2	531.3	444.5	 1082	 5414	9999.9	 2569	134.7	16.33	10.13	6.962	5.120	4.664	3.392	3.220	3.089	2.045	2.072	1.833	1.882	1.858	1.281	1.303	1.449	1.126	1.381	1.205	0.864	0.790	0.894	1.007	0.834	0.719	0.782	0.849	0.624	1.223	0.694	1.030	0.821	0.564	0.805	0.707	0.589	0.433	0.497	0.370	0.492	0.760	1.155	2.404	3.521	3.019	1.581	1.517	2.397	3.456	5.660	14.17	39.71	75.51	102.6	44.29	13.20	0.809	0.216	0.210	0.163	0.449	0.223
285.0	108.1	118.3	114.8	79.56	71.39	61.79	96.55	393.4	818.9	380.4	392.0	 1506	 7647	9999.9	 2074	61.68	14.35	9.206	6.756	5.455	4.339	3.060	2.841	2.894	2.757	2.439	2.391	1.940	1.597	1.458	1.404	1.471	1.209	1.230	0.914	0.963	0.978	0.772	0.845	0.828	1.183	0.869	1.245	1.206	0.942	1.218	0.902	0.919	0.889	0.981	0.655	0.539	0.540	0.795	0.511	0.557	1.033	1.174	2.001	3.595	4.043	2.354	1.602	1.441	2.217	3.985	10.15	23.93	59.26	100.3	56.89	33.07	4.536	0.521	0.419	0.204	0.334
290.0	152.7	177.5	189.1	147.0	92.16	93.01	95.40	212.0	538.7	861.7	452.1	609.8	 2103	 6815	9999.9	 7223	109.4	14.34	9.528	6.585	4.807	4.305	3.929	3.077	2.760	2.503	2.406	1.794	1.584	1.570	1.523	1.383	1.257	1.353	1.104	1.252	0.997	1.024	0.849	1.231	1.117	0.995	1.150	1.064	1.083	1.248	1.097	1.223	1.030	1.050	0.800	0.744	0.665	0.651	0.587	0.670	0.919	0.823	1.070	1.807	2.787	3.498	3.997	2.579	2.001	2.028	3.607	6.662	14.75	29.38	44.53	77.17	69.17	67.83	22.05	5.578	0.477
295.0	190.1	233.3	259.8	193.5	137.1	141.3	135.5	189.1	325.9	631.6	 1206	562.8	828.7	 1799	 3986	9999.9	9999.9	135.0	15.81	9.180	6.925	5.001	4.012	3.355	3.282	2.548	2.455	2.274	2.312	1.638	1.760	1.507	1.553	1.046	1.194	1.000	0.978	1.129	1.263	1.359	1.308	1.313	1.034	1.203	1.324	1.270	1.527	1.292	1.193	1.004	0.907	1.107	0.947	0.916	0.858	0.913	1.050	1.090	1.081	1.457	1.594	1.975	3.233	4.767	5.438	3.429	2.595	3.183	4.769	8.027	11.05	18.76	24.55	63.92	116.7	57.62	32.21
300.0	200.9	264.0	288.3	242.2	175.5	166.2	181.1	211.5	307.3	454.4	 1066	 1254	708.1	746.7	 1139	 4544	9999.9	 7154	90.02	12.75	8.141	6.281	4.339	3.880	3.549	2.929	2.827	2.596	2.637	1.748	1.746	1.717	1.560	1.021	1.234	1.521	1.195	1.463	1.214	1.314	1.341	1.433	1.115	1.071	1.286	1.443	1.448	1.409	1.465	1.276	1.112	0.949	1.003	1.056	1.039	1.104	1.294	1.228	1.134	1.306	1.407	1.717	2.155	3.424	5.301	6.674	4.537	3.165	2.862	3.616	4.182	5.368	6.492	16.44	45.15	92.34	133.7
305.0	214.7	272.8	305.5	275.1	212.7	192.3	214.4	271.6	353.0	451.3	769.2	 1495	 1139	618.8	550.4	 1239	 9059	9999.9	 1241	52.56	10.34	7.912	5.635	4.250	4.901	3.514	2.799	2.209	2.733	2.333	1.978	1.558	1.613	1.102	1.489	1.566	1.012	1.455	1.474	1.372	1.237	1.202	1.404	1.140	1.265	1.388	1.523	1.573	1.873	1.344	1.479	1.224	1.106	0.889	0.896	1.144	1.111	0.966	1.370	1.615	1.757	1.876	2.001	3.046	3.581	5.353	7.075	5.971	3.784	2.940	2.604	3.059	2.844	4.748	11.26	26.05	66.35
310.0	220.1	281.3	350.6	305.0	242.6	230.9	250.7	319.8	403.6	517.1	706.5	 1068	 1491	 1078	544.2	519.4	 2274	 5827	9999.9	 5039	76.08	12.86	7.627	6.552	5.303	4.237	3.094	2.653	2.682	2.064	1.865	1.783	1.718	1.147	1.102	1.503	1.501	1.566	1.277	1.468	1.506	1.486	1.397	1.238	1.836	1.481	1.584	1.772	1.854	1.290	1.325	1.492	1.137	1.156	1.237	1.314	1.296	1.469	1.633	1.856	1.870	1.871	2.245	2.832	3.102	3.661	4.855	5.849	6.581	5.769	3.944	2.761	2.332	2.541	3.496	7.186	16.34
315.0	236.8	303.0	382.3	333.1	264.5	264.8	293.6	361.6	450.1	563.5	737.4	913.6	 1105	 1466	949.1	451.4	717.7	 1433	 3194	9999.9	 7461	99.60	13.13	8.162	5.645	4.708	3.881	3.344	2.721	2.684	2.196	1.720	1.480	1.308	1.415	1.488	1.399	1.486	1.606	1.114	1.732	1.312	1.562	1.183	1.742	1.386	1.539	1.777	2.189	1.368	1.393	1.437	1.532	1.475	1.281	1.470	1.708	1.717	1.730	2.161	1.998	2.366	2.682	2.847	3.087	3.787	4.020	4.227	5.121	5.694	6.471	5.312	3.338	2.471	1.947	2.607	4.536
320.0	260.7	386.8	485.2	389.2	302.3	297.1	314.9	396.8	494.6	603.0	779.0	918.4	 1025	 1217	 1391	631.3	426.7	483.8	831.3	 4137	9999.9	 5831	69.43	11.37	7.782	5.855	4.435	3.631	3.164	2.929	2.222	1.957	1.638	1.762	1.268	1.310	1.246	1.500	1.263	1.217	1.505	1.412	1.478	1.269	1.867	1.329	1.767	2.264	1.968	1.623	1.303	1.370	1.459	1.460	1.531	1.571	2.020	1.709	1.826	2.209	2.211	2.658	2.785	2.715	2.983	3.288	3.889	4.032	4.208	4.809	5.303	7.099	6.088	3.665	2.404	2.521	2.284
325.0	276.4	444.2	599.4	507.3	360.9	321.8	339.5	433.2	535.9	669.0	826.5	985.5	 1055	 1068	 1308	 1041	444.2	316.2	321.9	 1049	 5966	9999.9	930.6	43.10	9.048	7.428	5.245	4.212	3.134	3.480	2.190	2.109	1.911	1.758	1.391	1.183	1.440	1.628	1.478	1.414	1.462	1.389	1.513	1.589	1.620	1.746	2.300	2.294	2.606	1.903	1.401	1.521	1.667	1.571	1.780	1.158	1.829	1.749	1.723	2.381	2.230	2.656	3.083	3.161	3.389	3.601	3.666	4.284	4.520	5.220	4.178	5.128	6.401	6.217	4.224	3.036	2.165
330.0	292.2	449.8	657.1	627.9	453.1	359.9	368.4	458.0	571.1	684.3	856.3	 1007	 1091	 1065	 1033	 1084	834.3	390.0	260.1	363.0	 1480	 5380	9999.9	 3875	60.01	10.60	6.566	5.228	4.186	3.166	3.194	2.090	2.303	1.821	1.955	1.621	1.597	1.578	1.670	1.471	1.584	1.640	1.751	1.816	1.752	1.905	2.371	3.043	2.873	2.568	1.990	1.966	1.690	1.526	1.703	1.681	1.864	2.027	1.672	2.300	2.463	2.457	2.741	3.081	3.601	3.963	3.858	4.404	4.472	4.821	4.484	4.474	5.071	5.255	5.906	5.476	3.615
335.0	298.7	521.2	714.6	699.1	528.5	419.4	392.7	506.4	583.1	713.2	888.3	 1021	 1115	 1073	979.4	859.1	919.2	754.8	333.5	258.9	454.3	 1293	 3216	9999.9	 6099	82.50	10.59	6.775	5.179	4.086	3.298	2.412	2.676	1.977	1.711	1.986	1.878	1.483	1.829	1.515	1.869	1.645	1.606	2.181	1.692	2.113	2.546	2.797	2.982	2.789	2.216	2.360	2.010	1.828	2.036	1.850	2.089	2.145	1.819	2.505	2.526	2.704	2.462	3.014	4.155	3.940	4.316	4.403	4.271	4.549	4.388	4.722	4.033	4.340	4.194	4.751	5.501
340.0	300.9	499.5	741.3	741.4	565.2	467.9	461.2	524.7	597.8	745.0	884.8	 1037	 1116	 1101	994.1	817.5	768.6	916.9	532.1	277.8	261.4	407.1	818.5	 4368	9999.9	 4831	57.64	9.899	7.081	4.443	4.219	3.524	3.051	1.997	2.030	1.568	1.959	1.463	1.486	1.556	1.759	1.849	1.712	2.186	1.814	2.134	2.714	3.095	3.219	2.886	2.023	2.437	2.049	2.197	2.007	1.926	2.082	2.091	2.350	2.691	2.541	2.613	3.065	3.313	4.860	3.763	4.070	4.241	4.758	4.601	4.666	4.471	4.165	4.420	3.949	4.126	4.079
345.0	308.1	502.8	706.3	764.2	629.9	533.1	479.6	542.3	634.3	756.4	882.8	 1005	 1095	 1090	 1001	830.3	704.9	774.4	789.9	388.3	254.7	244.5	294.3	 1093	 6202	9999.9	767.6	37.91	7.890	6.301	4.701	3.857	3.047	1.927	2.468	1.468	1.936	1.676	1.592	1.639	1.493	1.921	1.932	1.725	1.935	2.369	2.180	3.103	3.269	2.881	1.999	2.490	2.666	2.290	2.274	2.089	2.196	2.423	2.514	2.399	2.556	2.996	3.334	3.446	4.728	3.806	4.041	4.202	4.688	4.696	4.671	4.600	4.330	3.718	3.912	3.941	3.945
350.0	297.1	463.5	679.3	755.4	659.4	608.3	577.5	620.3	692.0	782.0	892.8	 1005	 1075	 1093	 1015	856.9	720.9	655.4	737.4	671.8	384.5	265.0	231.7	361.3	 1544	 5650	9999.9	 3287	52.97	10.13	6.283	4.471	3.429	2.618	2.432	1.776	2.190	1.668	1.708	1.553	1.623	1.809	1.761	1.779	1.759	2.254	2.427	2.674	3.062	2.672	2.515	2.707	2.801	2.201	2.561	2.431	2.452	2.710	2.600	2.512	2.553	3.016	3.314	3.469	4.385	3.806	3.913	4.391	4.220	4.421	4.475	4.237	4.186	3.880	4.378	4.021	3.885
355.0	262.1	421.1	664.7	744.6	694.7	693.8	678.4	718.7	748.3	843.4	929.9	 1013	 1057	 1080	 1017	901.2	770.7	676.4	625.6	693.6	676.4	375.2	271.4	255.0	469.8	 1351	 3451	9999.9	 5239	72.89	10.29	6.212	4.157	3.368	3.176	2.131	2.273	1.798	1.537	1.382	1.645	1.643	1.781	1.903	1.802	2.474	2.429	2.700	2.806	2.539	2.262	2.743	2.652	2.648	2.689	3.026	2.745	3.302	2.655	3.218	2.887	3.575	3.697	3.586	4.159	3.732	3.894	4.571	4.375	4.381	4.756	4.129	4.282	4.206	4.586	4.398	4.223
360.0	238.8	403.9	624.5	728.4	738.4	732.9	714.2	749.4	812.3	873.0	964.7	 1026	 1059	 1073	 1019	913.0	803.7	720.1	635.7	616.9	756.0	570.2	333.9	260.9	267.3	417.8	869.7	 4662	9999.9	 4185	49.82	8.254	5.022	4.598	3.300	2.135	2.203	2.198	2.144	1.683	1.569	1.655	1.768	1.499	1.558	2.231	2.380	2.576	2.646	2.516	2.297	2.761	2.969	2.712	2.712	3.234	3.186	3.157	2.587	3.289	3.215	3.368	3.747	3.591	3.861	4.077	4.202	4.649	4.352	4.523	4.909	4.063	4.646	4.566	4.400	4.347	4.426
365.0	254.2	410.7	582.1	722.1	774.1	779.8	780.6	799.9	842.3	904.4	979.8	 1044	 1062	 1068	 1029	940.2	831.0	753.8	675.1	615.4	668.6	745.8	449.6	302.1	254.0	238.2	296.0	 1169	 6581	9999.9	687.0	28.31	6.744	5.178	3.487	2.822	2.294	2.264	1.889	1.554	1.784	1.437	1.767	1.686	1.621	2.367	2.107	2.548	2.765	2.360	2.581	2.817	2.613	2.739	2.431	3.563	3.165	3.465	3.191	3.300	3.580	3.511	4.068	4.010	3.599	3.911	4.063	4.922	4.283	4.668	4.974	4.327	4.922	4.831	4.435	4.460	4.557
370.0	248.1	397.7	572.9	731.4	793.7	806.6	831.3	844.7	896.0	932.6	981.5	 1039	 1052	 1053	 1016	940.0	857.2	795.5	726.8	655.1	628.9	692.6	672.1	448.4	308.7	246.7	209.9	361.9	 1642	 5865	9999.9	 2885	43.34	7.717	5.002	3.531	2.844	2.189	2.115	2.046	1.964	1.556	1.774	1.792	1.653	2.021	2.202	2.518	2.703	2.339	2.345	2.944	2.862	2.656	2.898	3.372	3.069	3.495	3.072	3.276	3.791	3.711	3.902	3.932	3.789	4.213	4.229	4.344	4.522	4.346	5.054	4.566	4.924	4.597	4.876	4.534	4.781
375.0	237.3	378.3	549.3	717.3	815.8	857.7	830.3	868.2	925.5	977.3	 1016	 1040	 1051	 1039	 1008	950.9	872.5	812.5	772.5	705.1	660.3	638.1	684.9	673.5	422.9	302.0	235.0	219.3	463.0	 1380	 3693	9999.9	 4346	57.12	6.952	4.874	3.468	2.786	2.259	2.349	1.809	1.817	1.759	1.970	1.853	1.655	2.140	2.444	2.781	2.377	2.633	2.813	3.094	3.303	2.911	3.081	3.161	3.562	3.189	3.343	3.609	3.587	4.054	3.708	4.059	4.180	4.294	4.260	4.434	4.496	4.559	4.253	4.812	4.929	4.433	4.717	4.595
380.0	238.5	378.5	522.8	689.1	800.9	860.4	865.4	911.5	954.3	992.2	 1021	 1046	 1031	 1030	997.2	924.6	877.5	834.5	786.8	744.0	684.9	648.4	638.9	711.4	573.7	364.5	277.6	219.6	228.4	391.4	908.2	 4939	9999.9	 3231	36.58	6.366	4.133	3.394	2.661	2.205	2.007	1.877	1.540	2.138	2.080	1.842	2.206	2.173	2.551	2.209	2.690	2.727	2.714	3.437	3.402	3.750	3.322	3.461	3.218	3.570	3.687	3.760	3.905	4.222	3.642	4.026	4.248	4.639	4.052	4.567	4.036	4.407	5.115	4.648	4.768	4.539	4.686
385.0	236.4	339.6	507.9	667.0	800.1	883.5	889.0	913.1	941.7	982.7	996.1	 1019	 1022	 1006	970.5	914.1	867.0	841.7	803.7	757.9	714.4	673.4	632.7	646.8	695.8	467.0	321.0	250.4	198.1	195.0	278.4	 1237	 6557	9999.9	536.7	20.08	5.667	4.318	3.022	2.360	2.091	1.932	2.020	2.004	2.150	2.154	1.876	2.033	2.571	2.252	2.524	2.877	2.969	3.373	3.295	3.360	3.366	3.437	3.423	3.743	3.864	3.963	3.748	3.734	3.827	3.595	4.424	4.000	4.564	4.215	3.959	4.306	4.526	4.480	4.388	4.799	4.687
390.0	228.1	346.9	489.6	652.9	772.5	877.6	921.8	934.4	941.9	968.2	987.4	989.1	993.3	979.0	940.5	901.6	862.8	836.0	803.8	772.4	731.6	694.4	643.3	612.4	634.6	614.3	428.3	300.4	232.5	184.8	166.4	348.8	 1646	 5653	 8108	 2208	33.87	6.310	4.435	3.004	2.444	2.273	2.132	1.842	2.097	2.104	1.982	2.308	2.301	2.267	2.521	2.817	2.902	3.174	3.227	3.392	3.447	3.420	3.219	3.664	3.847	3.727	3.961	3.812	3.823	4.134	4.205	3.808	3.976	4.326	4.136	4.307	4.324	4.693	4.753	4.648	4.522
395.0	228.9	337.1	476.0	652.7	763.7	866.9	897.7	925.1	929.8	954.1	959.7	963.0	955.5	937.6	923.4	882.6	849.9	825.9	813.2	778.4	737.4	719.5	666.3	625.0	589.6	591.3	587.3	395.2	283.6	220.7	171.9	176.7	434.8	 1312	 3192	 9042	 3399	45.44	5.984	4.050	3.356	2.672	2.292	2.041	2.181	2.386	2.031	2.232	2.079	2.502	2.345	2.677	2.915	3.126	2.834	3.206	3.661	3.688	3.555	3.739	3.650	3.401	3.657	3.826	3.767	4.238	3.613	3.782	3.726	3.965	4.216	4.024	4.134	4.320	4.207	4.620	4.490
400.0	237.0	334.3	474.8	609.0	773.5	838.8	883.8	912.2	930.6	951.9	955.7	945.3	937.2	925.2	900.6	857.7	818.9	806.3	799.0	777.2	737.4	724.4	676.7	632.7	587.1	556.7	607.1	511.0	331.4	253.9	196.1	155.9	178.2	350.4	779.3	 4455	 9318	 2487	28.76	5.275	3.924	3.564	2.873	2.081	2.189	2.444	1.964	2.232	2.370	2.417	2.071	2.716	3.005	3.007	2.713	3.374	3.562	3.868	3.992	3.393	4.082	3.072	3.813	4.164	3.989	4.116	3.441	4.063	3.454	3.880	4.340	3.812	4.026	3.885	4.475	4.202	4.803
405.0	212.4	324.9	468.9	598.9	754.1	817.0	859.3	909.4	928.2	948.6	938.9	929.1	920.3	898.6	868.1	828.4	805.7	795.7	778.8	764.6	733.2	713.6	682.1	635.8	593.3	556.6	553.9	579.7	415.5	288.9	220.9	167.6	135.8	144.7	221.9	 1118	 5760	 8323	446.4	13.97	4.743	4.084	2.840	2.550	2.466	2.513	2.501	2.627	2.334	2.141	2.293	2.639	3.025	2.810	2.763	3.279	3.409	3.706	3.481	3.392	4.026	3.591	3.417	3.897	4.078	3.767	3.776	3.799	3.728	3.850	4.094	3.991	4.069	3.998	4.606	4.291	4.563
