Sample:	'1
File name:	t2025062304Òó¼Ò´å¶«ÇÅ.FD3
Run date:	'14:27:29, 06/24/2025
Operator:	Administrator
Comment:	'

Instrument
Model:	F-2700 FL Spectrophotometer
Serial number:	23B8-004
ROM Version:	4J14000 07

Instrument parameters
Measurement type:	3-D scan
Data mode:	Fluorescence
EX  Start WL:	220.0 nm
EX  End WL:	600.0 nm
EX Sampling interval:	5.0 nm
EM  Start WL:	230.0 nm
EM  End WL:	650.0 nm
EM Sampling interval:	5.0 nm
Scan speed:	12000 nm/min
EX Slit:	5.0 nm
EM Slit:	5.0 nm
PMT Voltage:	700 V
Response:	Auto 
Corrected spectra:	Off
Contour interval:	50.000

Peak integration
Integration method:	Rectangular
Sensitivity:	1
Threshold:	1.000

Peaks
No.	ApexEX/EM(nm)	Height(Data)
1	225.0/590.0	71.43
2	225.0/600.0	65.68
3	225.0/615.0	85.53
4	230.0/345.0	5274
5	245.0/270.0	404.7
6	250.0/275.0	521.9
7	250.0/450.0	2442
8	255.0/280.0	543.3
9	260.0/290.0	537.4
10	260.0/575.0	132.6
11	265.0/380.0	1616
12	265.0/585.0	111.8
13	270.0/600.0	103.3
14	275.0/410.0	1967
15	275.0/615.0	115.9
16	280.0/340.0	2346
17	280.0/625.0	109.9
18	285.0/640.0	94.52
19	330.0/415.0	1240
20	460.0/340.0	13.36
21	475.0/350.0	13.63
22	505.0/275.0	3.122
23	505.0/450.0	10.32
24	510.0/280.0	3.376
25	510.0/455.0	10.46
26	520.0/285.0	3.429
27	525.0/290.0	3.310
28	535.0/270.0	54.84
29	565.0/340.0	11.14
30	570.0/335.0	11.38
31	570.0/405.0	8.244

Data points
	220.0	225.0	230.0	235.0	240.0	245.0	250.0	255.0	260.0	265.0	270.0	275.0	280.0	285.0	290.0	295.0	300.0	305.0	310.0	315.0	320.0	325.0	330.0	335.0	340.0	345.0	350.0	355.0	360.0	365.0	370.0	375.0	380.0	385.0	390.0	395.0	400.0	405.0	410.0	415.0	420.0	425.0	430.0	435.0	440.0	445.0	450.0	455.0	460.0	465.0	470.0	475.0	480.0	485.0	490.0	495.0	500.0	505.0	510.0	515.0	520.0	525.0	530.0	535.0	540.0	545.0	550.0	555.0	560.0	565.0	570.0	575.0	580.0	585.0	590.0	595.0	600.0
230.0	114.2	1930	3094	635.3	25.99	8.178	7.260	6.366	5.261	4.937	4.369	4.199	3.902	3.561	2.841	2.453	2.360	2.032	1.905	1.573	1.416	1.452	1.246	1.215	1.076	1.100	1.011	0.972	0.888	0.932	0.884	0.903	0.799	0.691	0.624	0.530	0.602	0.546	0.509	0.495	0.476	0.632	0.529	0.442	0.417	0.458	2.352	8.440	11.50	6.697	2.108	0.535	0.319	0.298	0.291	0.288	0.310	0.298	0.321	0.312	0.294	0.294	0.275	0.276	0.285	0.265	0.285	0.265	0.287	0.282	0.315	0.297	0.269	0.290	0.261	0.260	0.314
235.0	122.2	574.0	2605	3340	542.4	41.37	9.839	7.724	5.454	5.084	5.578	4.925	3.711	3.540	3.067	2.764	2.364	2.157	1.923	1.832	1.475	1.526	1.459	1.262	1.169	1.224	0.997	1.079	1.006	0.848	0.760	0.787	0.701	0.672	0.546	0.580	0.554	0.624	0.486	0.458	0.430	0.549	0.549	0.577	0.490	0.567	0.802	2.442	5.290	9.301	12.66	11.81	4.554	0.883	0.299	0.325	0.297	0.364	0.339	0.322	0.297	0.300	0.287	0.267	0.241	0.294	0.340	0.254	0.329	0.339	0.282	0.348	0.268	0.291	0.265	0.280	0.325
240.0	160.8	205.2	893.3	3609	3517	424.4	23.54	9.088	6.276	6.225	5.636	5.219	3.875	3.793	3.199	2.831	2.391	1.852	1.848	1.646	1.501	1.591	1.282	1.212	1.085	1.137	1.079	1.094	0.981	0.878	0.900	0.851	0.759	0.642	0.618	0.607	0.514	0.651	0.515	0.491	0.466	0.445	0.461	0.549	0.774	0.725	0.584	0.813	1.489	3.071	8.425	17.93	18.97	11.69	3.406	0.521	0.336	0.336	0.334	0.313	0.317	0.325	0.301	0.287	0.244	0.324	0.322	0.240	0.291	0.309	0.324	0.307	0.300	0.287	0.361	0.285	0.401
245.0	152.8	215.6	252.0	1470	4799	3272	314.1	12.44	8.115	7.377	6.356	5.180	4.698	4.029	3.832	2.708	2.470	2.009	1.733	1.644	1.440	1.482	1.392	1.273	1.039	1.295	1.231	1.059	0.944	0.895	0.922	0.783	0.783	0.663	0.596	0.563	0.530	0.515	0.459	0.497	0.443	0.432	0.414	0.510	0.608	0.812	0.822	0.795	0.673	0.927	2.226	6.862	16.46	24.50	21.50	10.20	2.264	0.415	0.330	0.339	0.295	0.329	0.337	0.328	0.286	0.326	0.300	0.258	0.274	0.293	0.303	0.296	0.325	0.256	0.340	0.303	0.368
250.0	75.91	173.7	239.4	406.3	1773	4492	4695	1183	61.07	10.58	7.357	6.335	5.627	4.438	3.951	3.295	2.591	2.292	1.919	1.869	1.757	1.502	1.490	1.336	1.195	1.237	1.210	1.117	1.091	0.889	0.982	0.866	0.769	0.649	0.657	0.579	0.575	0.541	0.467	0.477	0.515	0.484	0.422	0.434	0.446	0.544	0.661	0.878	0.971	0.827	0.924	1.866	4.251	8.778	15.94	22.30	27.53	18.79	10.40	2.562	0.411	0.319	0.336	0.333	0.317	0.308	0.335	0.341	0.294	0.299	0.297	0.287	0.384	0.299	0.292	0.351	0.395
255.0	48.55	69.88	204.5	319.4	466.0	1250	5002	7664	1623	54.56	10.82	8.280	7.165	5.312	4.077	3.624	2.771	2.780	2.184	2.089	1.786	1.442	1.565	1.475	1.116	1.193	1.249	1.098	1.155	1.082	1.098	0.783	0.739	0.667	0.727	0.621	0.600	0.585	0.546	0.516	0.432	0.460	0.515	0.533	0.481	0.448	0.494	0.503	0.649	0.950	1.343	1.402	1.405	2.273	3.964	5.706	12.52	27.63	46.44	28.70	15.68	2.551	0.474	0.306	0.356	0.349	0.313	0.264	0.293	0.400	0.307	0.306	0.316	0.298	0.320	0.319	0.316
260.0	38.99	37.36	96.55	307.3	312.7	337.9	1730	7855	8156	266.3	29.01	11.57	8.055	6.108	4.458	3.756	3.543	2.524	2.164	2.210	1.979	1.646	1.585	1.419	1.440	1.212	1.143	1.163	1.059	1.229	1.117	0.885	0.735	0.646	0.735	0.620	0.528	0.616	0.555	0.529	0.427	0.484	0.527	0.473	0.520	0.439	0.490	0.489	0.482	0.579	1.028	1.880	1.635	1.191	1.289	1.632	3.319	8.113	23.61	45.05	59.27	26.35	10.71	1.102	0.370	0.355	0.358	0.344	0.318	0.350	0.336	0.312	0.295	0.337	0.310	0.316	0.306
265.0	43.83	40.88	41.94	177.9	378.6	243.0	443.8	3059	9999.9	7546	210.2	18.24	10.75	7.942	5.969	4.244	3.721	3.184	2.657	2.285	2.133	1.754	1.755	1.517	1.496	1.301	1.293	1.267	1.141	1.202	1.232	1.059	0.828	0.827	0.760	0.657	0.567	0.664	0.564	0.627	0.422	0.544	0.610	0.563	0.519	0.427	0.529	0.455	0.423	0.455	0.514	1.092	1.845	1.964	1.390	0.911	1.150	2.280	5.854	14.98	38.12	61.04	64.61	23.08	5.656	0.657	0.450	0.405	0.363	0.381	0.420	0.344	0.313	0.319	0.366	0.311	0.314
270.0	54.08	44.04	40.24	75.37	232.3	404.7	311.8	765.3	3640	9896	9999.9	821.5	51.19	12.05	8.021	5.854	4.308	3.618	3.170	2.617	2.236	1.900	1.950	1.642	1.662	1.462	1.433	1.438	1.405	1.279	1.180	1.113	0.894	0.929	0.893	0.713	0.742	0.656	0.609	0.704	0.496	0.563	0.615	0.548	0.572	0.511	0.491	0.450	0.433	0.426	0.455	0.607	0.873	1.436	1.969	2.133	1.836	1.315	1.776	3.834	9.450	19.34	37.44	54.84	49.91	52.26	15.28	5.453	0.710	0.437	0.397	0.382	0.355	0.383	0.401	0.357	0.340
275.0	90.33	80.94	70.09	61.32	109.2	262.9	521.9	374.5	871.2	2610	9752	9999.9	1168	46.35	11.25	8.229	5.803	4.528	3.756	3.126	2.728	2.350	2.275	1.965	1.759	1.690	1.459	1.299	1.345	1.209	1.261	1.155	0.997	0.930	0.909	0.790	0.812	0.683	0.659	0.701	0.614	0.561	0.547	0.695	0.670	0.688	0.649	0.535	0.544	0.482	0.431	0.579	0.607	0.704	0.999	1.333	2.748	3.122	2.151	1.589	2.693	4.773	8.883	13.23	19.05	51.64	88.41	87.81	23.73	5.057	0.607	0.492	0.393	0.439	0.401	0.471	0.425
280.0	149.5	144.1	109.4	78.61	90.32	153.4	401.1	543.3	326.7	658.4	3018	9999.9	9999.9	823.0	24.50	10.75	7.364	5.554	4.670	3.614	2.874	2.981	2.290	2.047	1.663	1.773	1.587	1.484	1.447	1.384	1.233	1.292	1.021	0.887	0.888	1.018	0.890	0.912	0.755	0.653	0.686	0.615	0.723	0.730	0.788	0.774	0.669	0.787	0.632	0.624	0.551	0.572	0.573	0.620	0.809	0.885	1.515	2.693	3.376	2.787	1.688	1.691	2.551	3.629	4.949	13.50	34.82	78.55	104.8	33.00	18.40	2.467	0.516	0.572	0.425	0.507	0.457
285.0	231.0	218.1	172.1	107.2	90.91	116.6	214.7	541.2	356.4	270.0	788.8	3871	9999.9	8210	119.6	16.49	9.942	7.473	5.343	4.068	3.756	2.966	2.425	2.310	2.053	1.925	1.787	1.566	1.505	1.427	1.368	1.265	1.221	1.014	1.060	1.125	1.036	0.971	0.838	0.767	0.771	0.772	0.796	0.852	0.778	0.927	0.859	1.001	0.766	0.680	0.733	0.627	0.673	0.700	0.811	0.728	1.014	1.283	2.163	3.371	3.429	2.137	1.417	1.673	1.905	3.809	8.672	22.02	50.74	87.49	106.2	29.87	11.99	1.186	0.576	0.570	0.525
290.0	338.5	339.6	280.0	171.7	121.4	127.4	152.6	284.2	537.4	499.6	363.2	1046	3793	9999.9	9999.9	2101	35.72	10.71	6.846	5.357	4.016	3.289	2.821	2.492	2.320	2.151	1.862	1.539	1.513	1.553	1.494	1.392	1.353	1.280	1.230	1.207	1.242	1.072	1.030	0.836	0.974	0.917	1.040	0.943	1.004	1.123	1.260	1.317	1.142	0.965	0.801	0.814	0.783	0.812	0.782	0.795	0.892	0.936	1.251	1.670	2.596	3.310	3.219	2.781	1.835	1.980	2.972	6.070	12.67	24.16	46.85	62.81	83.37	67.98	19.99	9.976	1.622
295.0	445.0	479.9	403.8	257.0	182.0	165.2	181.9	226.0	357.4	741.0	713.1	553.8	1088	2591	8892	9999.9	703.3	36.75	10.34	7.025	5.048	4.222	3.393	3.090	2.639	2.414	2.269	1.840	1.842	1.627	1.438	1.433	1.319	1.342	1.392	1.292	1.390	1.310	1.147	0.998	0.987	1.064	1.056	1.044	1.288	1.359	1.325	1.536	1.498	1.146	1.103	1.149	1.008	0.942	0.863	0.986	1.006	1.177	1.229	1.291	1.691	1.820	2.631	4.675	5.127	3.322	2.431	3.060	4.306	6.911	11.70	15.21	22.91	42.65	85.96	112.6	33.05
300.0	569.2	665.6	568.2	369.6	269.4	246.6	289.6	330.3	365.7	681.5	1140	805.2	672.3	882.1	2610	9999.9	9999.9	546.1	21.98	9.372	6.366	5.027	4.079	3.421	2.677	2.703	2.254	1.992	1.965	1.809	1.718	1.566	1.539	1.442	1.571	1.423	1.554	1.508	1.101	1.239	1.214	1.289	1.301	1.294	1.435	1.734	1.653	1.989	1.965	1.527	1.394	1.328	1.312	1.280	1.298	1.307	1.633	1.619	1.806	1.880	2.024	2.166	2.689	3.642	5.191	6.015	4.794	3.552	3.185	3.773	4.580	5.127	6.737	11.30	27.76	67.17	106.8
305.0	724.7	890.0	772.9	553.3	432.3	418.4	461.8	567.4	669.8	875.4	1301	1506	977.7	771.2	1003	3448	9999.9	5357	79.40	14.86	8.904	6.430	4.907	4.107	3.457	3.006	2.661	2.034	2.040	1.591	1.825	1.591	1.524	1.376	1.600	1.540	1.481	1.491	1.326	1.405	1.446	1.420	1.562	1.458	1.670	1.997	2.247	2.703	2.626	2.035	1.856	2.014	1.781	1.762	1.719	2.155	2.352	2.359	2.565	2.860	2.990	3.258	3.877	4.436	5.064	6.262	7.538	6.877	5.458	4.769	4.241	4.201	4.163	4.831	8.447	18.10	40.16
310.0	958.2	1149	1049	790.5	614.9	607.3	709.8	815.6	921.5	1115	1379	1718	1630	1107	882.8	1220	3508	9522	9164	1755	28.76	9.119	6.519	5.147	3.891	3.354	2.928	2.489	2.363	2.127	1.902	1.631	1.763	1.644	1.672	1.707	1.703	1.741	1.540	1.670	1.678	1.454	1.745	1.849	2.135	2.624	2.990	3.422	3.338	2.708	2.580	2.824	2.574	2.374	2.535	2.722	3.079	3.375	3.552	3.872	4.095	4.298	5.048	5.318	5.934	6.605	7.256	7.748	8.759	8.175	6.978	5.839	5.030	4.789	4.966	7.034	11.62
315.0	1162	1510	1401	1033	812.1	782.8	900.8	989.1	1084	1278	1521	1730	1843	1713	1089	850.0	1224	2454	6891	9999.9	531.4	31.19	9.849	6.759	5.265	4.136	3.508	2.897	2.724	2.340	2.010	1.947	1.702	1.553	1.764	1.819	1.863	1.951	1.649	1.753	1.807	1.785	2.130	2.248	2.654	3.174	3.551	4.125	4.560	3.314	3.274	3.355	3.247	3.262	3.325	3.381	3.943	4.262	4.598	4.570	4.810	4.919	5.767	6.030	6.764	7.066	7.275	7.863	8.199	8.637	9.471	9.123	7.355	6.261	5.195	5.075	5.822
320.0	1427	1896	1804	1305	971.9	919.9	1017	1124	1195	1408	1650	1850	1890	1915	1472	902.0	798.4	840.3	1893	8954	9999.9	453.2	20.82	9.427	6.572	4.805	3.854	3.320	3.258	2.459	2.373	2.171	1.803	1.678	1.808	1.782	1.846	2.037	1.859	1.888	1.899	2.097	2.292	2.445	3.023	3.865	4.633	5.234	5.427	4.197	3.951	4.128	3.956	3.806	3.570	3.817	4.244	4.763	4.919	5.100	5.343	5.326	6.164	6.443	7.116	7.425	7.989	8.389	8.669	8.974	9.170	9.782	10.17	8.170	5.996	5.154	5.044
325.0	1805	2584	2605	1929	1249	1041	1110	1227	1286	1504	1788	1992	2010	1930	1773	1142	782.4	539.0	590.7	2638	9999.9	9606	64.43	14.78	8.222	5.734	4.502	3.566	3.209	2.755	2.773	2.312	2.018	1.864	2.027	1.826	1.711	2.022	2.082	1.998	1.920	2.160	2.540	3.097	3.806	4.994	5.962	7.273	7.613	6.249	5.918	5.902	4.952	4.599	4.195	4.366	4.476	5.194	5.375	5.821	5.852	5.873	6.611	6.914	7.545	8.148	8.813	8.717	9.384	9.815	9.629	9.666	10.07	10.26	8.461	6.835	5.706
330.0	2434	3537	3939	3068	1899	1312	1241	1335	1401	1640	1934	2171	2216	2061	1821	1479	993.3	579.8	391.3	760.9	2965	8550	7614	1555	26.12	8.810	6.238	4.710	3.705	3.455	3.068	2.573	2.211	1.861	2.009	1.899	1.928	1.948	2.232	2.237	2.264	2.645	2.971	3.688	4.932	6.553	7.852	10.20	10.86	9.648	9.174	9.593	7.486	6.234	5.198	4.976	5.220	5.576	5.819	5.995	6.211	6.242	6.988	7.533	8.097	8.663	9.390	9.671	10.12	10.49	10.36	10.50	10.15	10.22	9.446	8.740	7.814
335.0	2835	4268	4848	4000	2647	1688	1382	1420	1478	1712	2016	2266	2342	2209	1900	1515	1295	763.1	450.8	420.4	844.2	2099	5553	9999.9	2339	29.92	8.416	5.934	4.898	3.873	3.550	2.970	2.365	2.013	2.096	2.108	2.170	2.102	2.355	2.227	2.401	3.050	3.321	4.201	5.227	7.321	9.268	12.14	12.85	11.93	11.79	12.31	10.52	8.888	6.715	5.681	5.872	5.881	6.207	6.499	6.429	6.616	7.492	8.161	8.211	9.184	9.847	10.27	10.66	10.63	11.38	11.16	10.89	10.35	9.493	8.808	8.537
340.0	2925	4442	5253	4395	2916	1818	1429	1461	1519	1718	2020	2249	2346	2227	1911	1497	1268	959.5	536.5	381.6	400.0	630.3	1522	7920	9999.9	405.5	19.27	7.751	5.917	4.580	3.695	3.213	2.544	2.234	2.111	2.152	2.110	2.177	2.327	2.408	2.413	3.054	3.352	4.292	5.435	7.762	9.663	12.50	13.36	13.15	13.16	13.36	11.59	9.901	6.979	6.058	6.335	6.144	6.206	6.216	6.294	6.636	7.324	8.066	8.336	8.913	9.618	10.37	11.05	11.14	11.12	10.89	10.91	10.27	9.480	8.934	8.385
345.0	2900	4481	5274	4457	2978	1886	1443	1433	1510	1694	1955	2171	2271	2135	1863	1464	1155	976.8	673.0	405.4	326.5	324.4	462.3	2281	9734	8881	322.9	11.37	6.856	5.396	4.112	3.265	2.539	2.382	2.210	2.181	2.323	2.049	2.287	2.339	2.534	2.940	3.331	4.564	5.697	7.727	9.369	12.35	13.18	13.13	13.16	13.61	11.85	9.732	7.448	6.417	6.314	5.952	6.090	6.285	6.100	6.976	7.218	7.693	8.583	8.993	9.261	9.771	10.48	10.71	10.72	10.57	10.65	10.26	9.252	8.714	7.975
350.0	2709	4065	4853	4303	3037	1931	1468	1432	1484	1643	1847	2028	2106	2005	1770	1418	1112	881.6	752.0	541.3	363.4	293.5	259.9	609.0	2749	7460	6604	1410	23.72	7.647	5.147	3.924	3.099	2.561	2.418	2.160	2.139	2.226	2.130	2.257	2.399	2.735	3.296	4.127	5.313	7.172	8.714	11.26	12.82	12.07	12.39	13.63	11.51	9.755	7.815	6.320	6.133	5.964	5.988	6.273	6.232	6.779	6.992	7.688	7.914	8.227	8.599	9.257	9.571	9.932	10.24	10.16	9.943	9.831	9.141	8.088	7.772
355.0	2441	3640	4393	3942	2927	1946	1522	1461	1504	1615	1763	1879	1947	1865	1656	1363	1095	849.6	689.4	650.0	487.3	328.9	251.7	269.2	695.9	1764	4747	9999.9	2158	27.75	7.130	5.139	3.738	2.928	2.719	2.282	2.471	2.361	2.222	2.126	2.388	2.478	3.016	3.693	5.235	6.558	8.025	10.12	11.45	11.02	11.01	12.35	10.99	9.786	7.968	6.389	6.291	6.261	6.488	6.351	6.149	6.851	6.792	7.434	7.817	7.881	8.082	8.469	8.691	9.027	9.128	9.212	9.248	9.026	8.808	7.873	7.524
360.0	2185	3296	3941	3656	2755	1941	1529	1476	1498	1616	1704	1790	1824	1747	1559	1308	1062	843.7	677.3	620.1	589.7	398.7	274.6	216.6	257.8	462.7	1251	7174	9960	382.6	17.69	6.912	4.888	3.261	2.760	2.447	2.490	2.426	2.230	2.078	2.546	2.476	2.949	3.304	4.626	5.652	7.154	9.076	9.902	9.953	10.37	11.44	10.37	9.571	7.632	6.481	6.696	6.392	6.504	6.734	6.434	6.737	7.228	7.377	7.451	7.869	7.611	8.026	8.238	8.430	8.417	8.969	8.497	9.229	8.507	7.851	7.450
365.0	1985	2940	3508	3373	2638	1912	1561	1493	1518	1582	1659	1719	1715	1638	1481	1255	1039	842.5	682.7	595.1	589.6	505.3	319.4	230.1	187.5	193.4	343.5	2054	9169	8258	303.0	11.38	6.237	4.270	3.293	2.864	2.580	2.245	2.113	2.308	2.393	2.480	2.973	3.276	4.222	5.357	6.328	8.352	9.019	9.099	9.402	10.50	9.635	8.964	7.682	6.327	6.540	6.545	6.703	6.585	6.460	6.817	7.242	7.365	7.384	7.395	7.563	7.401	8.114	8.282	8.208	8.559	8.078	8.098	7.522	7.591	6.832
370.0	1821	2587	3085	3023	2481	1911	1589	1531	1523	1583	1626	1642	1628	1542	1390	1205	1020	846.9	710.2	612.4	559.7	554.6	448.3	298.3	216.9	174.8	177.5	535.6	2596	7206	6369	1286	22.95	7.265	4.635	3.380	2.865	2.405	2.204	2.224	2.301	2.542	2.870	3.024	3.923	5.058	5.583	7.385	8.045	7.947	8.406	9.735	9.160	8.584	7.751	6.629	6.635	6.497	6.746	6.419	6.588	6.712	7.008	7.312	7.121	7.061	7.227	7.187	7.692	7.551	7.961	7.720	7.671	7.987	7.366	7.330	7.065
375.0	1647	2287	2727	2746	2351	1903	1629	1543	1557	1599	1616	1617	1603	1491	1321	1162	998.8	861.6	742.8	650.8	581.0	541.8	534.5	437.0	292.6	233.2	208.7	260.0	676.8	1747	4829	9623	1906	26.61	7.278	4.682	3.273	2.893	2.449	2.383	2.386	2.478	2.785	2.972	3.809	4.778	5.094	6.500	7.009	6.952	7.508	9.029	8.493	8.055	7.565	6.952	6.853	6.855	6.614	6.505	6.566	6.707	7.013	7.191	7.410	7.112	7.365	7.259	7.457	7.714	7.902	7.639	7.367	7.458	6.831	6.908	6.441
380.0	1518	2076	2522	2514	2255	1901	1660	1583	1565	1616	1616	1610	1608	1472	1285	1130	988.3	873.4	762.6	689.3	616.2	564.3	541.5	543.9	394.7	299.2	266.3	246.7	290.8	508.1	1377	7063	8544	320.4	16.54	6.334	4.283	3.405	2.855	2.665	2.348	2.614	2.683	2.969	3.492	4.354	4.722	5.924	6.411	6.262	6.642	8.585	8.379	7.871	7.650	6.595	7.161	7.058	6.908	6.489	6.857	6.876	6.955	6.863	7.466	7.268	7.210	7.103	7.446	7.694	7.961	7.314	7.218	7.058	6.908	6.772	6.456
385.0	1448	1943	2329	2362	2197	1915	1668	1598	1575	1614	1616	1600	1598	1451	1255	1103	983.7	879.5	785.0	723.8	661.5	614.6	565.9	569.0	501.7	374.3	325.0	286.4	241.5	262.1	463.5	2130	7949	6565	244.4	11.43	6.268	4.229	3.143	2.729	2.334	2.462	2.604	2.751	3.431	4.161	4.443	5.750	6.024	6.274	6.302	8.101	8.048	7.542	7.621	6.873	6.892	7.092	7.078	6.697	6.966	6.881	7.274	7.207	7.023	7.471	7.323	7.390	7.443	7.903	7.529	7.159	6.893	6.580	6.740	6.178	6.381
390.0	1351	1791	2153	2225	2103	1893	1686	1624	1579	1608	1624	1591	1573	1434	1258	1118	1008	921.7	848.8	804.5	756.1	715.9	667.7	628.3	603.3	530.2	424.3	362.3	291.1	257.0	289.9	626.9	2317	5853	4905	996.3	20.34	7.221	4.411	3.328	2.824	2.771	2.673	2.994	3.507	4.050	4.227	5.278	5.556	5.834	6.074	7.744	7.364	7.672	7.363	6.853	6.910	7.200	6.885	6.872	6.528	6.769	6.914	7.238	7.295	7.282	7.101	7.126	7.219	7.507	7.129	6.934	6.856	6.598	6.779	6.265	6.360
395.0	1274	1697	1985	2073	2057	1900	1740	1648	1630	1649	1692	1669	1652	1499	1321	1183	1087	1006	951.8	925.5	908.6	884.6	846.9	796.6	736.4	707.1	637.8	519.5	419.6	361.7	344.8	365.1	661.6	1458	3894	7171	1485	23.74	7.410	4.359	3.448	2.903	2.847	3.214	3.465	3.928	4.301	4.929	5.335	5.564	5.736	7.213	7.323	7.738	7.383	6.954	7.019	7.570	6.978	7.040	7.097	6.852	7.172	7.145	7.567	7.310	7.238	7.261	6.581	7.645	7.536	7.177	6.708	6.768	6.851	6.655	6.631
400.0	1227	1605	1921	2019	2029	1947	1791	1690	1676	1708	1797	1785	1765	1608	1420	1267	1159	1079	1048	1042	1039	1028	1002	965.0	886.8	832.8	813.5	695.3	562.2	466.2	443.2	390.9	360.5	477.8	1144	5491	6251	265.7	15.91	5.940	3.979	3.056	3.209	3.482	3.332	3.691	4.132	5.050	5.608	5.502	5.631	7.151	7.225	7.785	7.517	7.271	7.347	7.513	7.427	7.538	7.133	7.311	7.616	7.133	7.656	7.627	7.566	7.591	7.131	7.751	7.978	7.239	6.788	6.809	7.076	7.034	6.801
405.0	1229	1600	1875	1984	2005	1956	1832	1750	1729	1798	1898	1910	1887	1719	1519	1344	1225	1151	1119	1122	1136	1147	1142	1102	1024	949.9	933.4	866.0	708.7	615.1	569.9	479.3	361.0	310.7	406.5	1694	6050	4723	205.8	8.731	4.941	3.620	3.220	3.575	3.323	3.916	4.133	5.077	5.673	5.221	5.402	7.003	7.472	7.664	7.411	7.421	7.455	7.612	7.835	7.508	7.529	7.636	7.673	7.734	7.929	7.966	7.620	7.716	7.451	8.027	8.244	7.818	7.237	7.028	7.307	6.954	6.948
410.0	1178	1506	1793	1884	1968	1951	1870	1798	1761	1837	1960	1967	1939	1779	1574	1401	1270	1193	1159	1173	1205	1220	1223	1193	1125	1051	996.0	952.0	850.7	737.6	658.1	553.6	413.5	322.2	281.9	520.0	1813	4410	3826	872.1	14.98	4.854	3.906	3.639	3.698	4.107	4.250	5.081	5.371	5.305	5.414	7.204	7.154	7.556	7.290	7.420	7.840	8.044	7.652	7.912	7.572	7.626	7.569	7.619	7.713	7.932	7.660	7.707	7.820	7.864	8.031	7.584	7.286	7.207	7.357	7.025	7.350
415.0	1112	1432	1719	1815	1916	1927	1868	1797	1751	1800	1929	1930	1885	1738	1551	1385	1261	1180	1152	1180	1209	1228	1240	1211	1152	1075	1007	938.9	881.6	806.5	683.0	567.6	436.4	333.9	263.0	262.8	498.7	1082	2957	5210	267.7	16.20	4.961	3.985	3.958	4.279	4.416	4.876	5.200	4.966	5.546	6.790	7.008	7.219	7.278	7.394	8.107	7.749	7.567	7.433	7.307	7.508	7.180	7.518	7.143	7.854	7.321	7.495	7.664	7.723	7.453	7.342	7.317	7.059	6.900	7.208	7.259
420.0	1082	1405	1635	1769	1865	1930	1897	1827	1732	1754	1858	1869	1817	1674	1504	1354	1232	1168	1145	1170	1201	1227	1232	1202	1152	1078	999.7	924.7	860.3	822.0	707.3	573.5	441.8	337.4	257.1	202.3	203.5	291.1	812.1	3957	4406	237.7	8.920	4.645	4.299	4.239	4.312	4.875	5.029	4.915	5.265	6.718	6.825	7.301	7.613	7.477	8.145	7.640	7.905	7.686	7.333	7.143	7.127	7.382	7.295	7.717	6.926	6.955	7.069	7.436	7.051	6.789	7.149	6.758	6.448	6.862	6.814
