Sample:	'1
File name:	t2025022508金星科技厂内门口井7  90倍.FD3
Run date:	'09:55:54, 02/26/2025
Operator:	Administrator
Comment:	'

Instrument
Model:	F-2700 FL Spectrophotometer
Serial number:	23B8-004
ROM Version:	4J14000 07

Instrument parameters
Measurement type:	3-D scan
Data mode:	Fluorescence
EX  Start WL:	220.0 nm
EX  End WL:	600.0 nm
EX Sampling interval:	5.0 nm
EM  Start WL:	230.0 nm
EM  End WL:	650.0 nm
EM Sampling interval:	5.0 nm
Scan speed:	12000 nm/min
EX Slit:	5.0 nm
EM Slit:	5.0 nm
PMT Voltage:	700 V
Response:	Auto 
Corrected spectra:	Off
Contour interval:	50.000

Peak integration
Integration method:	Rectangular
Sensitivity:	1
Threshold:	1.000

Peaks
No.	ApexEX/EM(nm)	Height(Data)
1	225.0/490.0	213.4
2	230.0/500.0	194.4
3	235.0/255.0	324.3
4	235.0/510.0	142.0
5	240.0/265.0	382.6
6	240.0/355.0	4328
7	240.0/525.0	131.6
8	245.0/270.0	385.8
9	245.0/540.0	116.2
10	250.0/275.0	508.9
11	250.0/550.0	106.1
12	255.0/285.0	651.3
13	255.0/565.0	106.3
14	260.0/575.0	110.9
15	265.0/295.0	1109
16	265.0/585.0	120.7
17	270.0/300.0	1364
18	270.0/600.0	106.7
19	275.0/305.0	1171
20	275.0/350.0	2160
21	275.0/610.0	81.52
22	280.0/625.0	55.73
23	285.0/320.0	766.7
24	285.0/640.0	40.65
25	335.0/380.0	235.3
26	345.0/395.0	165.3
27	350.0/400.0	162.7
28	355.0/405.0	139.2
29	365.0/420.0	101.1
30	370.0/425.0	91.55
31	385.0/445.0	54.84
32	390.0/450.0	42.39
33	395.0/455.0	36.30
34	400.0/360.0	4.836
35	400.0/465.0	31.98
36	405.0/355.0	4.823
37	405.0/470.0	25.44
38	410.0/475.0	21.47
39	415.0/485.0	19.51
40	420.0/490.0	15.72
41	425.0/500.0	14.11
42	430.0/505.0	12.61
43	435.0/510.0	9.445
44	440.0/520.0	9.051
45	445.0/525.0	8.019
46	455.0/540.0	5.509
47	460.0/545.0	4.382
48	470.0/560.0	2.745
49	480.0/575.0	1.730
50	485.0/265.0	1.778
51	485.0/355.0	14.09
52	485.0/580.0	1.326
53	495.0/270.0	1.935
54	505.0/275.0	2.889
55	510.0/280.0	3.420
56	520.0/285.0	3.844
57	530.0/290.0	4.515
58	540.0/295.0	6.614
59	545.0/300.0	7.058
60	550.0/305.0	6.596
61	565.0/350.0	9.792
62	570.0/315.0	4.181

Data points
	220.0	225.0	230.0	235.0	240.0	245.0	250.0	255.0	260.0	265.0	270.0	275.0	280.0	285.0	290.0	295.0	300.0	305.0	310.0	315.0	320.0	325.0	330.0	335.0	340.0	345.0	350.0	355.0	360.0	365.0	370.0	375.0	380.0	385.0	390.0	395.0	400.0	405.0	410.0	415.0	420.0	425.0	430.0	435.0	440.0	445.0	450.0	455.0	460.0	465.0	470.0	475.0	480.0	485.0	490.0	495.0	500.0	505.0	510.0	515.0	520.0	525.0	530.0	535.0	540.0	545.0	550.0	555.0	560.0	565.0	570.0	575.0	580.0	585.0	590.0	595.0	600.0
230.0	55.84	760.1	1821	501.9	18.04	3.205	2.456	2.159	1.797	1.735	1.618	1.525	1.155	1.042	0.961	0.828	0.668	0.651	0.515	0.437	0.336	0.258	0.302	0.257	0.201	0.230	0.153	0.156	0.177	0.137	0.123	0.159	0.171	0.113	0.134	0.132	0.136	0.112	0.117	0.149	0.219	0.500	0.502	0.257	0.109	0.132	0.901	3.871	5.866	3.657	1.167	0.211	0.074	0.062	0.075	0.078	0.075	0.060	0.068	0.062	0.062	0.063	0.069	0.072	0.070	0.056	0.066	0.060	0.083	0.065	0.058	0.058	0.049	0.052	0.059	0.066	0.062
235.0	176.5	224.6	1063	1637	430.3	25.27	3.887	2.850	2.154	1.903	1.543	1.426	1.299	1.355	1.123	0.793	0.576	0.547	0.508	0.515	0.335	0.286	0.315	0.243	0.178	0.230	0.174	0.168	0.145	0.151	0.137	0.172	0.193	0.108	0.110	0.133	0.138	0.145	0.140	0.133	0.148	0.214	0.358	0.625	0.418	0.298	0.318	1.040	2.336	3.890	5.318	4.985	1.949	0.338	0.084	0.069	0.069	0.078	0.077	0.069	0.054	0.072	0.061	0.070	0.050	0.063	0.067	0.055	0.047	0.062	0.055	0.077	0.056	0.055	0.067	0.068	0.050
240.0	225.0	177.1	325.9	1419	1646	310.2	10.71	3.111	2.642	2.493	1.930	1.732	1.433	1.175	1.092	0.895	0.793	0.661	0.501	0.658	0.359	0.317	0.328	0.233	0.246	0.257	0.231	0.241	0.138	0.146	0.186	0.163	0.169	0.100	0.122	0.116	0.121	0.149	0.097	0.153	0.135	0.101	0.170	0.378	0.558	0.612	0.333	0.365	0.612	1.225	3.285	7.331	8.160	4.623	1.282	0.215	0.096	0.090	0.059	0.061	0.052	0.057	0.067	0.093	0.054	0.060	0.056	0.072	0.056	0.059	0.066	0.064	0.067	0.057	0.054	0.064	0.072
245.0	153.5	271.0	146.8	497.5	1887	1570	208.1	5.570	3.005	2.383	2.474	1.664	1.667	1.366	1.205	0.917	0.694	0.674	0.551	0.627	0.389	0.381	0.257	0.351	0.261	0.278	0.194	0.212	0.127	0.127	0.200	0.133	0.156	0.127	0.100	0.092	0.126	0.122	0.152	0.147	0.135	0.084	0.172	0.175	0.343	0.588	0.751	0.594	0.298	0.363	0.840	2.708	6.287	10.15	8.477	3.831	0.711	0.104	0.074	0.094	0.055	0.066	0.075	0.074	0.061	0.060	0.063	0.070	0.070	0.062	0.085	0.062	0.099	0.060	0.065	0.070	0.061
250.0	48.63	186.7	252.6	197.1	632.2	1752	2020	635.0	25.13	3.738	2.898	2.153	2.037	1.433	1.330	1.084	0.807	0.697	0.620	0.521	0.498	0.415	0.354	0.298	0.314	0.239	0.185	0.196	0.146	0.149	0.153	0.143	0.201	0.140	0.148	0.138	0.146	0.124	0.120	0.129	0.140	0.140	0.143	0.129	0.155	0.229	0.415	0.712	0.842	0.720	0.469	0.740	1.615	3.650	6.290	9.539	11.52	8.664	3.939	0.927	0.102	0.091	0.084	0.080	0.072	0.070	0.087	0.072	0.064	0.065	0.070	0.069	0.091	0.068	0.067	0.069	0.076
255.0	23.06	59.66	185.9	324.3	222.5	461.9	1826	2670	267.4	21.06	3.428	2.680	2.667	1.829	1.494	1.018	1.134	0.652	0.783	0.526	0.563	0.375	0.407	0.336	0.262	0.238	0.167	0.258	0.185	0.155	0.126	0.151	0.190	0.168	0.141	0.168	0.122	0.144	0.129	0.172	0.115	0.137	0.154	0.108	0.163	0.128	0.162	0.258	0.446	0.845	1.082	1.165	0.617	0.932	1.523	2.446	5.102	11.60	18.25	14.83	5.664	0.806	0.114	0.124	0.078	0.087	0.097	0.077	0.057	0.087	0.070	0.079	0.076	0.060	0.065	0.071	0.072
260.0	16.46	23.80	71.05	293.1	292.9	149.0	585.4	2896	2174	208.8	9.327	4.344	3.435	2.088	1.748	1.222	1.126	0.880	0.671	0.553	0.590	0.398	0.342	0.349	0.287	0.258	0.145	0.184	0.249	0.191	0.177	0.245	0.213	0.166	0.155	0.156	0.140	0.146	0.121	0.139	0.120	0.143	0.147	0.114	0.127	0.102	0.121	0.128	0.197	0.365	0.812	1.671	1.173	0.710	0.531	0.674	1.315	3.417	9.433	18.40	22.35	13.55	3.835	0.367	0.110	0.093	0.109	0.060	0.078	0.080	0.064	0.065	0.092	0.058	0.070	0.090	0.072
265.0	25.11	18.28	24.38	131.7	382.6	205.1	161.1	1074	3640	1842	144.4	6.752	4.175	3.172	1.994	1.397	1.434	0.970	0.852	0.698	0.582	0.415	0.462	0.311	0.252	0.365	0.215	0.243	0.264	0.197	0.209	0.253	0.253	0.153	0.205	0.135	0.161	0.167	0.167	0.187	0.166	0.213	0.158	0.137	0.146	0.103	0.096	0.137	0.111	0.146	0.316	0.772	1.548	1.778	0.953	0.394	0.411	0.886	2.348	5.994	15.07	24.30	22.68	11.32	1.839	0.177	0.139	0.065	0.098	0.075	0.070	0.074	0.091	0.085	0.084	0.075	0.086
270.0	59.45	27.73	18.98	44.61	186.6	385.8	244.2	302.0	1281	3205	3111	577.3	18.02	4.648	2.285	1.668	1.432	1.182	0.904	0.777	0.593	0.511	0.450	0.347	0.328	0.316	0.241	0.291	0.259	0.249	0.205	0.338	0.466	0.397	0.361	0.405	0.334	0.391	0.350	0.365	0.404	0.368	0.289	0.268	0.197	0.175	0.143	0.151	0.113	0.133	0.143	0.264	0.525	1.079	1.616	1.935	1.442	0.721	0.738	1.570	3.836	7.742	14.05	19.85	21.92	17.35	8.567	1.886	0.250	0.116	0.095	0.117	0.087	0.114	0.091	0.093	0.096
275.0	130.8	60.97	32.92	33.11	63.23	200.3	508.9	306.8	373.6	900.3	3117	4843	158.6	15.16	3.662	2.555	1.826	1.433	1.065	0.908	0.811	0.462	0.497	0.400	0.413	0.249	0.197	0.326	0.313	0.268	0.282	0.372	0.889	0.709	0.836	0.662	0.554	0.606	0.688	0.717	0.745	0.665	0.620	0.468	0.333	0.246	0.222	0.213	0.182	0.142	0.160	0.207	0.259	0.405	0.571	1.138	2.376	2.889	1.800	0.932	1.244	2.160	3.581	5.041	7.811	16.51	30.48	26.81	11.74	1.795	0.190	0.147	0.108	0.146	0.093	0.117	0.092
280.0	244.3	122.3	64.01	44.07	49.31	97.50	376.0	610.5	290.7	361.6	1081	4598	3896	122.9	6.986	3.798	2.058	1.808	1.286	1.182	0.863	0.486	0.609	0.494	0.430	0.313	0.242	0.262	0.224	0.295	0.249	0.545	1.134	1.152	1.144	0.841	0.871	0.854	0.992	0.990	0.971	1.006	0.751	0.659	0.535	0.368	0.326	0.281	0.250	0.185	0.204	0.249	0.211	0.250	0.315	0.474	1.080	2.550	3.420	2.645	1.522	1.164	1.535	1.873	2.564	4.916	12.89	24.50	31.84	22.66	7.040	0.850	0.149	0.172	0.179	0.128	0.135
285.0	395.1	204.5	119.5	77.38	63.81	83.48	209.4	651.3	610.0	315.1	507.8	1737	5048	3354	76.77	5.221	2.858	2.005	1.542	1.120	0.868	0.727	0.593	0.443	0.413	0.351	0.338	0.315	0.310	0.233	0.330	0.592	1.327	1.595	1.324	1.119	1.209	1.159	1.200	1.212	1.176	1.431	1.120	0.932	0.702	0.658	0.479	0.446	0.473	0.360	0.307	0.312	0.312	0.326	0.304	0.413	0.625	1.250	2.308	3.743	3.844	2.233	1.661	1.724	2.027	2.224	4.050	7.590	16.36	29.14	30.68	18.58	4.201	0.403	0.184	0.185	0.159
290.0	586.2	350.7	211.5	132.1	96.89	100.9	171.4	397.8	822.1	828.9	583.8	751.7	1773	4288	2524	328.2	9.797	2.973	1.912	1.349	1.086	0.788	0.716	0.524	0.564	0.435	0.398	0.356	0.332	0.261	0.342	0.723	1.520	1.749	1.774	1.452	1.381	1.304	1.458	1.406	1.515	1.514	1.433	1.310	1.125	1.025	0.783	0.722	0.614	0.500	0.418	0.444	0.421	0.405	0.423	0.497	0.632	0.904	1.429	2.135	3.357	4.202	4.515	3.791	3.004	2.472	2.743	3.431	4.967	8.527	13.82	21.35	23.71	21.00	12.16	3.559	0.490
295.0	735.2	496.9	300.5	178.3	130.6	120.4	182.7	318.1	579.2	1109	1052	657.8	639.9	1146	2624	3705	88.72	7.105	2.861	1.598	1.434	1.084	0.883	0.647	0.615	0.540	0.331	0.428	0.377	0.313	0.360	0.819	1.617	1.767	2.245	1.528	1.512	1.590	1.428	1.690	1.731	1.684	1.509	1.569	1.401	1.335	0.985	0.991	0.871	0.681	0.618	0.670	0.548	0.531	0.441	0.605	0.712	0.967	1.190	1.629	2.072	2.789	3.653	5.825	6.614	4.676	3.290	2.850	2.901	3.035	3.855	5.379	6.674	12.71	25.73	30.29	16.96
300.0	767.4	536.4	331.2	216.2	143.5	134.2	182.6	309.0	492.9	860.9	1364	827.9	416.3	367.1	811.8	3528	2932	69.64	4.001	2.455	1.674	1.238	1.040	0.695	0.573	0.565	0.443	0.410	0.413	0.413	0.433	0.768	1.671	1.972	1.924	1.756	1.688	1.589	1.555	1.590	1.655	1.635	1.488	1.730	1.363	1.579	1.175	1.038	0.878	0.703	0.718	0.648	0.608	0.555	0.510	0.589	0.687	0.988	1.186	1.549	1.917	2.413	2.826	4.203	6.480	7.058	5.118	3.234	2.588	1.969	1.666	1.893	2.111	3.483	8.317	18.83	30.44
305.0	755.0	542.3	351.4	224.2	150.2	137.2	183.8	284.8	454.7	683.7	1123	1171	439.4	207.3	241.3	1203	3821	2215	46.54	3.660	2.156	1.472	1.124	0.806	0.718	0.542	0.461	0.426	0.442	0.480	0.411	0.649	1.405	1.725	1.939	1.721	1.576	1.521	1.700	1.410	1.478	1.601	1.635	1.500	1.381	1.428	1.223	1.123	0.940	0.733	0.772	0.784	0.612	0.568	0.500	0.616	0.719	0.968	1.156	1.427	1.823	2.194	2.714	3.304	4.429	5.571	6.596	5.786	3.305	1.896	1.327	1.123	1.065	1.119	2.337	4.932	11.53
310.0	727.3	527.3	342.8	235.5	174.1	159.7	188.3	271.5	400.1	565.8	754.3	976.7	769.4	275.6	135.0	318.2	1235	2784	1859	232.3	7.636	2.203	1.489	1.023	0.878	0.635	0.568	0.550	0.538	0.508	0.396	0.673	1.202	1.642	1.734	1.588	1.503	1.509	1.483	1.394	1.247	1.389	1.503	1.403	1.412	1.360	1.231	1.127	0.971	0.826	0.723	0.760	0.717	0.629	0.698	0.655	0.803	0.943	1.078	1.325	1.660	1.930	2.226	2.757	3.125	3.467	4.200	4.786	4.687	4.172	2.635	1.359	0.938	0.723	0.952	1.438	2.967
315.0	796.7	604.7	394.3	293.7	247.9	230.5	233.9	296.8	385.7	518.9	625.1	674.2	731.1	651.6	218.5	157.5	334.7	714.6	1950	2792	63.90	4.951	2.081	1.444	1.028	0.767	0.734	0.583	0.420	0.441	0.424	0.649	1.042	1.367	1.576	1.364	1.496	1.483	1.431	1.322	1.222	1.319	1.370	1.583	1.635	1.702	1.471	1.300	0.992	0.994	0.852	1.002	1.029	0.975	0.994	0.887	1.044	1.115	1.233	1.478	1.608	1.896	2.164	2.399	2.878	3.007	2.899	3.030	3.055	3.676	4.181	3.635	2.413	1.107	0.943	0.914	1.305
320.0	1004	819.3	503.7	422.2	400.9	373.1	361.4	376.7	444.5	547.7	647.9	652.5	622.6	766.7	496.7	191.9	160.4	227.8	599.8	2537	2179	53.70	3.563	1.734	1.366	0.924	0.777	0.702	0.545	0.425	0.525	0.608	0.983	1.320	1.415	1.365	1.540	1.400	1.466	1.411	1.239	1.560	1.658	1.876	1.975	2.265	1.755	1.674	1.298	1.151	1.219	1.370	1.301	1.536	1.548	1.429	1.516	1.444	1.503	1.704	2.025	1.969	2.348	2.534	3.103	3.055	2.945	3.003	2.959	2.858	3.205	4.017	4.416	3.080	1.880	1.214	1.203
325.0	1158	1021	737.0	693.2	644.4	556.5	580.3	534.7	551.8	643.5	744.4	751.8	688.1	705.0	785.4	380.7	203.8	165.5	203.8	855.4	2646	1602	39.73	2.540	1.654	0.996	0.774	0.761	0.567	0.595	0.535	0.695	0.980	1.278	1.495	1.520	1.558	1.579	1.538	1.547	1.392	1.541	1.851	2.147	2.390	2.685	2.189	2.031	1.778	1.563	1.699	2.111	2.140	2.458	2.514	2.250	2.514	2.407	2.190	2.379	2.401	2.691	2.878	2.810	3.102	3.315	3.437	3.568	3.611	2.925	2.949	3.476	4.112	4.972	4.098	2.470	1.874
330.0	1434	1442	1329	1431	1468	1343	1146	933.0	849.5	909.1	1021	1059	999.2	901.6	887.5	788.3	466.4	268.8	195.9	280.8	853.6	1830	1350	194.3	7.806	1.551	1.190	0.940	0.829	0.679	0.619	0.716	1.118	1.535	1.770	1.967	2.212	2.296	1.860	1.961	1.734	1.744	2.069	2.451	2.833	3.187	2.863	2.991	2.914	2.952	3.328	4.354	4.894	5.039	4.946	4.768	4.649	4.418	4.123	3.991	3.782	3.749	4.012	3.952	4.287	4.509	4.731	4.572	5.026	4.599	4.487	4.379	4.454	4.776	5.164	5.026	4.524
335.0	1761	1942	2127	2475	2563	2323	1919	1493	1268	1283	1428	1509	1424	1323	1138	968.0	877.4	507.2	290.2	200.3	259.7	469.1	1305	2118	278.2	5.405	1.758	1.234	1.137	0.783	0.671	0.829	1.286	1.724	2.485	2.837	3.072	3.142	2.707	2.281	2.212	2.026	2.397	2.789	3.464	3.696	3.818	4.211	4.353	5.098	5.741	7.508	8.205	8.568	8.384	7.503	7.751	7.000	6.642	5.528	5.653	5.388	5.399	5.675	5.881	6.066	6.386	6.613	6.770	6.729	6.678	6.596	6.349	6.039	5.909	5.450	5.787
340.0	1974	2391	2796	3221	3378	3050	2463	1879	1567	1550	1714	1823	1798	1639	1382	1096	978.7	725.2	392.1	219.1	144.1	144.2	382.2	1772	1795	48.23	3.149	1.628	1.235	0.992	0.903	1.064	1.590	2.085	3.048	3.393	3.858	3.800	3.409	2.581	2.376	2.263	2.513	2.910	3.660	4.154	4.585	5.259	5.765	6.621	7.612	9.944	10.66	11.47	10.89	9.804	9.745	8.660	8.221	7.019	6.574	6.745	6.489	6.891	7.168	7.324	7.790	8.063	8.288	8.295	8.231	7.961	7.854	7.570	6.837	6.659	6.175
345.0	2046	2651	3207	3786	3961	3579	2861	2159	1769	1741	1905	2035	2030	1844	1548	1207	967.2	878.6	553.4	258.9	135.5	80.91	111.8	560.4	1954	1326	37.80	2.291	1.410	1.119	0.921	1.086	1.725	2.194	3.322	3.771	4.393	4.232	3.851	3.127	2.528	2.534	2.443	2.969	3.660	4.268	4.795	5.878	6.857	7.601	8.645	11.37	12.40	12.53	12.15	11.83	11.92	10.54	9.270	8.642	7.548	7.292	7.357	7.434	8.093	8.174	8.531	9.070	8.804	9.586	9.165	8.893	8.920	8.126	7.763	6.862	6.606
350.0	2075	2744	3479	4138	4306	3891	3105	2332	1885	1843	2010	2160	2152	1966	1660	1302	997.5	814.9	672.1	392.3	167.3	83.45	62.27	147.8	593.7	1316	1006	179.7	8.102	1.542	1.096	1.276	1.994	2.430	3.641	4.157	4.650	4.498	4.044	3.400	2.551	2.460	2.427	3.070	3.693	4.510	5.089	6.602	7.482	7.935	9.560	12.15	13.60	13.77	13.37	12.97	12.67	11.14	9.944	9.213	8.017	7.775	7.786	7.885	8.561	8.481	8.825	9.285	9.511	9.792	9.739	9.502	9.750	8.836	8.347	7.571	7.115
355.0	1969	2664	3491	4157	4328	3894	3128	2334	1892	1845	1990	2133	2128	1949	1668	1307	1005	773.7	593.4	505.0	270.8	109.9	66.74	65.71	152.6	323.4	852.4	1544	268.3	6.552	1.559	1.286	2.050	2.680	3.424	4.200	4.767	4.823	3.927	3.249	2.451	2.291	2.587	2.625	3.477	4.288	4.990	6.391	7.243	8.135	9.355	12.46	13.37	14.09	12.95	12.71	12.71	10.77	10.15	8.847	8.125	7.668	7.808	7.667	8.457	8.620	8.835	9.134	9.138	9.433	9.612	9.365	9.662	8.991	8.057	7.791	7.296
360.0	1795	2464	3383	3972	4109	3720	2981	2262	1810	1760	1897	2041	2025	1877	1594	1267	987.4	755.3	554.4	455.6	372.4	165.9	80.88	55.50	60.63	89.90	238.2	1166	1418	47.15	3.198	1.558	2.406	2.746	3.461	4.233	4.836	4.675	3.729	2.984	2.185	2.138	2.237	2.540	3.331	3.874	4.972	5.934	7.143	7.820	8.963	12.24	12.68	13.35	12.76	12.50	12.38	10.57	9.111	8.384	7.952	7.427	7.500	7.561	7.822	7.919	8.436	8.541	9.190	9.237	9.619	9.114	9.140	8.758	7.898	7.582	7.074
365.0	1672	2314	3079	3685	3803	3475	2793	2122	1705	1661	1766	1898	1885	1739	1488	1198	948.2	730.7	540.6	401.6	370.1	264.7	107.1	62.53	46.39	42.22	69.95	347.3	1355	1170	38.84	2.086	2.336	2.587	3.180	4.083	4.262	4.178	3.591	2.923	2.154	2.273	2.301	2.379	3.118	3.798	4.415	5.552	6.723	7.253	8.434	11.35	12.09	12.61	12.04	11.24	10.96	10.10	8.853	7.622	7.252	7.014	6.806	7.223	7.600	7.741	7.991	8.076	8.484	8.511	8.325	8.878	8.700	8.349	7.591	6.978	6.644
370.0	1478	2074	2704	3178	3336	3023	2464	1878	1544	1483	1577	1675	1660	1543	1339	1085	868.1	686.2	521.2	380.0	297.9	285.3	206.8	93.90	54.04	40.04	36.81	92.01	390.0	1006	1078	174.6	12.61	2.614	3.059	3.544	4.004	3.768	3.159	2.717	2.073	2.042	2.056	2.184	2.745	3.441	4.023	4.972	5.821	6.372	7.399	9.912	10.52	10.93	10.45	9.904	9.634	8.714	8.174	7.126	6.656	6.381	6.549	6.294	6.785	6.870	7.156	7.213	7.476	7.587	7.646	7.597	7.651	7.293	7.097	6.536	6.047
375.0	1278	1771	2261	2667	2772	2502	2093	1634	1352	1300	1374	1453	1434	1332	1152	949.7	778.2	632.0	499.8	370.7	274.3	228.4	249.0	182.6	76.90	49.12	36.86	38.34	98.60	240.3	660.9	1269	302.3	9.711	2.812	3.128	3.377	3.364	2.878	2.322	1.888	1.691	1.746	1.758	2.205	3.086	3.461	4.244	4.940	5.216	6.205	8.016	8.541	9.006	8.924	8.682	8.427	7.339	7.091	6.438	5.751	5.435	5.729	5.794	5.871	5.687	6.148	6.372	6.270	6.253	6.765	6.565	6.186	6.525	5.940	5.519	5.451
380.0	1188	1567	1949	2288	2413	2170	1821	1440	1218	1177	1240	1270	1270	1175	1026	866.9	716.4	591.5	474.2	367.9	274.5	211.6	209.6	235.3	124.9	58.92	42.16	30.57	36.52	63.81	175.6	864.5	2038	191.2	4.423	3.089	3.075	3.011	2.383	2.104	1.865	1.809	1.809	1.784	2.164	2.900	2.967	3.647	4.422	4.604	5.232	7.111	7.704	7.885	7.769	7.785	7.161	6.838	6.186	5.786	5.259	5.005	5.121	5.105	5.189	5.366	5.406	5.609	5.443	5.572	5.843	5.935	5.730	6.131	5.344	5.127	5.152
385.0	1057	1408	1742	1983	2072	1905	1598	1279	1104	1065	1102	1130	1124	1043	916.2	780.9	660.8	560.8	455.7	361.4	279.2	217.1	184.6	214.0	191.5	85.86	48.90	33.20	25.79	26.34	47.39	244.2	1701	982.4	34.14	3.212	2.760	2.736	2.395	1.977	1.707	1.700	1.578	1.691	2.023	2.444	2.741	3.359	4.147	4.092	4.633	6.197	6.479	6.888	6.818	6.474	6.430	6.136	5.625	5.137	4.788	4.586	4.429	4.749	4.839	4.958	5.003	5.261	5.118	5.102	5.020	5.269	5.350	5.404	4.748	4.623	4.621
390.0	972.4	1213	1461	1639	1694	1571	1345	1101	963.8	924.8	970.1	976.1	949.8	900.0	797.3	683.1	589.5	511.4	429.4	352.1	281.1	227.0	187.8	168.5	183.8	158.6	76.10	40.72	27.80	21.11	21.53	62.30	457.0	716.9	809.8	141.8	10.01	2.584	2.171	1.901	1.535	1.522	1.526	1.609	1.734	2.163	2.322	2.985	3.498	3.468	3.928	5.010	5.227	5.397	5.575	5.607	5.485	4.774	4.716	4.512	4.062	4.287	4.041	4.143	4.247	4.179	4.325	4.517	4.410	4.440	4.483	4.572	4.611	4.633	4.239	4.159	4.159
395.0	909.9	1048	1249	1344	1359	1300	1124	955.1	846.3	811.3	843.7	835.4	804.2	764.6	689.7	603.4	524.3	468.1	407.7	342.1	282.4	233.3	197.8	161.7	144.5	165.3	142.6	55.64	33.92	24.17	19.32	23.55	108.6	169.0	455.8	830.1	214.9	8.625	2.215	1.908	1.467	1.360	1.420	1.394	1.688	1.879	2.127	2.482	2.890	2.865	3.082	4.091	4.516	4.545	4.569	4.385	4.486	4.385	4.050	3.980	3.555	3.654	3.667	3.749	3.511	3.535	3.790	3.764	3.931	3.898	3.824	3.998	3.872	3.970	3.702	3.793	3.639
400.0	827.3	958.8	1097	1123	1159	1114	977.6	849.9	764.7	741.8	751.2	755.0	714.7	677.2	618.3	540.2	487.5	437.6	383.5	332.4	281.9	239.1	204.9	166.2	135.3	134.8	162.7	100.0	42.76	27.71	20.30	16.00	32.03	43.86	118.3	519.6	774.5	35.89	3.780	1.841	1.633	1.387	1.390	1.437	1.579	1.588	1.857	2.340	2.658	2.606	2.685	3.614	3.926	4.119	3.858	3.818	3.798	3.864	3.654	3.368	3.484	3.263	3.161	3.190	3.105	3.304	3.438	3.281	3.468	3.605	3.459	3.469	3.500	3.471	3.531	3.196	3.203
405.0	788.8	880.1	973.7	990.4	997.0	970.8	870.9	772.2	705.4	677.0	684.1	676.6	646.4	610.8	563.5	498.1	455.8	408.2	370.0	325.5	277.5	240.3	207.6	170.5	135.1	117.0	134.5	139.2	56.93	32.06	22.78	16.76	16.73	16.14	31.66	142.7	592.6	612.1	30.53	2.481	1.541	1.322	1.444	1.538	1.474	1.645	1.777	2.258	2.202	2.294	2.316	3.151	3.330	3.436	3.385	3.261	3.540	3.212	3.159	3.165	3.336	2.961	3.049	2.995	3.187	2.930	3.174	2.984	3.163	3.037	3.064	3.110	3.107	3.133	3.184	3.003	2.865
410.0	719.6	802.0	831.3	846.8	849.2	802.6	746.6	675.1	630.9	608.1	603.5	595.0	567.9	534.9	494.9	444.6	407.0	378.0	346.6	310.4	270.3	236.9	206.4	173.2	139.5	114.5	103.4	118.9	109.3	55.97	27.73	19.54	15.25	11.82	13.00	36.68	159.4	432.3	414.2	139.8	8.267	1.461	1.396	1.525	1.279	1.581	1.691	1.923	1.936	1.939	2.039	2.718	2.674	2.772	2.908	2.802	2.950	2.793	2.837	2.834	2.623	2.790	2.618	2.677	2.589	2.754	2.696	2.812	2.758	2.630	2.850	2.892	2.858	2.837	2.789	2.650	2.765
