Sample:	'1
File name:	c2025080108恒立纸业集水池800倍.FD3
Run date:	'10:23:10, 08/02/2025
Operator:	dsjg
Comment:	'

Instrument
Model:	F-2700 FL Spectrophotometer
Serial number:	2198-001
ROM Version:	4J14000 07

Instrument parameters
Measurement type:	3-D scan
Data mode:	Fluorescence
EX  Start WL:	220.0 nm
EX  End WL:	600.0 nm
EX Sampling interval:	5.0 nm
EM  Start WL:	230.0 nm
EM  End WL:	650.0 nm
EM Sampling interval:	5.0 nm
Scan speed:	12000 nm/min
EX Slit:	5.0 nm
EM Slit:	5.0 nm
PMT Voltage:	700 V
Response:	Auto 
Corrected spectra:	Off
Contour interval:	50.000

Peak integration
Integration method:	Rectangular
Sensitivity:	1
Threshold:	1.000

Peaks
No.	ApexEX/EM(nm)	Height(Data)
1	225.0/625.0	10.44
2	235.0/610.0	6.972
3	235.0/625.0	6.249
4	240.0/265.0	180.3
5	240.0/395.0	 2686
6	240.0/525.0	75.79
7	245.0/270.0	161.3
8	245.0/540.0	59.93
9	250.0/275.0	174.9
10	250.0/550.0	45.50
11	255.0/280.0	192.3
12	255.0/565.0	36.69
13	260.0/285.0	173.3
14	260.0/575.0	26.63
15	265.0/585.0	25.39
16	270.0/300.0	257.5
17	270.0/595.0	22.22
18	275.0/305.0	282.7
19	275.0/610.0	20.80
20	280.0/310.0	246.0
21	280.0/620.0	18.07
22	285.0/315.0	235.5
23	285.0/630.0	13.58
24	290.0/325.0	218.5
25	295.0/330.0	179.6
26	300.0/335.0	184.4
27	305.0/340.0	180.7
28	305.0/395.0	 2674
29	370.0/425.0	86.54
30	375.0/430.0	64.31
31	380.0/435.0	54.55
32	385.0/445.0	48.71
33	390.0/450.0	37.44
34	395.0/455.0	34.33
35	400.0/465.0	30.62
36	405.0/470.0	23.97
37	410.0/475.0	21.87
38	415.0/485.0	19.83
39	420.0/490.0	16.53
40	425.0/395.0	9.464
41	425.0/495.0	14.28
42	430.0/505.0	12.97
43	435.0/510.0	10.07
44	440.0/520.0	9.184
45	445.0/525.0	8.136
46	450.0/530.0	6.525
47	455.0/540.0	5.681
48	460.0/545.0	4.869
49	490.0/395.0	13.67
50	520.0/285.0	1.484
51	540.0/295.0	1.503
52	550.0/305.0	1.633

Data points
	220.0	225.0	230.0	235.0	240.0	245.0	250.0	255.0	260.0	265.0	270.0	275.0	280.0	285.0	290.0	295.0	300.0	305.0	310.0	315.0	320.0	325.0	330.0	335.0	340.0	345.0	350.0	355.0	360.0	365.0	370.0	375.0	380.0	385.0	390.0	395.0	400.0	405.0	410.0	415.0	420.0	425.0	430.0	435.0	440.0	445.0	450.0	455.0	460.0	465.0	470.0	475.0	480.0	485.0	490.0	495.0	500.0	505.0	510.0	515.0	520.0	525.0	530.0	535.0	540.0	545.0	550.0	555.0	560.0	565.0	570.0	575.0	580.0	585.0	590.0	595.0	600.0
230.0	62.45	 1185	 2149	479.2	13.14	4.486	3.579	2.710	2.272	1.559	1.184	1.197	1.193	1.153	1.073	1.157	1.049	1.199	1.067	1.046	0.924	0.861	0.690	0.556	0.578	0.442	0.379	0.306	0.270	0.293	0.286	0.277	0.238	0.227	0.276	0.268	0.312	0.274	0.261	0.250	0.306	0.461	0.528	0.348	0.241	0.230	0.452	2.765	5.887	5.530	2.687	0.575	0.196	0.175	0.174	0.149	0.155	0.166	0.141	0.149	0.160	0.167	0.157	0.144	0.149	0.169	0.181	0.141	0.177	0.166	0.149	0.149	0.171	0.155	0.163	0.150	0.184
235.0	76.98	328.7	 1375	 1802	420.6	14.97	4.202	2.321	2.450	1.661	1.819	0.976	1.374	1.376	1.134	1.137	1.062	1.138	0.964	1.073	1.034	0.792	0.808	0.536	0.589	0.397	0.335	0.295	0.219	0.255	0.237	0.247	0.305	0.372	0.234	0.229	0.330	0.317	0.283	0.286	0.228	0.284	0.401	0.544	0.382	0.404	0.265	0.885	1.844	3.479	4.924	5.827	3.248	0.965	0.193	0.128	0.143	0.174	0.205	0.134	0.186	0.156	0.140	0.141	0.113	0.147	0.136	0.152	0.173	0.181	0.152	0.169	0.135	0.158	0.193	0.171	0.142
240.0	123.9	125.7	426.7	 1555	 1614	281.3	7.772	2.791	2.390	1.538	2.076	1.244	1.504	1.230	1.097	1.199	1.217	1.261	1.302	1.087	1.198	0.786	0.711	0.545	0.454	0.300	0.300	0.383	0.337	0.251	0.259	0.204	0.290	0.311	0.228	0.175	0.241	0.286	0.276	0.273	0.222	0.368	0.243	0.305	0.450	0.523	0.407	0.377	0.538	1.019	2.137	5.065	6.953	5.350	1.995	0.391	0.154	0.187	0.201	0.161	0.145	0.144	0.160	0.180	0.155	0.175	0.155	0.144	0.165	0.143	0.119	0.161	0.128	0.148	0.173	0.146	0.146
245.0	108.3	135.2	124.9	570.4	 1744	 1302	161.4	4.145	2.244	1.507	1.665	1.195	1.930	1.402	1.258	1.144	1.135	1.206	1.081	1.168	1.054	0.746	0.744	0.651	0.493	0.389	0.375	0.393	0.287	0.328	0.263	0.200	0.295	0.286	0.252	0.164	0.194	0.231	0.242	0.279	0.216	0.256	0.245	0.210	0.291	0.410	0.705	0.605	0.350	0.398	0.618	1.559	3.851	6.552	6.771	3.933	1.171	0.259	0.210	0.210	0.175	0.144	0.189	0.161	0.130	0.155	0.231	0.150	0.172	0.157	0.143	0.183	0.147	0.182	0.149	0.160	0.157
250.0	44.09	112.2	143.8	166.7	593.7	 1320	 1301	216.3	18.14	1.884	1.722	1.197	1.469	1.316	1.487	1.089	1.264	1.237	1.171	1.036	0.971	0.886	0.763	0.685	0.487	0.434	0.380	0.376	0.284	0.237	0.261	0.224	0.296	0.253	0.262	0.193	0.184	0.225	0.230	0.289	0.274	0.249	0.269	0.234	0.205	0.267	0.349	0.583	0.660	0.591	0.459	0.541	1.068	2.013	3.430	4.804	5.203	4.313	2.383	0.863	0.230	0.165	0.150	0.170	0.148	0.167	0.199	0.163	0.148	0.138	0.152	0.143	0.158	0.176	0.216	0.180	0.212
255.0	23.89	37.10	123.5	166.9	166.8	348.3	 1041	 1487	278.9	14.51	2.644	1.936	1.816	1.270	1.259	1.357	1.333	1.175	1.198	0.958	0.863	0.822	0.901	0.611	0.489	0.423	0.382	0.313	0.301	0.313	0.266	0.298	0.392	0.236	0.242	0.233	0.204	0.234	0.259	0.241	0.245	0.229	0.241	0.241	0.224	0.217	0.263	0.329	0.318	0.436	0.664	0.811	0.668	0.656	0.923	1.252	1.721	3.552	5.171	5.691	3.157	1.012	0.214	0.147	0.226	0.127	0.147	0.159	0.207	0.189	0.172	0.125	0.182	0.157	0.193	0.177	0.125
260.0	13.89	17.67	51.64	163.9	139.4	97.11	329.9	 1260	 1270	204.2	6.946	2.142	1.912	1.433	1.381	1.359	1.187	1.289	1.336	1.172	1.076	0.913	0.915	0.761	0.536	0.394	0.346	0.339	0.317	0.253	0.231	0.322	0.302	0.283	0.174	0.258	0.210	0.212	0.207	0.235	0.209	0.272	0.288	0.187	0.263	0.208	0.263	0.226	0.230	0.227	0.378	0.825	1.065	0.672	0.477	0.437	0.534	1.090	2.199	4.424	6.210	5.244	2.367	0.424	0.197	0.185	0.167	0.177	0.164	0.144	0.157	0.190	0.157	0.168	0.163	0.148	0.166
265.0	14.50	7.651	19.11	86.23	180.3	92.01	86.70	448.0	 1309	 1040	146.9	4.326	1.940	1.721	1.444	1.538	1.385	1.286	1.306	1.369	0.984	0.861	0.932	0.676	0.629	0.462	0.429	0.409	0.363	0.257	0.359	0.308	0.299	0.268	0.225	0.304	0.245	0.221	0.255	0.226	0.230	0.261	0.253	0.245	0.259	0.229	0.227	0.227	0.176	0.174	0.173	0.450	0.769	1.067	0.921	0.504	0.300	0.445	0.665	1.462	2.960	5.283	6.102	4.276	1.288	0.263	0.193	0.224	0.171	0.169	0.122	0.192	0.177	0.175	0.147	0.129	0.173
270.0	14.04	10.67	9.979	27.29	96.79	161.3	106.7	120.7	427.1	923.8	965.0	369.9	26.12	2.161	1.665	1.599	1.431	1.237	1.289	1.121	1.074	0.812	0.901	0.621	0.575	0.451	0.487	0.374	0.358	0.279	0.311	0.292	0.296	0.282	0.259	0.239	0.237	0.218	0.203	0.219	0.185	0.200	0.245	0.262	0.243	0.236	0.248	0.205	0.192	0.182	0.163	0.234	0.360	0.554	0.807	0.996	0.851	0.551	0.389	0.525	0.884	1.643	2.772	4.138	4.790	4.486	2.870	1.187	0.286	0.157	0.165	0.164	0.145	0.184	0.175	0.194	0.188
275.0	15.20	9.471	9.466	10.08	28.00	84.00	174.9	126.5	110.6	244.1	631.8	 1104	190.7	20.99	2.243	1.471	1.638	1.344	1.424	1.246	1.415	0.975	0.812	0.776	0.545	0.404	0.475	0.395	0.289	0.310	0.251	0.322	0.296	0.306	0.223	0.238	0.273	0.226	0.249	0.223	0.263	0.200	0.278	0.197	0.258	0.268	0.207	0.198	0.244	0.202	0.171	0.178	0.205	0.243	0.303	0.424	0.830	1.196	1.166	0.614	0.373	0.500	0.743	1.121	1.623	2.820	5.032	5.902	3.735	1.028	0.205	0.205	0.124	0.202	0.181	0.197	0.151
280.0	19.21	13.05	7.720	8.072	11.05	31.76	124.3	192.3	88.50	69.14	199.6	767.4	 1010	155.3	8.341	1.821	1.865	1.731	1.289	1.266	1.332	1.057	0.814	0.753	0.554	0.531	0.499	0.415	0.359	0.387	0.270	0.367	0.342	0.281	0.296	0.255	0.302	0.284	0.233	0.259	0.261	0.202	0.208	0.232	0.235	0.261	0.266	0.243	0.228	0.184	0.159	0.222	0.208	0.196	0.204	0.208	0.386	0.762	1.178	1.290	0.822	0.369	0.325	0.430	0.541	0.868	1.995	4.038	6.214	5.705	2.487	0.596	0.189	0.189	0.121	0.134	0.188
285.0	26.25	17.56	13.23	8.208	7.521	14.75	51.75	165.9	173.3	55.86	64.17	262.4	819.2	911.4	113.6	3.703	1.914	1.902	1.519	1.276	1.288	0.979	1.013	0.727	0.632	0.519	0.433	0.394	0.407	0.409	0.331	0.340	0.401	0.349	0.376	0.286	0.349	0.313	0.214	0.278	0.273	0.267	0.201	0.250	0.201	0.259	0.299	0.246	0.261	0.232	0.184	0.169	0.208	0.216	0.194	0.244	0.273	0.311	0.627	1.069	1.484	0.944	0.443	0.297	0.313	0.440	0.693	1.265	2.730	4.737	6.245	4.255	1.431	0.227	0.192	0.166	0.168
290.0	31.89	22.37	18.20	11.02	9.712	10.70	21.28	72.56	167.2	177.3	80.77	90.26	267.3	618.2	756.1	366.0	23.25	2.221	1.635	1.436	1.330	1.132	0.949	0.867	0.657	0.516	0.414	0.402	0.450	0.444	0.393	0.277	0.388	0.394	0.498	0.459	0.406	0.337	0.269	0.289	0.271	0.267	0.273	0.275	0.221	0.228	0.287	0.259	0.288	0.210	0.212	0.177	0.199	0.208	0.190	0.214	0.211	0.242	0.340	0.497	0.768	1.025	1.294	1.039	0.676	0.432	0.429	0.556	0.893	1.520	2.624	3.560	4.521	4.375	2.738	0.904	0.252
295.0	42.51	32.00	23.48	15.91	13.43	12.32	17.82	34.49	77.01	185.5	223.8	91.45	97.17	175.2	397.1	864.7	510.1	18.54	2.068	1.834	1.744	1.101	1.026	0.799	0.803	0.510	0.561	0.421	0.423	0.385	0.324	0.298	0.392	0.434	0.579	0.472	0.453	0.317	0.353	0.351	0.249	0.288	0.374	0.255	0.270	0.262	0.280	0.296	0.302	0.245	0.218	0.226	0.202	0.216	0.223	0.250	0.174	0.234	0.273	0.363	0.402	0.450	0.720	1.243	1.503	1.249	0.647	0.386	0.529	0.696	0.868	1.032	1.508	2.554	4.900	6.277	3.371
300.0	46.30	42.76	26.50	17.92	14.24	15.77	18.66	28.41	46.59	117.4	257.5	197.3	75.46	70.76	128.5	508.2	957.6	95.81	7.608	2.052	1.564	1.355	1.149	1.111	0.726	0.513	0.431	0.424	0.403	0.366	0.324	0.382	0.440	0.458	0.594	0.530	0.504	0.484	0.386	0.382	0.229	0.350	0.261	0.326	0.293	0.293	0.290	0.246	0.328	0.314	0.244	0.216	0.232	0.219	0.236	0.241	0.267	0.193	0.281	0.320	0.366	0.452	0.479	0.658	1.205	1.622	1.631	0.726	0.514	0.498	0.478	0.525	0.557	0.892	1.960	4.057	6.483
305.0	58.81	45.58	29.17	21.49	16.97	18.83	22.59	29.91	42.72	76.38	181.5	282.7	139.0	53.45	51.91	169.3	617.9	746.4	76.16	3.486	1.873	1.469	1.256	1.080	0.711	0.618	0.452	0.441	0.435	0.380	0.316	0.311	0.458	0.497	0.596	0.548	0.578	0.420	0.337	0.358	0.342	0.280	0.343	0.396	0.251	0.293	0.315	0.252	0.287	0.292	0.256	0.276	0.278	0.221	0.234	0.279	0.322	0.225	0.335	0.358	0.304	0.360	0.447	0.510	0.657	1.095	1.633	1.620	1.023	0.506	0.450	0.359	0.385	0.514	0.627	1.304	3.007
310.0	53.85	48.81	32.66	22.89	22.15	21.69	24.87	32.54	41.71	60.71	102.3	197.9	246.0	117.7	41.14	57.34	188.0	489.2	650.3	295.4	17.44	1.853	1.507	1.085	0.810	0.636	0.612	0.378	0.410	0.349	0.371	0.338	0.382	0.527	0.677	0.563	0.558	0.485	0.355	0.349	0.318	0.326	0.337	0.332	0.323	0.347	0.274	0.271	0.247	0.245	0.246	0.265	0.270	0.289	0.303	0.290	0.316	0.263	0.354	0.386	0.320	0.393	0.386	0.496	0.477	0.745	0.905	1.248	1.399	1.360	0.882	0.497	0.387	0.382	0.343	0.519	0.912
315.0	66.92	52.99	38.76	26.82	24.41	25.00	27.50	35.54	44.42	58.13	78.79	111.6	176.5	235.5	97.35	37.61	60.67	128.7	307.8	800.4	415.1	13.63	1.499	1.232	1.065	0.623	0.715	0.494	0.506	0.486	0.380	0.346	0.358	0.547	0.667	0.583	0.565	0.358	0.421	0.386	0.422	0.356	0.354	0.307	0.305	0.337	0.251	0.307	0.240	0.273	0.234	0.288	0.298	0.273	0.286	0.318	0.350	0.255	0.373	0.398	0.364	0.481	0.396	0.472	0.464	0.565	0.663	0.685	0.806	1.019	1.337	1.374	0.716	0.410	0.382	0.357	0.447
320.0	70.10	67.84	47.10	29.64	27.27	30.13	27.24	35.48	45.91	58.29	73.48	86.78	114.2	208.9	196.4	51.70	34.05	42.68	92.89	423.9	887.1	69.67	5.414	1.610	1.088	0.881	0.663	0.613	0.501	0.493	0.435	0.409	0.440	0.568	0.650	0.626	0.573	0.481	0.388	0.377	0.340	0.380	0.288	0.295	0.322	0.330	0.295	0.236	0.287	0.253	0.214	0.229	0.315	0.308	0.291	0.299	0.320	0.281	0.379	0.373	0.379	0.424	0.505	0.523	0.542	0.524	0.601	0.530	0.557	0.673	0.964	1.261	1.427	0.857	0.452	0.284	0.425
325.0	81.26	85.11	53.61	39.00	31.59	28.09	33.95	37.42	44.80	59.16	70.07	81.33	90.19	129.0	218.5	117.6	34.09	25.29	32.88	128.4	548.9	790.1	57.45	2.530	1.311	0.867	0.670	0.625	0.602	0.522	0.409	0.424	0.390	0.476	0.680	0.593	0.534	0.453	0.402	0.331	0.412	0.425	0.310	0.334	0.298	0.374	0.361	0.350	0.390	0.320	0.217	0.295	0.334	0.392	0.352	0.257	0.313	0.361	0.308	0.403	0.328	0.466	0.507	0.526	0.469	0.515	0.522	0.541	0.491	0.601	0.599	0.693	1.214	1.401	1.092	0.429	0.400
330.0	92.68	91.84	72.36	49.57	38.63	36.42	36.89	38.72	46.49	56.91	68.05	79.63	82.35	86.87	128.6	179.6	112.4	32.74	23.41	42.79	157.7	464.8	561.2	236.2	14.33	1.194	0.883	0.732	0.648	0.496	0.433	0.383	0.395	0.535	0.555	0.513	0.505	0.420	0.401	0.371	0.378	0.394	0.388	0.403	0.321	0.443	0.414	0.470	0.388	0.358	0.269	0.318	0.324	0.319	0.378	0.367	0.421	0.373	0.323	0.368	0.356	0.431	0.466	0.477	0.544	0.474	0.535	0.503	0.534	0.579	0.519	0.521	0.687	0.868	1.161	1.127	0.917
335.0	119.5	107.0	88.23	64.68	48.97	41.11	39.05	40.46	47.84	58.67	70.24	78.63	82.92	79.86	78.84	108.5	184.4	91.35	30.55	29.49	53.08	122.6	268.1	764.6	344.7	12.33	1.273	0.839	0.668	0.525	0.507	0.431	0.444	0.542	0.649	0.502	0.567	0.467	0.529	0.425	0.358	0.406	0.418	0.360	0.328	0.387	0.459	0.474	0.478	0.441	0.386	0.325	0.399	0.327	0.341	0.351	0.429	0.404	0.401	0.395	0.371	0.464	0.506	0.494	0.612	0.507	0.482	0.558	0.570	0.567	0.469	0.408	0.560	0.493	0.603	0.761	1.219
340.0	132.1	126.5	96.90	73.17	53.93	51.20	41.38	43.46	48.83	59.96	70.17	78.06	82.11	80.10	72.98	74.73	136.5	180.7	66.92	33.57	36.26	47.76	83.60	397.6	825.3	57.26	4.433	1.163	0.765	0.630	0.624	0.551	0.440	0.525	0.504	0.617	0.497	0.500	0.464	0.458	0.372	0.411	0.351	0.371	0.408	0.479	0.552	0.547	0.535	0.451	0.395	0.442	0.427	0.407	0.432	0.376	0.413	0.461	0.374	0.393	0.356	0.557	0.489	0.422	0.536	0.461	0.547	0.487	0.632	0.501	0.533	0.458	0.521	0.533	0.401	0.556	0.762
345.0	132.9	137.9	114.0	83.14	69.72	61.04	48.34	48.42	51.62	61.65	71.42	76.34	85.57	83.13	78.96	70.92	91.31	175.8	150.3	54.88	42.51	40.64	40.49	120.8	526.3	709.9	48.16	2.461	1.118	0.675	0.623	0.509	0.477	0.589	0.517	0.603	0.522	0.511	0.426	0.483	0.420	0.485	0.427	0.449	0.504	0.507	0.522	0.596	0.561	0.491	0.399	0.500	0.476	0.560	0.470	0.434	0.523	0.530	0.467	0.404	0.503	0.520	0.463	0.497	0.606	0.510	0.598	0.589	0.607	0.526	0.510	0.494	0.540	0.502	0.472	0.529	0.528
350.0	197.2	175.8	143.2	131.2	119.3	105.7	79.23	67.94	60.49	67.40	75.62	82.95	97.70	104.2	108.9	104.7	107.0	145.6	203.7	155.4	94.14	65.06	55.20	58.50	157.9	432.7	495.4	206.6	13.24	1.275	0.804	0.626	0.531	0.551	0.592	0.579	0.583	0.575	0.511	0.605	0.576	0.651	0.596	0.666	0.637	0.702	0.677	0.704	0.656	0.596	0.537	0.731	0.678	0.753	0.737	0.732	0.667	0.599	0.559	0.536	0.577	0.540	0.557	0.565	0.604	0.555	0.556	0.615	0.643	0.643	0.651	0.651	0.693	0.679	0.692	0.648	0.740
355.0	320.1	282.2	245.2	235.7	244.9	218.1	159.5	116.2	84.94	79.92	92.50	106.2	133.5	163.2	189.3	208.8	222.7	239.0	258.2	304.7	264.5	163.8	121.5	89.65	83.02	131.1	243.5	682.0	305.6	12.38	1.114	0.770	0.642	0.674	0.702	0.781	0.887	0.846	0.912	0.974	1.010	1.018	0.988	0.988	1.044	0.927	0.974	1.117	1.058	0.949	0.956	1.183	1.317	1.304	1.368	1.323	1.195	1.054	0.835	0.807	0.738	0.762	0.595	0.642	0.600	0.706	0.821	0.824	0.789	0.909	0.874	1.011	0.963	1.034	1.096	1.212	1.477
360.0	500.9	419.6	388.7	392.9	421.8	370.6	268.2	184.1	119.8	104.5	114.8	141.0	190.1	249.8	309.7	356.0	395.1	407.8	407.4	430.2	455.5	326.8	220.8	154.6	108.0	81.03	93.30	358.0	718.1	53.31	4.835	1.085	0.868	0.814	1.021	0.924	1.302	1.171	1.360	1.528	1.405	1.576	1.615	1.492	1.580	1.418	1.371	1.478	1.463	1.376	1.403	1.951	2.063	2.228	2.291	2.062	1.992	1.729	1.387	1.242	1.019	0.981	0.720	0.760	0.689	0.726	0.857	1.006	1.002	1.094	1.301	1.459	1.550	1.740	1.807	1.917	2.250
365.0	768.0	642.0	622.1	635.0	646.7	576.8	441.2	285.2	166.5	133.0	150.6	196.3	273.3	381.2	485.4	568.6	639.5	665.9	655.4	639.7	632.9	552.1	377.0	255.0	170.2	108.3	70.32	121.7	466.7	623.9	45.50	2.380	1.194	1.149	1.208	1.285	1.538	1.915	2.005	2.438	2.295	2.418	2.425	2.339	2.253	2.211	2.135	2.177	2.080	2.167	2.256	3.026	3.065	3.603	3.649	3.463	3.161	2.724	2.315	1.730	1.360	1.110	0.994	0.952	0.941	1.062	1.124	1.324	1.478	1.779	1.935	2.160	2.313	2.822	2.693	3.206	3.275
370.0	 1306	 1062	 1012	 1063	 1159	 1053	783.3	467.0	267.7	197.5	221.8	295.9	450.9	632.3	820.7	985.2	 1094	 1161	 1147	 1095	 1009	893.2	681.8	453.5	297.4	185.2	108.9	78.18	145.4	385.2	455.7	180.3	11.36	1.669	1.803	2.104	2.546	2.986	3.388	3.764	4.063	4.079	3.990	4.044	3.839	3.541	3.204	3.425	3.517	3.604	3.629	4.929	5.509	5.867	5.827	5.759	5.484	4.538	3.731	2.878	2.128	1.544	1.380	1.243	1.377	1.380	1.553	1.827	2.123	2.467	2.916	3.462	3.682	4.453	4.934	5.380	5.798
375.0	 1937	 1562	 1520	 1647	 1753	 1587	 1182	693.5	388.0	271.0	304.5	427.5	645.8	928.1	 1207	 1467	 1648	 1731	 1715	 1635	 1473	 1251	 1008	744.9	459.1	279.0	165.3	94.38	71.54	108.3	216.9	576.6	257.5	10.80	2.786	3.022	3.498	4.247	4.955	5.475	5.915	6.183	6.189	5.765	5.323	5.111	4.709	5.016	5.131	4.977	5.441	6.949	8.146	8.337	8.672	8.324	7.914	6.600	5.388	4.022	3.103	2.255	1.823	1.723	1.726	1.901	1.921	2.553	2.899	3.541	4.187	4.749	5.797	6.336	6.852	7.968	8.509
380.0	 2356	 1888	 1837	 2002	 2123	 1953	 1424	860.7	463.7	322.2	363.8	514.1	771.4	 1116	 1479	 1781	 2018	 2103	 2083	 1993	 1789	 1494	 1183	912.1	596.0	345.3	202.4	113.1	63.39	49.06	67.66	299.6	601.9	44.71	5.258	3.679	4.071	5.089	5.828	6.620	6.924	7.477	7.068	6.641	6.339	6.250	5.557	5.934	6.332	6.088	6.780	8.772	9.808	10.41	10.52	10.26	9.436	8.049	6.542	4.797	3.618	2.604	2.243	1.864	2.146	2.321	2.407	2.909	3.503	4.225	5.086	5.758	7.064	7.714	8.408	9.713	10.42
385.0	 2689	 2131	 2088	 2272	 2394	 2201	 1623	968.1	519.5	356.9	397.0	577.4	869.0	 1250	 1664	 2005	 2277	 2380	 2359	 2253	 2019	 1691	 1311	980.4	703.9	408.8	232.1	127.0	66.86	37.42	31.77	87.98	390.2	489.6	36.49	4.578	4.715	6.004	6.503	7.359	8.047	8.251	8.106	7.288	7.161	6.925	6.344	6.943	6.910	6.543	7.694	10.17	11.42	11.77	11.95	11.51	10.88	8.952	7.102	5.352	3.953	3.040	2.242	1.886	2.151	2.466	2.779	3.312	3.672	4.834	5.473	6.513	7.528	8.443	9.622	10.62	11.96
390.0	 2946	 2380	 2291	 2494	 2633	 2414	 1780	 1054	564.1	393.0	438.6	618.8	930.0	 1366	 1814	 2191	 2478	 2595	 2572	 2454	 2206	 1848	 1430	 1041	738.8	496.2	276.8	143.0	75.12	40.98	25.86	30.79	105.6	294.4	344.5	139.1	12.53	6.203	6.936	8.211	8.571	8.922	8.707	8.455	7.659	7.332	6.747	7.271	7.464	7.341	8.187	11.27	12.05	12.92	13.17	12.69	12.16	10.01	7.999	5.687	4.122	3.162	2.530	2.082	2.412	2.500	2.951	3.701	4.242	5.104	6.158	6.951	8.362	9.446	10.62	11.66	13.00
395.0	 3036	 2451	 2375	 2560	 2686	 2491	 1847	 1093	584.4	401.3	443.9	636.8	962.4	 1405	 1861	 2247	 2558	 2674	 2660	 2532	 2279	 1912	 1486	 1071	732.1	503.7	333.9	171.1	83.57	46.49	27.95	19.77	30.97	72.73	157.4	428.8	199.3	11.94	7.428	8.900	8.787	9.464	9.022	8.635	8.036	8.095	7.127	7.661	7.696	7.824	8.359	11.46	12.51	13.21	13.67	13.08	12.07	10.32	7.991	6.167	4.195	3.175	2.635	2.240	2.390	2.438	2.968	3.719	4.197	5.336	6.397	7.548	8.573	9.900	10.77	12.19	12.97
400.0	 2991	 2437	 2358	 2503	 2669	 2490	 1855	 1093	573.8	399.2	446.1	632.3	956.7	 1379	 1833	 2232	 2512	 2643	 2614	 2494	 2257	 1894	 1477	 1066	724.4	479.5	339.4	206.8	94.27	50.10	30.06	19.28	15.74	22.65	44.00	222.3	436.9	38.98	9.581	8.530	8.779	8.970	8.914	8.581	8.047	8.279	6.821	7.725	8.035	7.694	8.316	11.49	12.51	12.94	13.20	12.59	11.95	10.33	8.190	6.189	4.456	3.279	2.448	2.321	2.377	2.545	2.918	3.686	4.208	5.120	6.371	7.142	8.377	9.629	10.47	12.36	13.41
405.0	 2934	 2341	 2295	 2436	 2572	 2391	 1777	 1056	560.5	391.3	430.3	600.5	918.6	 1335	 1765	 2129	 2415	 2536	 2516	 2400	 2169	 1823	 1427	 1033	705.8	457.8	308.8	229.7	113.8	53.78	32.52	20.11	13.18	12.25	15.70	62.74	276.6	295.5	33.76	8.928	9.010	8.841	8.550	8.272	7.746	7.531	6.864	7.303	7.624	7.357	8.114	10.86	11.85	12.38	12.77	12.25	11.60	9.722	8.039	6.094	4.286	3.093	2.530	2.341	2.135	2.524	2.986	3.271	3.812	4.922	5.822	7.012	7.986	9.190	10.07	11.83	12.71
410.0	 2697	 2158	 2097	 2224	 2353	 2204	 1619	986.6	526.1	363.9	398.1	554.2	841.5	 1220	 1607	 1942	 2205	 2302	 2290	 2196	 1995	 1676	 1322	962.7	659.3	430.2	274.9	194.3	141.2	72.94	36.57	20.94	13.51	10.68	9.899	19.96	75.38	204.0	277.0	118.7	13.71	8.211	8.136	7.482	7.064	6.915	6.259	6.692	6.946	6.628	7.451	9.851	10.94	11.29	11.67	11.12	10.75	9.105	7.115	5.493	3.873	2.685	2.266	2.192	2.017	2.321	2.721	3.126	3.817	4.335	5.447	6.354	7.485	8.257	9.353	10.64	11.14
