Sample:	'1
File name:	t2025052206杨家围子南桥东沟 20倍.FD3
Run date:	'14:06:25, 05/23/2025
Operator:	Administrator
Comment:	'

Instrument
Model:	F-2700 FL Spectrophotometer
Serial number:	23B8-004
ROM Version:	4J14000 07

Instrument parameters
Measurement type:	3-D scan
Data mode:	Fluorescence
EX  Start WL:	220.0 nm
EX  End WL:	600.0 nm
EX Sampling interval:	5.0 nm
EM  Start WL:	230.0 nm
EM  End WL:	650.0 nm
EM Sampling interval:	5.0 nm
Scan speed:	12000 nm/min
EX Slit:	5.0 nm
EM Slit:	5.0 nm
PMT Voltage:	700 V
Response:	Auto 
Corrected spectra:	Off
Contour interval:	50.000

Peak integration
Integration method:	Rectangular
Sensitivity:	1
Threshold:	1.000

Peaks
No.	ApexEX/EM(nm)	Height(Data)
1	225.0/295.0	3540
2	225.0/400.0	277.3
3	225.0/420.0	258.7
4	225.0/490.0	233.1
5	225.0/580.0	377.0
6	230.0/500.0	215.0
7	235.0/510.0	168.3
8	240.0/265.0	406.6
9	240.0/525.0	159.7
10	245.0/270.0	416.2
11	245.0/535.0	142.3
12	250.0/275.0	535.5
13	250.0/550.0	119.0
14	255.0/280.0	675.8
15	255.0/560.0	121.1
16	260.0/445.0	199.1
17	260.0/575.0	118.3
18	265.0/290.0	947.2
19	265.0/585.0	126.8
20	270.0/300.0	1187
21	270.0/595.0	106.0
22	275.0/305.0	1136
23	275.0/610.0	80.28
24	280.0/310.0	772.2
25	280.0/625.0	53.42
26	285.0/315.0	603.4
27	285.0/635.0	37.01
28	290.0/325.0	493.9
29	295.0/330.0	366.0
30	300.0/335.0	328.0
31	305.0/340.0	295.1
32	310.0/350.0	226.7
33	315.0/355.0	215.3
34	320.0/360.0	218.7
35	325.0/370.0	181.1
36	330.0/375.0	177.0
37	335.0/380.0	188.1
38	340.0/385.0	160.0
39	345.0/395.0	143.8
40	350.0/400.0	146.0
41	355.0/405.0	131.2
42	360.0/415.0	108.8
43	365.0/420.0	111.6
44	370.0/425.0	99.29
45	380.0/440.0	75.82
46	385.0/445.0	65.86
47	395.0/460.0	47.74
48	400.0/465.0	41.88
49	405.0/470.0	33.08
50	410.0/475.0	28.38
51	415.0/485.0	25.65
52	420.0/490.0	21.14
53	425.0/495.0	18.74
54	430.0/505.0	17.34
55	435.0/510.0	13.85
56	440.0/515.0	12.29
57	445.0/525.0	10.80
58	450.0/530.0	8.887
59	455.0/295.0	8.672
60	460.0/545.0	6.420
61	470.0/560.0	3.835
62	495.0/270.0	2.245
63	505.0/275.0	3.286
64	520.0/285.0	4.807
65	530.0/290.0	5.157
66	540.0/295.0	6.507
67	545.0/300.0	6.475
68	550.0/305.0	5.929
69	560.0/310.0	4.705
70	570.0/315.0	3.720
71	580.0/320.0	3.924
72	585.0/325.0	3.437

Data points
	220.0	225.0	230.0	235.0	240.0	245.0	250.0	255.0	260.0	265.0	270.0	275.0	280.0	285.0	290.0	295.0	300.0	305.0	310.0	315.0	320.0	325.0	330.0	335.0	340.0	345.0	350.0	355.0	360.0	365.0	370.0	375.0	380.0	385.0	390.0	395.0	400.0	405.0	410.0	415.0	420.0	425.0	430.0	435.0	440.0	445.0	450.0	455.0	460.0	465.0	470.0	475.0	480.0	485.0	490.0	495.0	500.0	505.0	510.0	515.0	520.0	525.0	530.0	535.0	540.0	545.0	550.0	555.0	560.0	565.0	570.0	575.0	580.0	585.0	590.0	595.0	600.0
230.0	89.15	1361	3231	861.5	37.95	7.098	5.474	4.707	4.278	3.741	3.302	2.912	2.657	2.016	1.888	1.496	1.400	1.254	1.138	1.124	0.941	0.895	0.840	0.763	0.700	0.614	0.628	0.577	0.604	0.555	0.545	0.554	0.515	0.474	0.484	0.505	0.468	0.476	0.445	0.412	0.555	0.872	0.859	0.498	0.411	0.417	1.696	6.261	9.716	6.556	2.177	0.561	0.340	0.318	0.302	0.284	0.327	0.301	0.271	0.307	0.281	0.301	0.316	0.315	0.296	0.307	0.278	0.273	0.281	0.309	0.317	0.322	0.290	0.311	0.299	0.334	0.329
235.0	203.5	380.9	1859	2889	587.0	59.76	7.259	6.147	4.195	3.762	3.117	3.107	2.903	2.409	2.046	1.564	1.235	1.298	1.051	1.158	0.872	0.856	0.836	0.810	0.756	0.710	0.650	0.572	0.555	0.641	0.509	0.562	0.481	0.452	0.551	0.465	0.439	0.492	0.528	0.426	0.494	0.643	0.760	0.995	0.767	0.510	0.699	1.803	3.815	6.624	8.454	10.02	4.780	0.971	0.306	0.288	0.291	0.321	0.306	0.317	0.270	0.302	0.278	0.305	0.320	0.307	0.275	0.279	0.334	0.312	0.301	0.290	0.289	0.289	0.281	0.298	0.342
240.0	257.2	235.1	554.1	2318	2896	460.3	29.87	6.601	5.051	4.536	3.534	3.710	2.921	2.515	1.998	1.591	1.316	1.239	1.048	1.135	1.006	0.870	0.788	0.864	0.703	0.695	0.675	0.584	0.638	0.569	0.520	0.501	0.493	0.421	0.552	0.419	0.381	0.486	0.504	0.434	0.472	0.450	0.493	0.852	1.027	0.913	0.624	0.742	1.174	2.074	4.794	13.17	17.55	9.524	2.819	0.580	0.329	0.300	0.358	0.328	0.329	0.289	0.266	0.335	0.303	0.314	0.245	0.309	0.300	0.284	0.266	0.341	0.333	0.260	0.328	0.329	0.302
245.0	187.0	295.0	211.2	772.7	3010	3003	341.2	16.05	6.557	4.647	4.317	3.788	2.899	2.301	2.115	1.516	1.474	1.194	1.150	1.244	0.957	0.825	0.868	0.780	0.670	0.648	0.680	0.685	0.618	0.508	0.548	0.510	0.509	0.481	0.475	0.461	0.421	0.460	0.552	0.433	0.426	0.445	0.445	0.556	0.657	0.852	1.007	0.977	0.706	0.692	1.299	4.516	12.28	16.41	14.37	7.259	2.043	0.420	0.340	0.281	0.297	0.335	0.302	0.343	0.274	0.295	0.263	0.308	0.340	0.309	0.298	0.296	0.327	0.285	0.284	0.302	0.286
250.0	80.71	198.8	286.0	286.6	943.6	2806	3536	1181	76.09	6.715	5.482	4.348	3.450	2.733	2.225	1.983	1.714	1.450	1.352	1.288	1.025	0.923	0.834	1.028	0.812	0.696	0.713	0.740	0.667	0.676	0.636	0.609	0.567	0.582	0.466	0.455	0.477	0.497	0.507	0.470	0.464	0.436	0.405	0.475	0.419	0.483	0.707	1.041	1.188	0.954	0.801	1.397	3.154	5.427	8.938	12.40	17.28	14.90	7.997	2.205	0.420	0.313	0.368	0.315	0.270	0.332	0.288	0.301	0.344	0.298	0.308	0.301	0.352	0.341	0.334	0.305	0.347
255.0	46.06	70.04	187.4	361.4	322.6	709.3	2656	4958	1606	86.85	8.674	5.243	4.591	2.992	2.575	2.171	1.591	1.652	1.273	1.243	1.179	1.154	0.916	0.962	0.809	0.738	0.665	0.788	0.598	0.595	0.659	0.529	0.482	0.642	0.464	0.465	0.451	0.464	0.466	0.418	0.424	0.451	0.417	0.451	0.390	0.441	0.434	0.478	0.668	0.999	1.409	1.551	1.220	1.544	2.395	3.125	6.594	14.80	25.76	24.39	11.10	2.242	0.385	0.320	0.296	0.326	0.370	0.346	0.312	0.372	0.286	0.321	0.361	0.285	0.448	0.324	0.332
260.0	34.92	39.57	72.81	294.9	353.7	235.3	783.1	3763	5203	1279	38.28	7.010	5.195	4.178	2.755	2.351	1.684	1.471	1.502	1.333	1.178	1.220	0.880	0.949	0.999	0.771	0.754	0.885	0.638	0.628	0.667	0.644	0.520	0.566	0.524	0.496	0.491	0.409	0.475	0.379	0.476	0.473	0.476	0.440	0.401	0.386	0.385	0.402	0.436	0.530	0.898	1.741	1.911	1.329	0.996	1.034	1.920	4.133	11.17	23.32	31.13	22.91	8.554	1.296	0.348	0.342	0.342	0.330	0.301	0.316	0.319	0.344	0.335	0.334	0.346	0.367	0.339
265.0	43.76	36.79	34.52	135.3	406.6	292.5	235.6	1204	4897	5487	227.6	17.26	7.228	4.861	3.578	2.579	2.068	1.584	1.685	1.467	1.124	1.146	1.111	0.982	0.916	0.775	0.863	0.857	0.845	0.705	0.671	0.597	0.529	0.642	0.531	0.485	0.618	0.399	0.481	0.406	0.524	0.466	0.445	0.438	0.449	0.417	0.399	0.339	0.408	0.398	0.462	0.950	1.818	2.161	1.686	0.971	0.894	1.317	3.003	7.103	17.08	31.01	31.91	20.43	5.351	0.614	0.377	0.370	0.385	0.298	0.341	0.318	0.356	0.317	0.354	0.345	0.366
270.0	122.4	109.4	70.16	64.60	203.8	416.2	328.8	348.5	1488	4640	5968	870.5	62.60	7.653	4.616	3.322	2.641	2.018	1.877	1.696	1.385	1.341	1.099	1.101	1.003	0.802	0.837	0.884	0.709	0.722	0.729	0.593	0.562	0.586	0.534	0.582	0.494	0.540	0.619	0.477	0.514	0.594	0.543	0.678	0.613	0.566	0.590	0.499	0.509	0.435	0.383	0.523	0.835	1.303	1.932	2.245	2.093	1.385	1.225	2.032	4.412	9.142	16.13	27.62	29.23	27.75	14.24	4.683	0.813	0.350	0.348	0.347	0.347	0.325	0.354	0.325	0.394
275.0	673.5	665.2	442.2	163.8	109.2	225.5	535.5	391.4	443.9	1205	3626	8277	1309	72.28	6.890	4.383	3.299	2.655	2.426	1.812	1.527	1.461	1.146	1.117	1.065	0.920	1.074	0.896	0.767	0.747	0.865	0.626	0.684	0.667	0.798	0.738	0.723	1.160	1.113	0.881	1.050	1.164	1.291	1.581	1.865	1.900	1.753	1.948	1.474	1.174	0.615	0.581	0.659	0.727	1.017	1.301	2.267	3.286	2.745	1.503	1.709	2.798	4.312	7.102	9.272	19.35	39.45	33.14	22.17	5.985	0.721	0.372	0.325	0.406	0.440	0.329	0.369
280.0	1623	1645	1127	391.4	115.2	152.8	378.3	675.8	369.9	495.3	1179	5512	8748	976.6	34.75	6.208	4.396	3.331	2.756	1.970	1.652	1.579	1.238	1.143	1.149	1.093	1.004	0.894	0.924	0.956	0.813	0.753	0.791	0.739	0.743	0.962	1.160	1.800	1.848	1.613	1.674	2.310	2.570	3.238	3.643	3.892	4.202	4.248	3.375	2.335	1.319	0.818	0.620	0.688	0.845	0.915	1.364	2.287	3.663	3.794	2.424	2.009	2.045	2.855	3.444	5.996	14.29	28.13	49.35	33.51	18.67	3.072	0.456	0.462	0.405	0.318	0.449
285.0	2457	2485	1667	593.7	150.7	144.6	242.0	593.4	768.8	491.1	613.1	1807	7065	7888	641.0	14.04	6.033	3.867	3.274	2.585	1.754	1.790	1.506	1.308	1.219	1.184	1.018	0.981	0.809	0.932	0.827	0.828	0.743	0.699	0.865	1.106	1.663	2.777	2.463	2.361	2.586	3.166	3.825	4.395	5.342	5.890	5.862	6.053	5.066	3.473	2.017	1.000	0.831	0.661	0.811	0.895	1.145	1.428	2.350	4.064	4.807	3.472	2.354	2.766	2.764	3.136	4.756	8.625	20.08	39.83	55.96	29.55	12.85	1.625	0.448	0.400	0.432
290.0	3311	3389	2320	847.3	194.1	156.0	223.7	391.3	770.1	947.2	703.5	825.0	2099	5595	6207	1937	38.28	5.653	4.402	3.176	2.246	2.110	1.876	1.523	1.269	1.186	1.120	1.080	0.931	0.924	0.894	0.919	0.812	0.772	0.905	1.111	2.151	3.494	3.176	3.033	3.392	4.028	4.834	5.737	7.210	7.956	8.261	8.351	6.858	4.747	2.747	1.509	1.068	0.766	0.861	0.921	1.139	1.309	1.625	2.418	3.436	4.541	5.157	4.806	3.824	3.234	3.017	4.099	6.385	11.04	20.70	28.64	41.71	39.08	20.45	9.962	2.016
295.0	3472	3540	2511	933.6	209.6	163.5	213.4	321.8	526.7	927.7	1154	690.8	732.3	1357	3038	7524	759.3	41.48	6.120	4.423	2.848	2.462	1.998	1.789	1.511	1.208	1.151	1.244	0.964	1.149	0.849	0.902	0.877	0.777	0.932	1.320	2.229	3.680	3.707	3.107	3.401	4.302	5.280	6.067	7.648	8.482	8.626	8.672	7.721	5.338	3.030	1.562	1.044	0.938	0.910	0.887	1.119	1.288	1.569	1.957	2.449	2.898	3.407	5.599	6.507	5.280	3.482	3.490	3.401	3.772	5.451	7.006	10.56	17.66	36.36	53.76	32.40
300.0	3337	3441	2393	911.3	211.6	156.5	202.9	299.2	448.8	692.4	1187	920.9	449.2	401.6	793.8	4315	6149	602.0	25.03	6.032	3.596	2.641	2.309	1.817	1.820	1.519	1.366	1.276	1.000	1.038	0.970	0.857	0.901	0.817	0.925	1.398	2.344	3.346	3.698	2.795	3.286	4.259	4.928	6.135	7.080	7.957	8.069	8.657	7.658	5.231	2.985	1.649	1.007	0.929	0.914	0.927	1.170	1.212	1.623	1.773	2.252	2.474	2.853	3.854	5.387	6.475	5.437	4.063	2.961	2.188	2.061	2.287	2.971	4.634	10.49	26.00	47.73
305.0	2904	2995	2094	816.0	208.8	145.2	191.8	285.0	403.2	557.2	839.4	1136	514.4	200.5	238.5	1167	5424	5175	448.9	10.49	4.579	3.728	2.630	2.192	1.799	1.584	1.458	1.418	1.141	0.958	0.869	0.885	0.866	0.858	0.978	1.126	2.093	2.966	2.882	2.785	3.030	3.872	4.306	5.660	6.463	6.899	7.113	7.463	6.530	4.662	2.693	1.584	0.931	0.825	0.880	0.975	1.145	1.125	1.513	1.702	2.108	2.291	2.480	3.176	3.732	4.351	5.929	5.824	3.782	2.199	1.462	1.364	1.300	1.617	2.982	6.630	15.60
310.0	2246	2339	1657	676.2	186.7	132.8	177.4	250.9	349.7	456.3	573.9	767.5	772.2	302.2	133.4	307.1	1459	3914	5277	1601	25.79	4.789	3.489	2.849	1.946	1.709	1.507	1.420	1.210	1.113	0.958	0.962	0.897	0.896	0.858	1.113	1.608	2.641	2.374	2.309	2.541	3.089	3.772	4.504	4.948	5.493	5.572	6.048	5.130	3.849	2.245	1.422	0.893	0.887	0.818	0.968	1.140	1.169	1.404	1.537	1.891	2.147	2.360	2.665	2.794	3.029	3.367	4.188	4.705	3.952	2.695	1.621	1.086	1.042	1.306	2.067	4.044
315.0	1624	1713	1242	514.9	164.4	124.8	161.1	218.5	295.7	378.0	443.0	473.5	525.9	603.4	154.0	124.0	361.6	913.9	2698	6738	540.0	29.21	4.793	3.336	2.162	2.067	1.745	1.652	1.414	1.148	1.156	0.876	0.971	0.862	0.921	1.040	1.413	1.907	1.995	2.170	1.900	2.529	2.707	3.237	3.907	4.165	4.476	4.577	3.868	2.814	1.679	1.161	0.837	0.864	0.906	0.924	1.041	1.076	1.199	1.400	1.651	1.780	1.837	2.220	2.263	2.395	2.477	2.564	2.703	2.931	3.720	3.663	2.350	1.388	0.821	1.110	1.560
320.0	1286	1321	980.5	420.8	147.4	121.4	148.4	197.3	264.4	333.1	381.9	382.7	348.8	493.5	430.6	115.8	117.8	229.2	678.0	3989	4417	462.0	12.92	4.215	3.021	2.466	1.854	1.659	1.474	1.282	1.202	1.070	0.897	0.933	0.919	1.012	1.232	1.683	1.738	1.841	1.628	2.076	2.499	2.654	3.211	3.339	3.464	3.468	3.025	2.185	1.465	1.127	0.876	0.814	0.765	0.906	0.888	1.063	1.041	1.321	1.357	1.582	1.799	1.949	2.019	2.287	2.120	2.036	2.014	1.938	2.237	3.120	3.924	2.761	1.263	0.935	0.998
325.0	1032	1068	795.3	352.3	143.2	119.7	142.6	189.5	240.3	305.9	340.8	340.8	290.7	303.5	493.9	257.5	74.25	78.47	172.2	1069	4152	4024	63.72	6.895	3.444	2.825	2.022	1.709	1.612	1.518	1.309	1.082	1.017	1.094	0.817	0.866	1.007	1.516	1.433	1.473	1.494	1.789	2.112	2.210	2.690	2.630	2.868	2.842	2.634	1.803	1.295	0.984	0.789	0.676	0.771	0.903	0.935	0.991	1.136	1.182	1.271	1.516	1.686	1.928	1.916	1.956	2.035	1.850	1.800	1.656	1.551	1.830	2.551	3.437	2.979	1.707	0.949
330.0	833.5	842.8	635.5	295.5	137.7	114.8	137.9	173.0	219.3	273.6	307.7	306.5	269.5	227.4	285.6	366.0	190.5	60.33	61.35	256.9	1125	3554	4130	1200	19.77	3.940	2.847	2.132	1.768	1.658	1.309	1.170	1.192	1.071	0.963	0.853	0.947	1.272	1.271	1.313	1.282	1.489	1.736	1.781	2.007	2.208	2.258	2.331	2.062	1.532	1.227	0.965	0.877	0.702	0.772	0.812	0.955	0.997	1.130	1.117	1.190	1.413	1.571	1.759	1.793	1.736	1.812	1.666	1.756	1.547	1.462	1.428	1.585	2.002	2.292	2.607	2.315
335.0	645.4	651.5	506.5	276.1	134.5	113.8	129.1	160.0	198.6	246.6	283.8	280.7	253.1	213.8	192.6	213.2	328.0	164.8	45.74	78.26	267.3	825.0	2430	5311	437.2	21.17	3.966	2.544	2.161	1.772	1.505	1.223	1.273	1.132	1.068	0.900	0.879	1.029	1.057	1.176	1.136	1.201	1.374	1.508	1.691	1.599	1.751	1.862	1.649	1.410	1.086	0.946	0.839	0.782	0.718	0.762	0.959	0.878	1.055	1.064	1.226	1.335	1.362	1.656	1.540	1.720	1.620	1.702	1.668	1.557	1.437	1.391	1.307	1.318	1.423	1.569	1.997
340.0	546.7	556.1	440.6	250.2	136.1	119.9	133.6	160.9	188.5	232.7	269.9	272.7	253.0	210.9	173.1	145.5	235.1	295.1	79.03	41.93	79.03	201.2	618.4	3452	3608	372.5	9.806	3.423	2.359	1.804	1.747	1.432	1.214	1.059	1.157	0.927	0.947	0.961	1.110	1.112	1.049	1.182	1.355	1.347	1.590	1.572	1.438	1.671	1.520	1.168	1.030	0.987	0.769	0.842	0.728	0.732	0.933	0.993	1.073	1.058	1.090	1.154	1.330	1.471	1.626	1.641	1.476	1.626	1.627	1.556	1.490	1.407	1.297	1.197	1.259	1.059	1.174
345.0	487.4	483.9	381.8	234.9	141.6	120.0	138.0	153.6	184.3	218.9	250.5	260.0	248.0	210.7	174.5	131.4	139.9	269.6	199.5	49.74	40.77	65.27	154.4	950.4	3855	3301	53.78	5.593	3.020	2.199	1.693	1.400	1.194	1.249	1.012	1.001	0.874	1.026	1.102	1.035	1.011	1.085	1.262	1.253	1.388	1.500	1.449	1.734	1.462	1.134	0.947	0.908	0.767	0.866	0.749	0.827	0.873	1.031	1.145	1.090	1.099	1.175	1.180	1.340	1.513	1.527	1.365	1.402	1.466	1.452	1.362	1.402	1.383	1.341	1.251	1.183	1.039
350.0	441.6	421.6	343.9	221.9	147.8	132.4	139.1	154.8	182.3	209.3	234.7	245.2	237.8	208.5	174.0	133.7	111.4	146.3	226.7	142.4	52.11	40.37	55.89	230.4	1087	3014	3384	958.1	16.24	2.985	2.322	1.592	1.314	1.258	1.081	0.946	0.991	1.008	0.992	1.040	0.982	1.046	1.069	1.118	1.254	1.356	1.364	1.411	1.304	1.084	0.870	0.938	0.893	0.873	0.889	0.823	0.887	1.013	1.043	1.031	1.107	1.220	1.173	1.280	1.412	1.590	1.363	1.373	1.386	1.417	1.387	1.326	1.347	1.262	1.163	1.117	1.030
355.0	366.7	365.5	317.1	216.1	154.9	142.0	146.4	164.0	175.7	203.3	223.0	238.0	230.6	205.9	177.2	139.2	112.5	103.3	128.7	215.3	144.3	48.86	40.07	74.70	260.1	706.2	2157	4352	395.4	16.38	3.077	2.115	1.709	1.514	1.261	0.964	0.885	0.876	0.956	0.982	0.861	1.096	0.991	1.049	1.106	1.324	1.167	1.157	1.182	1.067	0.747	0.981	0.916	0.911	0.874	0.799	0.838	0.880	1.058	1.075	1.118	1.205	1.338	1.232	1.349	1.446	1.327	1.420	1.369	1.467	1.447	1.315	1.203	1.168	1.201	1.251	1.060
360.0	354.9	355.1	297.4	223.3	165.5	150.8	152.4	163.4	176.5	194.0	212.6	223.7	220.2	203.0	178.8	142.0	115.8	98.25	97.19	154.3	218.7	74.59	43.49	44.35	80.49	175.8	565.4	3091	3255	322.7	7.268	2.646	1.916	1.666	1.321	1.134	0.885	0.979	0.920	1.017	0.852	0.965	1.112	1.032	1.313	1.214	1.090	1.087	1.094	1.012	0.858	0.942	0.892	0.940	0.796	0.856	0.998	0.953	1.045	1.099	1.171	1.140	1.337	1.216	1.366	1.231	1.254	1.468	1.367	1.371	1.363	1.284	1.297	1.283	1.268	1.165	1.204
365.0	334.5	324.8	295.2	225.1	171.5	164.2	159.6	168.0	180.4	194.3	213.6	218.6	213.4	199.9	181.3	145.7	121.9	105.8	93.98	106.2	192.2	172.5	63.15	42.64	44.97	61.18	143.9	890.8	3526	2890	48.70	4.186	2.484	1.853	1.548	1.119	1.118	1.120	0.986	1.066	0.845	0.902	1.000	1.047	1.131	1.107	1.034	1.162	1.064	0.979	0.937	1.086	0.986	0.974	1.002	0.896	1.004	1.033	1.156	1.093	1.210	1.116	1.163	1.304	1.337	1.335	1.292	1.374	1.439	1.382	1.372	1.284	1.245	1.243	1.268	1.060	1.242
370.0	304.9	312.8	283.9	220.2	183.2	175.3	174.0	179.1	184.4	195.5	205.5	213.8	208.8	200.6	179.9	150.9	128.2	114.9	102.6	97.27	120.0	181.1	150.4	59.91	45.50	41.68	53.62	216.3	1024	2774	3161	745.3	13.71	2.493	1.858	1.470	1.173	1.163	0.983	1.162	0.984	1.011	1.068	1.040	1.024	1.073	1.036	1.095	1.121	0.962	0.948	1.001	0.964	0.962	0.989	0.990	1.039	1.068	1.116	1.040	1.194	1.190	1.130	1.341	1.317	1.369	1.185	1.360	1.296	1.391	1.438	1.328	1.251	1.334	1.136	1.299	1.163
375.0	295.7	309.4	272.6	220.2	197.3	188.3	184.0	188.1	193.8	198.3	204.5	208.1	202.4	194.9	174.2	153.1	135.5	122.4	112.7	103.0	99.90	116.8	177.0	142.5	60.28	44.01	40.05	69.56	244.0	655.5	2227	3605	335.5	13.75	2.401	1.716	1.386	1.184	1.088	1.121	1.064	1.016	1.049	1.056	0.991	1.195	1.086	1.140	1.134	1.056	0.894	1.000	1.037	1.009	0.973	0.977	1.146	1.090	1.006	1.066	1.240	1.233	1.160	1.268	1.237	1.220	1.285	1.236	1.252	1.313	1.317	1.313	1.358	1.321	1.061	1.258	1.190
380.0	284.5	297.3	280.0	227.9	208.1	196.0	195.9	197.0	191.0	198.0	203.9	206.5	201.6	191.5	172.7	154.6	139.2	122.7	118.0	108.0	100.1	99.73	134.9	188.1	101.6	52.50	40.74	40.51	73.19	160.9	593.3	2695	2793	268.7	5.558	2.227	1.469	1.322	1.286	1.145	1.059	0.994	1.095	1.083	0.973	1.281	0.977	1.037	1.105	0.969	0.960	0.947	1.043	1.044	1.112	0.907	1.064	1.052	1.039	1.117	1.232	1.201	1.159	1.381	1.229	1.381	1.232	1.114	1.282	1.349	1.277	1.212	1.281	1.326	1.272	1.373	1.340
385.0	289.2	291.5	272.1	217.8	209.3	204.0	204.1	200.4	198.1	199.0	195.6	201.1	198.3	185.7	169.4	152.6	137.1	129.8	121.5	113.6	104.2	100.0	104.5	159.6	160.0	73.55	47.00	37.50	38.27	52.70	145.7	790.8	2993	2419	39.56	3.023	1.793	1.574	1.425	1.263	1.137	1.025	1.028	1.098	1.109	1.202	0.986	0.914	1.076	0.966	0.934	0.969	1.063	1.104	1.110	1.064	1.123	1.153	1.157	1.278	1.242	1.188	1.252	1.216	1.274	1.328	1.303	1.205	1.265	1.334	1.332	1.207	1.112	1.281	1.179	1.175	1.243
390.0	285.3	276.4	266.4	227.3	215.7	205.5	202.6	198.9	201.3	197.5	196.9	196.7	193.0	179.0	166.8	149.8	137.7	131.3	123.3	116.6	110.6	103.5	98.70	111.8	151.7	135.2	67.72	43.07	35.41	32.08	48.02	188.3	860.3	2317	2450	632.7	11.79	1.992	1.539	1.468	1.122	1.173	1.167	1.119	1.069	1.181	1.023	0.971	1.127	0.985	0.915	1.015	1.121	1.061	1.083	1.046	1.114	1.169	1.226	1.227	1.226	1.208	1.255	1.232	1.164	1.204	1.310	1.279	1.228	1.241	1.241	1.176	1.124	1.302	1.193	1.223	1.171
395.0	277.1	275.3	260.5	232.4	215.8	211.8	208.5	207.7	207.3	202.0	202.1	193.8	186.5	174.2	163.9	147.8	139.3	129.6	127.4	118.1	112.6	106.7	99.98	97.69	103.9	143.8	123.4	57.98	39.74	31.23	30.47	55.61	201.7	546.5	1672	2952	281.8	11.92	2.000	1.771	1.331	1.080	1.159	1.056	1.172	1.123	1.029	1.149	1.097	0.933	0.841	1.096	1.155	1.044	1.104	1.141	1.227	1.319	1.099	1.223	1.189	1.117	1.255	1.261	1.297	1.297	1.228	1.352	1.185	1.265	1.277	1.227	1.197	1.235	1.138	1.196	1.118
400.0	256.2	277.3	260.7	237.0	221.8	215.5	214.1	213.1	206.4	204.4	199.3	191.8	185.9	172.8	157.0	145.8	138.1	129.9	125.7	119.6	113.4	107.4	102.4	94.63	90.76	107.9	146.0	93.34	47.60	35.60	28.84	28.48	56.99	131.3	442.3	2133	2291	228.7	4.962	2.059	1.668	1.333	1.242	1.072	1.199	1.219	1.016	1.162	1.124	0.875	0.942	1.138	1.165	1.213	1.259	1.150	1.153	1.209	1.209	1.287	1.184	1.191	1.128	1.190	1.264	1.261	1.197	1.294	1.199	1.155	1.175	1.301	1.099	1.277	1.090	1.143	1.136
405.0	269.2	274.4	264.5	248.0	227.3	217.0	221.2	209.6	206.2	204.0	200.1	190.9	184.5	167.5	151.4	142.3	135.7	126.4	123.6	117.3	112.9	107.9	102.1	95.64	88.95	88.28	122.8	131.2	60.66	39.17	31.20	24.95	26.66	39.22	107.8	612.9	2244	1965	35.19	3.309	1.783	1.276	1.297	1.126	1.179	1.219	0.992	1.106	1.068	0.962	0.920	1.150	1.202	1.247	1.161	1.130	1.237	1.168	1.126	1.161	1.310	1.209	1.156	1.250	1.275	1.108	1.168	1.242	1.198	1.095	1.102	1.200	1.143	1.065	1.025	1.083	1.154
