Sample:	'1
File name:	t2025041501Ò»·Ö¸É.FD3
Run date:	'13:43:42, 04/17/2025
Operator:	Administrator
Comment:	'

Instrument
Model:	F-2700 FL Spectrophotometer
Serial number:	23B8-004
ROM Version:	4J14000 07

Instrument parameters
Measurement type:	3-D scan
Data mode:	Fluorescence
EX  Start WL:	220.0 nm
EX  End WL:	600.0 nm
EX Sampling interval:	5.0 nm
EM  Start WL:	230.0 nm
EM  End WL:	650.0 nm
EM Sampling interval:	5.0 nm
Scan speed:	12000 nm/min
EX Slit:	5.0 nm
EM Slit:	5.0 nm
PMT Voltage:	700 V
Response:	Auto 
Corrected spectra:	Off
Contour interval:	50.000

Peak integration
Integration method:	Rectangular
Sensitivity:	1
Threshold:	1.000

Peaks
No.	ApexEX/EM(nm)	Height(Data)
1	225.0/575.0	55.26
2	230.0/340.0	655.7
3	230.0/380.0	481.5
4	230.0/395.0	491.2
5	230.0/500.0	262.2
6	235.0/515.0	222.1
7	240.0/265.0	369.9
8	240.0/410.0	480.3
9	240.0/525.0	201.4
10	245.0/270.0	374.6
11	245.0/405.0	475.3
12	245.0/535.0	171.8
13	250.0/275.0	476.1
14	250.0/550.0	139.6
15	255.0/285.0	502.8
16	255.0/565.0	118.4
17	260.0/290.0	487.7
18	260.0/575.0	100.4
19	265.0/295.0	580.6
20	265.0/585.0	87.92
21	270.0/300.0	760.5
22	270.0/600.0	75.93
23	275.0/305.0	731.7
24	275.0/610.0	59.53
25	280.0/340.0	421.6
26	280.0/625.0	50.70
27	285.0/320.0	679.5
28	285.0/640.0	40.64
29	290.0/325.0	594.7
30	300.0/335.0	408.0
31	305.0/345.0	363.9
32	310.0/350.0	298.7
33	315.0/355.0	286.8
34	320.0/360.0	276.7
35	325.0/370.0	257.6
36	330.0/375.0	254.7
37	335.0/380.0	258.1
38	340.0/390.0	225.4
39	345.0/395.0	213.1
40	350.0/400.0	216.4
41	355.0/405.0	201.1
42	365.0/420.0	177.2
43	410.0/480.0	45.55
44	425.0/500.0	29.95
45	430.0/505.0	26.42
46	440.0/520.0	19.04
47	455.0/540.0	10.63
48	485.0/265.0	2.366
49	505.0/275.0	3.278
50	510.0/280.0	3.471
51	515.0/285.0	3.538
52	530.0/290.0	3.443
53	540.0/295.0	4.247
54	545.0/300.0	4.887
55	550.0/305.0	4.736
56	560.0/310.0	4.215
57	570.0/315.0	4.628
58	580.0/320.0	4.538
59	585.0/325.0	4.704

Data points
	220.0	225.0	230.0	235.0	240.0	245.0	250.0	255.0	260.0	265.0	270.0	275.0	280.0	285.0	290.0	295.0	300.0	305.0	310.0	315.0	320.0	325.0	330.0	335.0	340.0	345.0	350.0	355.0	360.0	365.0	370.0	375.0	380.0	385.0	390.0	395.0	400.0	405.0	410.0	415.0	420.0	425.0	430.0	435.0	440.0	445.0	450.0	455.0	460.0	465.0	470.0	475.0	480.0	485.0	490.0	495.0	500.0	505.0	510.0	515.0	520.0	525.0	530.0	535.0	540.0	545.0	550.0	555.0	560.0	565.0	570.0	575.0	580.0	585.0	590.0	595.0	600.0
230.0	67.13	828.0	2045	666.2	39.13	10.09	8.633	6.871	5.958	4.933	4.489	4.055	3.583	3.209	2.782	2.413	2.145	1.910	1.776	1.707	1.587	1.577	1.305	1.245	1.153	1.113	1.147	1.101	1.038	1.059	0.947	0.934	0.880	0.854	0.774	0.776	0.766	0.757	0.700	0.675	0.755	0.779	0.788	0.684	0.609	0.633	1.173	4.249	7.300	5.347	2.410	0.773	0.522	0.517	0.491	0.502	0.504	0.506	0.531	0.539	0.530	0.486	0.501	0.494	0.506	0.514	0.531	0.502	0.490	0.540	0.505	0.521	0.553	0.518	0.547	0.507	0.557
235.0	125.5	252.2	1306	2337	537.0	50.53	9.054	7.768	5.845	5.037	5.154	4.656	3.878	3.356	2.813	2.188	2.028	2.108	2.085	1.521	1.566	1.532	1.254	1.162	1.185	1.256	1.139	1.070	1.111	1.013	0.957	0.901	0.848	0.866	0.823	0.834	0.763	0.808	0.704	0.750	0.756	0.729	0.845	0.881	0.874	0.743	0.755	1.462	3.072	5.338	8.453	8.347	3.689	1.095	0.563	0.538	0.537	0.546	0.506	0.575	0.518	0.522	0.561	0.514	0.529	0.499	0.527	0.578	0.527	0.502	0.557	0.520	0.502	0.514	0.578	0.548	0.567
240.0	182.8	158.1	406.9	2071	2595	421.4	24.36	10.21	6.245	5.760	4.864	5.109	4.009	3.568	3.105	2.225	2.260	2.030	2.136	1.580	1.524	1.413	1.333	1.255	1.343	1.180	1.227	1.116	0.969	1.077	0.942	0.922	0.853	0.877	0.774	0.835	0.733	0.804	0.722	0.793	0.657	0.695	0.707	0.821	0.797	0.890	0.742	0.881	1.079	1.872	4.876	10.64	12.98	8.759	2.981	0.856	0.566	0.493	0.535	0.525	0.512	0.534	0.531	0.510	0.492	0.497	0.522	0.540	0.492	0.537	0.515	0.525	0.500	0.545	0.557	0.523	0.560
245.0	153.3	228.7	162.3	729.2	2916	2927	298.6	14.42	7.478	6.139	5.691	4.729	4.053	3.325	3.261	2.637	2.328	2.292	1.908	1.599	1.601	1.424	1.421	1.303	1.334	1.292	1.341	1.173	1.001	0.987	0.951	0.997	0.825	0.811	0.804	0.793	0.758	0.945	0.724	0.704	0.680	0.675	0.708	0.696	0.733	0.967	1.065	1.001	0.761	0.796	1.568	3.886	9.437	16.03	14.54	7.602	2.083	0.611	0.515	0.522	0.539	0.557	0.485	0.514	0.541	0.604	0.478	0.525	0.498	0.476	0.508	0.557	0.552	0.522	0.561	0.524	0.541
250.0	76.73	177.2	254.9	251.1	972.3	3191	3459	1024	48.49	8.552	6.779	5.863	4.752	3.801	3.407	2.613	2.498	2.311	1.981	1.663	1.772	1.580	1.482	1.334	1.281	1.245	1.265	1.189	1.088	1.070	0.991	0.954	0.882	0.840	0.778	0.780	0.766	0.766	0.760	0.714	0.758	0.709	0.719	0.708	0.644	0.700	0.832	1.138	1.164	0.971	0.972	1.334	2.716	5.567	9.932	15.50	18.35	15.49	7.780	2.117	0.593	0.579	0.592	0.554	0.571	0.558	0.514	0.537	0.512	0.509	0.478	0.560	0.536	0.498	0.569	0.558	0.545
255.0	54.94	72.24	188.9	326.1	301.8	844.0	3125	5343	1256	40.23	9.172	6.739	5.669	4.629	3.558	3.127	2.449	2.230	2.207	1.980	1.837	1.694	1.475	1.224	1.303	1.344	1.253	1.139	1.146	1.139	1.071	0.925	0.949	0.910	0.801	0.753	0.757	0.795	0.727	0.755	0.754	0.729	0.779	0.641	0.667	0.665	0.568	0.774	0.879	1.120	1.599	1.440	1.190	1.774	2.736	4.179	7.922	18.65	29.36	24.23	10.75	2.134	0.586	0.584	0.595	0.546	0.545	0.560	0.537	0.619	0.527	0.535	0.521	0.542	0.563	0.688	0.677
260.0	55.10	45.42	83.09	294.8	291.8	240.2	1023	5107	5134	241.9	20.05	9.064	6.848	4.945	4.104	3.353	2.775	2.449	2.199	2.008	1.928	1.733	1.677	1.365	1.392	1.408	1.240	1.187	1.217	1.209	1.036	0.938	0.975	0.894	0.911	0.806	0.839	0.780	0.812	0.721	0.739	0.733	0.742	0.714	0.694	0.677	0.619	0.589	0.643	0.659	1.219	1.980	1.796	1.315	1.148	1.453	2.329	5.707	14.79	28.81	31.96	22.28	7.670	1.321	0.555	0.587	0.502	0.536	0.620	0.598	0.584	0.582	0.580	0.535	0.573	0.557	0.659
265.0	51.62	39.46	42.70	155.4	369.9	218.4	268.6	1901	6351	4676	177.4	12.80	8.560	6.228	4.582	3.473	3.418	2.485	2.449	2.241	1.979	1.863	1.795	1.560	1.346	1.429	1.236	1.279	1.310	1.316	1.123	1.131	1.051	0.922	0.937	0.881	0.810	0.837	0.802	0.720	0.713	0.731	0.722	0.716	0.689	0.627	0.575	0.604	0.607	0.540	0.650	1.185	1.912	2.366	1.473	0.891	1.161	1.752	3.946	9.757	22.59	41.39	31.29	19.10	4.132	0.830	0.591	0.521	0.665	0.618	0.568	0.629	0.596	0.536	0.541	0.514	0.570
270.0	58.85	42.07	35.01	58.50	192.4	374.6	257.4	477.4	2183	5862	5202	734.0	36.50	8.763	5.959	4.446	3.850	3.227	2.767	2.418	2.240	1.987	1.841	1.734	1.544	1.461	1.393	1.368	1.270	1.313	1.220	1.087	1.046	1.034	0.977	0.855	0.783	0.818	0.740	0.700	0.756	0.707	0.691	0.726	0.740	0.645	0.636	0.687	0.574	0.519	0.539	0.708	0.950	1.583	2.088	2.141	1.818	1.374	1.402	2.716	5.894	13.17	21.25	35.54	36.45	40.53	13.48	4.215	0.840	0.612	0.592	0.557	0.589	0.597	0.550	0.596	0.611
275.0	67.12	60.16	44.68	39.34	64.86	192.8	476.1	296.3	524.4	1539	5586	9999.9	966.5	26.05	8.698	5.906	4.798	3.851	3.292	2.621	2.654	2.303	1.859	1.858	1.658	1.591	1.436	1.429	1.536	1.243	1.144	1.117	1.093	1.032	1.031	0.851	0.930	0.826	0.873	0.759	0.869	0.783	0.713	0.829	0.773	0.712	0.689	0.731	0.579	0.552	0.500	0.628	0.634	0.897	0.941	1.548	2.542	3.278	2.155	1.266	1.900	3.490	5.297	8.915	13.72	36.53	54.87	32.31	21.80	3.903	0.764	0.691	0.653	0.663	0.568	0.590	0.596
280.0	87.58	70.99	58.83	45.59	39.65	75.69	334.9	498.7	222.8	388.9	1761	9999.9	8384	135.5	13.81	7.356	5.823	4.655	3.820	2.949	2.946	2.458	2.336	1.663	1.661	1.718	1.451	1.520	1.232	1.326	1.204	1.254	1.106	1.068	1.010	1.003	0.916	0.912	0.851	0.764	0.892	0.939	0.776	0.793	0.725	0.817	0.709	0.805	0.630	0.570	0.505	0.641	0.576	0.646	0.715	0.976	1.432	2.642	3.471	2.662	1.389	1.361	1.763	2.609	3.697	9.765	22.20	43.68	73.54	30.36	16.24	2.076	0.635	0.568	0.611	0.641	0.675
285.0	111.4	104.3	85.60	58.21	41.46	49.25	139.9	502.8	310.3	155.0	455.1	3472	9999.9	5934	96.36	10.68	7.563	5.300	4.256	3.296	3.081	2.566	2.405	1.759	1.676	1.713	1.652	1.600	1.234	1.378	1.303	1.383	1.037	1.117	1.065	0.978	1.007	1.052	0.867	0.874	0.868	0.854	0.910	0.823	0.766	0.790	0.722	0.927	0.687	0.621	0.657	0.775	0.615	0.617	0.630	0.771	0.896	1.296	2.394	3.538	3.404	1.889	1.156	1.227	1.496	2.967	5.776	12.68	35.07	55.22	82.90	27.31	9.616	1.074	0.697	0.671	0.678
290.0	141.4	148.6	122.8	79.02	52.45	47.77	71.45	213.6	487.7	393.1	212.3	870.0	3452	8326	7464	407.6	21.83	7.598	5.717	4.294	3.440	2.749	2.670	2.053	1.875	1.837	1.742	1.698	1.375	1.403	1.358	1.223	1.285	1.229	1.211	1.036	1.039	1.067	0.973	0.895	0.911	0.917	0.943	0.915	0.846	0.914	0.864	0.975	0.870	0.731	0.746	0.793	0.692	0.658	0.743	0.765	0.817	0.881	1.181	1.699	2.618	3.238	3.443	2.321	1.527	1.508	2.108	3.711	8.949	15.49	36.93	46.25	59.64	48.35	17.78	8.076	1.253
295.0	188.5	190.5	172.9	110.0	75.06	61.88	68.87	107.2	220.4	580.6	468.5	326.8	871.8	2157	7149	9999.9	562.6	17.59	7.721	5.429	4.655	3.419	2.981	2.434	2.072	2.010	1.954	1.840	1.675	1.475	1.394	1.438	1.176	1.392	1.228	1.174	1.136	1.126	0.955	0.967	0.985	0.931	1.009	1.075	0.886	0.978	0.954	1.115	0.982	0.825	0.739	0.840	0.790	0.684	0.727	0.792	0.818	0.911	0.939	1.032	1.288	1.714	2.495	4.154	4.247	2.508	1.514	1.865	3.016	4.321	9.072	11.34	16.59	29.76	58.21	77.83	28.94
300.0	194.3	229.6	194.9	137.7	91.34	79.52	87.45	100.8	146.4	364.0	760.5	379.2	330.6	586.7	2150	9894	5553	82.23	11.94	7.158	5.736	3.947	3.376	2.604	2.504	2.343	1.951	1.814	1.593	1.636	1.422	1.383	1.378	1.485	1.263	1.248	1.187	1.163	0.932	0.894	0.994	0.979	0.965	1.122	0.930	1.082	1.015	1.062	1.026	0.945	0.815	0.910	0.838	0.774	0.831	0.832	0.887	0.985	0.992	1.004	0.989	1.242	1.621	2.335	3.960	4.887	3.383	2.109	1.754	2.114	3.007	3.577	4.641	7.874	18.67	50.03	76.88
305.0	204.1	259.5	231.3	160.3	113.9	101.0	111.9	128.0	152.2	249.8	612.8	731.7	305.5	262.9	577.6	3342	9999.9	4473	63.43	9.557	7.037	5.058	3.953	2.904	2.855	2.535	2.281	2.051	1.773	1.813	1.451	1.507	1.330	1.316	1.390	1.200	1.188	1.066	1.068	1.071	1.062	1.066	1.051	1.143	1.010	1.058	1.139	1.209	1.152	1.003	0.843	1.024	1.020	0.871	0.927	0.964	0.983	0.977	1.159	1.230	1.277	1.289	1.555	1.708	2.293	3.578	4.736	4.410	2.609	1.910	1.963	1.957	2.248	2.751	5.066	13.01	28.97
310.0	242.2	286.7	259.3	187.9	134.4	122.6	136.5	157.1	184.9	247.7	386.9	662.7	644.3	309.2	251.6	832.8	3293	7750	7185	293.7	19.98	7.129	4.877	3.751	3.087	2.719	2.523	2.135	1.892	1.882	1.596	1.541	1.420	1.426	1.455	1.180	1.234	1.167	1.127	1.061	1.072	1.070	1.027	1.167	1.034	1.139	1.167	1.322	1.266	1.075	0.963	1.121	1.070	1.023	1.015	1.044	1.142	1.065	1.203	1.336	1.277	1.514	1.606	1.713	1.920	2.266	2.982	3.851	4.215	4.185	2.991	2.027	1.911	1.831	2.134	3.908	7.442
315.0	262.0	317.2	286.5	218.7	160.5	145.5	159.1	184.0	213.3	272.0	335.3	430.3	626.1	626.7	247.6	281.2	805.7	1922	6789	9585	450.3	16.87	6.940	4.993	4.004	3.263	2.903	2.579	1.989	2.052	1.892	1.626	1.551	1.405	1.497	1.268	1.365	1.372	1.155	1.081	1.146	1.211	1.040	1.201	1.114	1.228	1.358	1.548	1.306	1.189	1.074	1.085	1.048	1.197	1.011	1.093	1.122	1.224	1.523	1.279	1.500	1.689	1.734	1.840	1.886	2.074	2.332	2.513	2.766	3.643	4.628	3.846	2.818	1.942	1.798	1.919	2.703
320.0	302.2	386.4	345.6	242.7	177.5	158.9	172.8	203.1	234.2	293.8	347.9	391.8	463.3	679.5	421.8	188.5	264.2	484.9	1927	8708	8928	64.76	11.11	6.214	4.855	3.929	3.191	3.002	2.202	2.187	2.081	1.561	1.680	1.416	1.483	1.393	1.341	1.300	1.056	1.172	1.184	1.187	1.166	1.206	1.232	1.217	1.433	1.696	1.469	1.329	1.098	1.154	1.182	1.119	1.080	1.132	1.156	1.346	1.414	1.464	1.562	1.757	1.752	1.952	2.055	2.133	2.155	2.221	2.476	2.778	3.255	4.299	4.538	3.262	2.173	1.593	1.634
325.0	343.1	463.9	454.0	297.3	196.4	173.4	187.7	216.3	251.6	310.2	368.6	407.9	407.9	512.9	594.7	258.8	154.1	172.1	473.9	2757	9999.9	3702	54.63	8.495	5.992	4.748	3.660	3.157	2.260	2.341	2.053	1.838	1.564	1.469	1.535	1.427	1.320	1.453	1.169	1.148	1.261	1.296	1.215	1.285	1.336	1.513	1.601	2.054	1.871	1.473	1.223	1.372	1.257	1.273	1.138	1.208	1.256	1.374	1.547	1.514	1.702	1.833	1.947	2.022	2.140	2.261	2.216	2.170	2.598	2.701	2.406	2.875	3.991	4.704	3.481	2.178	1.759
330.0	379.2	511.0	528.2	365.0	240.5	195.5	202.1	233.6	263.5	327.7	377.6	413.6	408.6	407.1	453.4	441.1	227.9	112.1	156.2	658.2	3201	6597	6007	1157	17.97	6.378	4.579	3.904	2.820	2.617	2.321	1.929	1.736	1.699	1.445	1.427	1.414	1.344	1.208	1.235	1.372	1.264	1.264	1.422	1.334	1.665	1.682	2.133	2.041	1.591	1.469	1.564	1.432	1.357	1.258	1.263	1.358	1.357	1.646	1.610	1.607	1.782	1.915	2.046	2.095	2.203	2.472	2.371	2.518	2.634	2.390	2.521	2.979	3.237	3.289	3.458	3.093
335.0	402.7	546.9	615.9	419.5	291.7	228.7	219.8	249.0	276.7	336.4	391.2	420.0	420.1	396.2	345.3	355.9	408.0	180.5	100.9	195.1	750.5	1600	5234	8624	402.8	19.57	6.590	5.231	3.620	3.177	2.739	2.095	1.913	1.801	1.527	1.496	1.345	1.319	1.376	1.195	1.334	1.305	1.239	1.363	1.532	1.650	1.657	2.160	2.180	1.807	1.640	1.702	1.605	1.409	1.366	1.314	1.542	1.501	1.709	1.769	1.753	1.801	1.924	2.089	2.082	2.331	2.298	2.515	2.472	2.577	2.522	2.402	2.651	2.667	2.337	2.472	3.173
340.0	414.5	573.6	655.7	487.7	318.1	253.5	225.9	260.3	286.0	342.2	396.6	420.4	421.6	392.0	324.5	278.2	369.6	318.9	120.8	101.6	213.1	392.4	1441	7100	6859	337.4	10.70	6.428	4.098	3.631	2.872	2.492	2.157	2.086	1.705	1.469	1.369	1.438	1.227	1.124	1.383	1.323	1.488	1.410	1.577	1.587	1.723	2.149	2.192	1.952	1.729	2.065	1.781	1.591	1.587	1.504	1.542	1.566	1.730	1.625	1.767	1.954	2.037	1.960	2.190	2.355	2.470	2.478	2.426	2.645	2.485	2.476	2.580	2.415	2.018	2.211	2.382
345.0	420.7	561.6	648.4	479.7	347.4	269.3	244.4	273.6	296.7	346.4	392.2	411.0	418.5	389.4	322.9	258.5	265.4	363.9	218.7	90.48	101.4	129.8	356.0	2145	7484	3308	50.11	8.351	5.289	4.134	3.504	2.700	2.202	1.935	1.861	1.458	1.468	1.486	1.388	1.246	1.339	1.425	1.270	1.494	1.672	1.566	1.805	2.301	2.262	2.004	1.794	2.001	1.869	1.806	1.604	1.552	1.460	1.669	1.840	1.700	1.842	1.926	1.904	2.133	2.284	2.210	2.437	2.386	2.511	2.435	2.455	2.427	2.661	2.212	2.175	2.177	2.062
350.0	380.7	538.7	600.2	492.4	378.9	295.6	269.9	282.0	298.0	338.7	376.4	399.6	403.5	381.1	324.8	261.1	228.6	256.2	298.7	191.9	101.4	84.08	124.1	514.7	2198	5502	5237	1217	18.69	5.770	4.043	2.942	2.454	2.094	1.858	1.627	1.525	1.503	1.398	1.296	1.386	1.279	1.267	1.429	1.461	1.675	1.821	2.019	2.082	1.967	1.808	1.992	1.879	1.801	1.709	1.605	1.663	1.671	1.686	1.772	1.883	1.985	1.957	2.119	2.194	2.185	2.348	2.348	2.501	2.435	2.497	2.348	2.622	2.389	2.260	2.237	2.177
355.0	360.7	510.7	573.2	491.8	398.7	322.4	296.6	303.9	313.4	345.1	368.1	384.9	390.5	371.5	323.7	270.7	232.3	215.7	226.0	286.8	185.4	98.76	90.01	160.4	523.2	1306	3786	7944	394.8	22.95	5.830	3.807	2.983	2.545	1.858	1.690	1.611	1.562	1.403	1.317	1.423	1.332	1.274	1.356	1.479	1.543	1.716	2.072	1.984	1.987	1.738	1.925	1.886	1.935	1.827	1.796	1.837	1.846	1.846	1.791	1.848	2.030	2.069	2.146	2.020	2.170	2.187	2.246	2.361	2.389	2.393	2.356	2.392	2.412	2.423	2.126	2.286
360.0	362.0	470.4	542.3	476.4	406.3	349.2	315.1	316.7	323.6	345.8	365.3	376.6	381.1	365.2	326.6	280.3	241.0	216.5	201.2	247.7	276.7	143.8	94.12	92.78	159.8	323.7	989.6	5592	6686	361.7	14.77	4.952	3.706	2.724	2.310	1.960	1.668	1.743	1.428	1.334	1.411	1.329	1.234	1.507	1.284	1.557	1.663	1.941	1.963	1.890	1.822	2.041	1.892	1.862	1.948	1.816	1.963	1.917	1.852	1.925	1.802	2.110	2.157	2.182	2.059	2.141	2.248	2.287	2.350	2.424	2.617	2.246	2.506	2.400	2.298	2.164	2.308
365.0	333.6	450.9	520.8	469.0	413.9	356.2	332.2	329.7	339.6	346.4	365.2	375.8	375.3	361.0	326.9	283.4	255.6	225.8	203.9	206.9	274.0	230.9	118.9	89.76	87.99	113.0	251.1	1569	6167	6245	290.7	8.143	4.628	3.449	2.682	2.218	1.884	1.784	1.507	1.335	1.491	1.387	1.283	1.396	1.361	1.625	1.742	1.868	2.048	1.648	1.834	2.032	1.861	1.987	1.882	1.923	1.902	1.980	2.006	1.814	1.947	1.917	2.074	2.107	2.129	2.067	2.255	2.274	2.235	2.330	2.500	2.324	2.473	2.369	2.148	2.186	2.132
370.0	334.0	424.2	499.3	470.8	428.2	379.8	359.9	351.9	350.4	359.4	375.4	375.9	371.7	360.1	325.9	292.7	267.0	244.2	219.6	206.4	220.6	257.6	210.9	120.6	88.42	78.89	96.97	381.0	1710	5070	5034	1219	19.66	4.712	3.427	2.567	2.220	1.989	1.598	1.494	1.585	1.387	1.350	1.537	1.324	1.488	1.553	1.797	1.898	1.674	1.856	1.979	1.926	1.937	2.054	1.956	2.061	2.053	1.966	1.926	2.030	2.126	2.091	2.169	2.290	2.171	2.243	2.154	2.327	2.250	2.448	2.397	2.445	2.391	2.348	2.258	2.252
375.0	325.7	424.2	474.0	466.5	445.9	402.9	385.8	378.7	366.0	366.3	378.9	377.6	366.2	353.1	326.5	299.1	275.6	258.0	239.6	220.3	210.2	212.0	254.7	207.5	113.0	86.52	75.12	125.4	410.7	1179	3232	6937	1918	23.73	4.660	3.386	2.422	2.316	1.782	1.650	1.712	1.479	1.378	1.451	1.381	1.408	1.631	1.707	1.930	1.699	1.864	2.085	2.009	2.081	1.940	1.933	2.145	2.080	2.118	1.957	2.144	2.140	2.146	2.238	2.313	2.211	2.265	2.269	2.374	2.346	2.474	2.367	2.203	2.362	2.364	2.358	2.383
380.0	349.0	411.1	481.5	470.3	454.5	424.4	406.2	388.1	377.9	375.4	382.7	375.7	366.1	353.3	325.3	301.1	281.7	266.7	250.4	232.8	216.0	201.9	221.1	258.1	162.3	101.7	80.35	76.44	128.1	290.6	826.7	4383	6788	319.8	14.70	4.152	3.013	2.592	2.016	1.865	1.704	1.456	1.432	1.428	1.468	1.456	1.624	1.742	1.894	1.629	1.929	1.977	2.067	2.136	2.131	1.946	2.126	2.091	2.230	2.156	1.997	2.041	2.199	2.162	2.397	2.309	2.260	2.183	2.399	2.225	2.513	2.454	2.271	2.316	2.282	2.350	2.473
385.0	319.1	402.5	471.7	455.7	472.9	443.4	403.4	402.6	387.6	380.8	382.2	375.7	365.9	354.3	324.5	300.9	288.5	273.2	257.5	244.7	226.4	207.6	199.1	235.6	223.7	130.5	92.80	76.86	74.14	98.07	211.8	1173	5193	5284	263.9	7.808	3.786	2.905	2.164	1.977	1.777	1.637	1.449	1.541	1.464	1.615	1.549	1.834	1.735	1.749	1.755	2.121	2.195	2.147	2.100	2.070	2.188	2.155	2.119	2.342	2.253	2.135	2.132	2.227	2.234	2.412	2.186	2.140	2.299	2.059	2.598	2.324	2.270	2.294	2.309	2.289	2.457
390.0	320.0	415.3	474.0	478.3	474.3	451.7	428.3	419.8	401.1	385.3	383.4	373.2	362.2	353.0	324.9	302.8	291.7	280.3	264.0	252.8	238.0	218.5	203.0	202.4	225.4	200.5	124.8	90.22	74.36	67.24	80.97	286.3	1371	3750	3765	1045	17.74	4.068	2.738	2.304	2.139	1.776	1.622	1.680	1.566	1.545	1.591	1.863	1.755	1.732	1.817	2.119	2.151	2.167	2.153	2.237	2.182	2.284	2.247	2.240	2.289	2.142	2.225	2.267	2.200	2.258	2.230	2.264	2.234	2.188	2.501	2.228	2.357	2.430	2.274	2.465	2.463
395.0	341.3	427.5	491.2	482.7	477.0	456.4	438.7	434.0	405.1	398.3	393.7	378.6	367.0	347.7	325.6	303.5	291.3	283.8	274.2	262.1	244.4	230.1	215.9	199.3	193.0	213.1	191.6	118.1	88.36	72.09	61.47	96.25	327.6	866.1	2207	5582	1679	22.37	3.462	2.692	2.638	2.028	1.733	1.812	1.613	1.665	1.699	1.855	1.831	1.793	1.852	1.951	2.225	2.222	2.216	2.364	2.390	2.368	2.269	2.342	2.310	2.355	2.435	2.257	2.179	2.356	2.439	2.349	2.256	2.252	2.275	2.181	2.277	2.445	2.253	2.427	2.353
400.0	342.9	402.9	487.4	482.1	476.7	458.7	447.3	434.7	422.5	406.4	391.4	378.8	364.5	346.3	322.6	302.8	290.3	280.8	273.0	263.5	246.4	234.8	219.8	202.2	188.4	187.0	216.4	158.3	103.3	81.29	64.55	59.00	100.4	212.7	551.5	3316	5414	284.1	13.79	3.444	3.316	2.302	2.077	2.030	1.615	1.666	1.681	1.991	1.980	1.880	1.863	2.049	2.188	2.295	2.047	2.381	2.494	2.334	2.407	2.386	2.298	2.228	2.430	2.156	2.258	2.277	2.343	2.154	2.198	2.388	2.107	2.243	2.273	2.265	2.287	2.391	2.465
405.0	332.4	412.7	464.5	469.8	471.8	475.3	455.8	441.8	426.1	410.5	402.1	379.2	361.9	343.6	320.4	300.0	288.4	282.8	271.9	260.9	250.5	236.9	223.1	208.7	193.0	180.4	197.8	201.1	129.7	91.33	72.52	55.53	54.41	70.23	140.1	868.4	3986	4831	237.6	6.842	3.782	2.520	2.064	2.034	1.757	1.726	1.735	2.063	1.905	1.761	1.859	2.269	2.117	2.359	2.274	2.280	2.384	2.330	2.475	2.448	2.461	2.459	2.528	2.248	2.199	2.160	2.242	2.206	2.022	2.483	2.313	2.248	2.305	2.217	2.312	2.484	2.479
410.0	328.4	405.2	456.1	473.3	480.3	474.9	465.0	451.2	430.6	415.5	402.6	379.0	358.2	336.9	312.8	294.7	279.8	275.9	266.7	257.8	249.0	235.8	227.1	213.0	196.7	182.6	175.7	189.5	177.5	119.9	83.79	63.83	51.01	44.67	52.19	209.1	1038	3304	3022	946.5	17.60	3.442	2.618	2.276	1.808	1.914	1.788	1.976	1.828	1.739	1.828	2.224	2.206	2.276	2.263	2.224	2.378	2.342	2.542	2.404	2.534	2.542	2.392	2.365	2.356	2.310	2.250	2.183	2.239	2.294	2.228	2.135	2.353	2.186	2.256	2.434	2.359
