Sample:	'1
File name:	’≈πŸ«≈ 5±∂.FD3
Run date:	'10:30:14, 06/23/2025
Operator:	Administrator
Comment:	'

Instrument
Model:	F-2700 FL Spectrophotometer
Serial number:	23B8-004
ROM Version:	4J14000 07

Instrument parameters
Measurement type:	3-D scan
Data mode:	Fluorescence
EX  Start WL:	220.0 nm
EX  End WL:	600.0 nm
EX Sampling interval:	5.0 nm
EM  Start WL:	230.0 nm
EM  End WL:	650.0 nm
EM Sampling interval:	5.0 nm
Scan speed:	12000 nm/min
EX Slit:	5.0 nm
EM Slit:	5.0 nm
PMT Voltage:	700 V
Response:	Auto 
Corrected spectra:	Off
Contour interval:	50.000

Peak integration
Integration method:	Rectangular
Sensitivity:	1
Threshold:	1.000

Peaks
No.	ApexEX/EM(nm)	Height(Data)
1	225.0/345.0	2034
2	225.0/570.0	70.92
3	225.0/615.0	48.45
4	240.0/265.0	446.2
5	245.0/270.0	455.9
6	245.0/535.0	261.5
7	250.0/275.0	598.8
8	250.0/550.0	198.7
9	255.0/280.0	620.2
10	255.0/560.0	151.8
11	260.0/290.0	569.5
12	260.0/575.0	118.9
13	265.0/295.0	724.9
14	265.0/585.0	105.6
15	270.0/300.0	1011
16	270.0/600.0	97.36
17	275.0/305.0	1086
18	275.0/415.0	2240
19	275.0/435.0	2178
20	275.0/610.0	81.60
21	280.0/340.0	967.3
22	280.0/625.0	68.65
23	285.0/320.0	960.7
24	285.0/635.0	52.00
25	290.0/325.0	915.0
26	315.0/355.0	507.5
27	320.0/365.0	477.2
28	325.0/370.0	457.7
29	330.0/375.0	453.4
30	340.0/415.0	1058
31	425.0/500.0	36.06
32	460.0/345.0	5.813
33	485.0/265.0	2.195
34	495.0/270.0	2.362
35	505.0/275.0	3.394
36	510.0/280.0	3.836
37	520.0/285.0	3.955
38	530.0/290.0	3.534
39	535.0/270.0	47.61
40	540.0/295.0	4.881
41	545.0/300.0	5.715
42	550.0/305.0	5.583
43	560.0/310.0	5.456
44	560.0/420.0	7.470
45	565.0/345.0	4.890
46	565.0/430.0	6.994
47	570.0/315.0	5.423
48	580.0/320.0	5.541
49	585.0/325.0	5.698

Data points
	220.0	225.0	230.0	235.0	240.0	245.0	250.0	255.0	260.0	265.0	270.0	275.0	280.0	285.0	290.0	295.0	300.0	305.0	310.0	315.0	320.0	325.0	330.0	335.0	340.0	345.0	350.0	355.0	360.0	365.0	370.0	375.0	380.0	385.0	390.0	395.0	400.0	405.0	410.0	415.0	420.0	425.0	430.0	435.0	440.0	445.0	450.0	455.0	460.0	465.0	470.0	475.0	480.0	485.0	490.0	495.0	500.0	505.0	510.0	515.0	520.0	525.0	530.0	535.0	540.0	545.0	550.0	555.0	560.0	565.0	570.0	575.0	580.0	585.0	590.0	595.0	600.0
230.0	171.3	2436	3530	599.2	23.80	8.086	7.261	5.618	4.664	4.380	4.332	4.177	3.508	3.223	3.161	1.936	1.754	1.441	2.574	1.641	1.374	1.355	1.078	0.986	0.952	0.852	0.980	0.872	0.815	0.739	0.797	0.688	0.611	0.565	0.541	0.476	0.526	0.510	0.439	0.451	0.602	0.816	0.741	0.428	0.439	0.515	3.343	10.19	12.09	6.179	1.805	0.472	0.321	0.284	0.250	0.276	0.290	0.258	0.261	0.281	0.262	0.268	0.274	0.294	0.252	0.258	0.258	0.286	0.270	0.278	0.231	0.279	0.258	0.275	0.289	0.271	0.284
235.0	191.8	704.9	2844	3234	521.2	33.20	8.844	7.184	5.035	4.254	4.365	4.212	3.728	3.251	3.059	2.147	1.938	1.582	2.494	1.575	1.269	1.286	1.267	1.111	1.046	0.785	0.990	0.815	0.788	0.775	0.717	0.758	0.634	0.615	0.590	0.465	0.489	0.486	0.517	0.400	0.499	0.535	0.708	0.845	0.779	0.563	1.070	2.895	6.150	9.702	11.56	9.950	3.793	0.792	0.344	0.317	0.334	0.325	0.274	0.329	0.294	0.227	0.256	0.233	0.277	0.281	0.243	0.306	0.260	0.297	0.319	0.315	0.282	0.264	0.229	0.269	0.364
240.0	282.6	261.8	964.4	3466	3369	390.3	20.43	8.867	7.604	5.021	4.780	4.825	3.924	3.462	3.431	2.661	2.133	1.476	2.580	1.651	1.238	1.394	1.192	1.181	1.071	0.943	1.097	0.839	0.776	0.832	0.766	0.669	0.724	0.629	0.575	0.452	0.474	0.569	0.504	0.451	0.439	0.436	0.528	0.716	1.016	0.970	0.701	0.958	1.715	3.470	8.640	17.88	16.97	9.331	2.978	0.523	0.290	0.344	0.278	0.335	0.284	0.285	0.283	0.266	0.283	0.249	0.266	0.243	0.260	0.309	0.290	0.268	0.299	0.254	0.232	0.289	0.329
245.0	224.8	294.9	285.4	1403	4689	2925	301.6	13.81	9.136	5.249	5.498	5.305	4.276	3.621	3.480	2.313	1.852	1.585	2.958	1.710	1.401	1.544	1.090	1.288	1.072	0.909	0.947	0.908	0.871	0.846	0.841	0.820	0.654	0.596	0.573	0.667	0.456	0.584	0.551	0.415	0.473	0.412	0.400	0.491	0.676	0.996	0.929	0.853	0.717	1.033	2.308	7.205	15.75	21.49	17.87	8.161	1.888	0.359	0.319	0.350	0.309	0.298	0.264	0.261	0.260	0.305	0.297	0.267	0.260	0.264	0.250	0.249	0.313	0.311	0.251	0.377	0.267
250.0	97.39	245.3	311.2	407.4	1707	3907	5264	1165	58.15	7.790	7.142	6.196	4.940	4.131	4.064	2.655	2.120	1.763	3.061	1.754	1.713	1.613	1.242	1.407	1.124	0.962	1.026	0.958	0.786	0.895	0.733	0.756	0.706	0.601	0.619	0.522	0.458	0.492	0.531	0.409	0.423	0.469	0.373	0.443	0.458	0.536	0.761	1.115	1.183	1.009	0.948	1.946	4.083	7.976	14.56	21.22	25.03	17.69	8.926	2.277	0.408	0.278	0.326	0.296	0.324	0.270	0.304	0.286	0.323	0.272	0.289	0.258	0.286	0.303	0.279	0.276	0.301
255.0	56.39	83.97	266.8	394.3	463.8	1094	5697	7893	1549	48.23	11.11	7.586	5.426	4.598	4.571	2.874	2.248	1.839	3.276	1.835	1.914	1.355	1.263	1.445	1.207	1.028	1.157	0.992	0.829	0.910	0.920	0.736	0.684	0.640	0.559	0.514	0.520	0.484	0.485	0.436	0.413	0.474	0.460	0.413	0.431	0.478	0.484	0.540	0.739	1.227	1.451	1.507	1.358	2.148	3.614	5.505	11.78	25.93	40.96	27.49	13.23	2.120	0.443	0.315	0.420	0.312	0.282	0.303	0.306	0.316	0.270	0.286	0.297	0.318	0.279	0.286	0.355
260.0	49.16	39.41	116.8	368.5	355.3	305.5	1938	7996	7630	259.8	27.19	9.906	6.501	5.078	5.411	3.229	2.832	1.929	3.635	1.989	1.917	1.553	1.380	1.343	1.203	1.001	1.009	1.061	0.970	0.841	0.923	0.853	0.787	0.569	0.652	0.603	0.540	0.472	0.457	0.426	0.507	0.461	0.495	0.446	0.506	0.390	0.407	0.417	0.468	0.651	1.138	2.107	1.865	1.164	1.184	1.578	3.069	7.603	21.38	41.91	47.62	24.56	10.06	1.068	0.409	0.313	0.328	0.312	0.359	0.278	0.338	0.274	0.333	0.329	0.273	0.338	0.370
265.0	46.86	33.09	51.31	194.2	446.2	260.1	500.5	3057	9715	6241	205.3	16.27	8.758	7.829	6.702	3.829	2.796	2.011	3.823	2.060	2.138	1.696	1.405	1.338	1.257	0.988	1.054	1.059	0.902	0.979	0.932	0.850	0.753	0.722	0.558	0.639	0.512	0.505	0.527	0.482	0.454	0.577	0.529	0.463	0.450	0.425	0.391	0.380	0.409	0.431	0.477	1.190	1.944	2.195	1.567	0.903	1.154	2.118	5.439	13.67	31.50	51.54	58.01	21.54	5.120	0.440	0.331	0.315	0.390	0.320	0.361	0.306	0.289	0.326	0.339	0.385	0.322
270.0	68.06	49.59	42.90	78.12	266.0	455.9	348.4	772.4	3380	7874	9999.9	810.7	52.37	11.99	9.643	4.989	3.660	2.646	4.771	2.531	2.290	2.023	1.397	1.404	1.428	1.217	1.321	1.082	0.929	0.959	0.997	0.892	0.878	0.807	0.614	0.654	0.600	0.618	0.533	0.510	0.460	0.510	0.504	0.431	0.519	0.518	0.417	0.410	0.440	0.378	0.367	0.584	0.885	1.597	2.303	2.362	2.068	1.333	1.740	3.519	7.824	16.09	33.41	47.61	43.75	41.58	14.41	4.885	0.599	0.444	0.399	0.364	0.345	0.354	0.323	0.353	0.319
275.0	111.5	94.86	72.30	60.35	118.2	285.1	598.8	416.3	812.4	2075	9399	9999.9	1167	49.46	14.07	6.445	4.814	3.595	5.776	2.906	2.858	2.336	1.714	1.665	1.488	1.093	1.500	1.118	1.112	1.100	1.072	1.008	0.913	0.904	0.851	0.674	0.686	0.697	0.710	0.580	0.555	0.597	0.531	0.466	0.650	0.640	0.483	0.579	0.460	0.373	0.395	0.468	0.640	0.744	1.040	1.510	3.014	3.394	2.311	1.562	2.206	4.050	7.915	11.49	15.84	38.60	68.41	72.63	24.18	5.287	0.580	0.421	0.365	0.392	0.328	0.416	0.362
280.0	172.6	173.7	121.0	75.33	84.54	156.3	440.0	620.2	325.2	530.6	2860	9999.9	9999.9	819.1	34.41	8.704	5.624	4.800	7.140	3.102	3.191	2.757	1.740	1.772	1.571	1.362	1.399	1.152	1.191	1.374	1.191	1.122	0.885	0.871	0.828	0.934	0.818	0.763	0.857	0.644	0.626	0.624	0.690	0.625	0.732	0.700	0.678	0.729	0.604	0.502	0.435	0.503	0.584	0.559	0.636	0.913	1.564	2.685	3.836	3.155	1.787	1.503	2.341	3.121	4.148	10.29	26.82	63.18	95.22	33.10	17.50	2.165	0.522	0.429	0.402	0.430	0.334
285.0	265.0	237.2	160.4	99.91	89.51	120.0	225.9	614.6	361.4	233.5	748.3	3646	9999.9	8225	125.6	14.10	7.330	5.953	9.034	3.954	3.427	2.990	2.214	1.728	1.852	1.481	1.697	1.197	1.216	1.185	1.109	1.180	0.975	1.027	1.026	1.103	0.997	0.895	0.989	0.707	0.750	0.788	0.767	0.791	0.875	0.868	0.834	0.887	0.729	0.658	0.516	0.538	0.644	0.573	0.666	0.795	0.944	1.388	2.257	3.872	3.955	2.101	1.392	1.234	1.619	2.994	6.758	16.95	44.26	82.06	88.63	29.14	10.54	1.097	0.502	0.518	0.389
290.0	367.4	349.5	253.9	149.5	110.2	116.3	149.9	295.8	569.5	506.4	346.3	988.9	3559	9999.9	9999.9	1922	31.72	8.142	12.06	4.799	4.810	3.320	2.360	2.165	1.984	1.627	1.740	1.265	1.516	1.203	1.193	1.173	1.189	1.122	1.274	1.283	1.254	1.169	1.080	0.964	1.005	0.913	0.993	0.975	1.111	1.089	1.137	1.248	1.074	0.831	0.682	0.677	0.718	0.643	0.705	0.706	0.843	0.971	1.202	1.816	2.619	3.384	3.534	2.763	1.610	1.670	2.528	4.790	11.03	22.21	37.70	50.48	65.16	65.57	18.54	10.16	1.175
295.0	462.2	451.2	331.1	191.4	133.9	126.5	146.3	192.3	318.3	724.9	714.8	500.1	999.5	2517	9999.9	9999.9	681.2	30.99	18.15	6.928	6.034	4.235	3.061	2.715	2.215	1.734	2.109	1.599	1.555	1.216	1.389	1.279	1.141	1.288	1.536	1.390	1.637	1.363	1.135	1.105	0.989	1.031	1.074	1.100	1.299	1.378	1.303	1.460	1.318	0.968	0.779	0.764	0.803	0.786	0.811	0.816	0.871	0.975	0.987	1.276	1.475	1.775	2.482	4.237	4.881	3.444	2.315	2.381	3.630	6.258	9.544	12.19	17.65	36.04	63.38	107.2	30.64
300.0	525.4	526.8	384.8	224.2	156.3	148.3	172.3	200.9	261.6	520.1	1011	659.5	498.8	745.0	2763	9597	9999.9	513.6	42.81	9.001	8.010	5.056	3.592	2.897	2.520	1.856	2.186	1.617	1.558	1.333	1.406	1.271	1.260	1.276	1.524	1.654	1.683	1.563	1.273	1.197	1.207	1.060	1.166	1.097	1.382	1.623	1.448	1.521	1.495	1.085	0.835	0.927	0.807	0.837	0.844	0.849	0.965	1.101	1.100	1.270	1.413	1.539	1.807	2.632	4.456	5.715	4.332	2.935	2.566	2.890	3.451	3.903	5.088	9.283	19.49	60.00	82.47
305.0	556.7	565.9	452.2	258.5	185.7	174.3	210.1	252.5	317.4	458.2	865.7	1086	565.3	422.5	789.3	2949	9999.9	5119	524.3	12.38	9.965	6.255	4.162	3.548	2.743	1.935	2.593	1.753	1.566	1.356	1.540	1.401	1.243	1.351	1.562	1.756	1.896	1.561	1.450	1.376	1.334	1.291	1.207	1.153	1.498	1.624	1.496	1.666	1.667	1.246	0.932	1.101	0.880	0.944	0.961	1.092	1.234	1.270	1.349	1.553	1.702	1.844	1.891	2.291	3.002	4.446	5.583	5.345	3.732	2.870	2.693	2.297	2.406	3.196	5.406	14.96	29.45
310.0	606.5	606.5	475.2	298.3	220.3	211.8	250.5	296.1	375.5	474.4	667.2	984.1	963.1	513.7	400.6	804.4	3001	6866	9999.9	1737	30.92	9.090	5.131	4.417	3.484	2.307	2.688	1.932	1.776	1.586	1.627	1.463	1.305	1.391	1.590	1.755	1.807	1.622	1.534	1.407	1.384	1.366	1.366	1.336	1.503	1.486	1.575	1.760	1.705	1.313	1.068	1.199	1.150	1.013	1.107	1.163	1.355	1.464	1.509	1.622	1.795	2.056	2.190	2.293	2.903	3.343	3.884	4.769	5.456	5.000	3.993	2.600	2.221	2.215	2.459	4.445	7.699
315.0	686.4	669.6	510.3	350.3	269.9	253.3	285.0	340.0	409.5	516.6	634.4	762.2	905.5	911.6	444.1	377.8	820.5	1688	9999.9	9999.9	2730	30.04	7.475	5.792	4.099	3.091	3.278	2.590	2.070	1.811	2.001	1.523	1.467	1.397	1.599	1.802	1.697	1.661	1.725	1.464	1.400	1.338	1.484	1.486	1.670	1.833	1.762	2.075	1.850	1.474	1.213	1.502	1.366	1.350	1.299	1.464	1.608	1.686	1.585	1.785	1.972	2.174	2.412	2.741	2.837	3.255	3.529	3.824	3.960	4.404	5.423	4.933	3.692	2.348	2.075	2.335	3.106
320.0	779.3	843.3	664.7	436.6	322.5	305.8	329.0	377.7	450.7	568.0	673.3	753.0	790.2	960.7	715.1	363.0	389.9	516.4	2752	8446	9999.9	437.9	14.87	7.763	5.275	3.638	3.694	2.510	2.084	2.081	2.126	1.784	1.649	1.357	1.463	1.766	1.661	1.641	1.652	1.521	1.574	1.545	1.606	1.672	1.912	2.166	2.302	2.498	2.129	1.839	1.438	1.580	1.545	1.450	1.390	1.447	1.541	1.717	1.752	2.135	2.079	2.375	2.474	2.831	3.100	3.418	3.702	3.619	4.015	3.887	4.223	5.249	5.541	4.623	2.711	2.345	2.369
325.0	1015	1154	975.2	631.7	426.3	356.6	371.8	410.1	487.9	612.8	730.5	801.1	798.2	822.8	915.0	537.7	341.8	289.4	738.7	2505	9999.9	9607	61.53	11.98	6.704	3.915	4.285	2.846	2.501	2.305	2.121	1.937	1.587	1.392	1.438	1.785	1.762	1.660	1.746	1.593	1.771	1.716	1.828	1.859	2.246	2.715	2.842	3.354	2.933	2.466	2.055	2.096	1.773	1.578	1.757	1.657	1.660	1.891	1.935	2.222	2.232	2.678	2.652	3.246	3.164	3.607	3.795	3.838	4.172	4.034	4.046	4.423	5.146	5.698	4.583	3.578	2.396
330.0	1300	1551	1427	1021	641.3	465.9	423.6	463.5	546.3	672.5	791.8	870.9	874.6	815.3	807.8	773.6	509.9	300.4	330.1	678.4	2988	9364	5750	1471	23.19	5.532	5.856	3.235	3.006	2.323	2.373	1.813	1.630	1.502	1.514	1.742	1.675	1.742	1.809	1.690	1.843	1.924	2.196	2.304	2.795	3.333	3.649	4.411	4.069	3.782	3.201	3.285	2.866	2.392	2.084	2.053	2.139	2.198	2.221	2.308	2.510	2.867	3.043	3.492	3.450	3.875	4.154	4.154	4.270	4.450	4.462	4.313	4.453	4.607	4.761	4.979	4.340
335.0	1479	1829	1808	1377	886.0	615.5	498.3	519.1	600.3	725.9	847.2	927.4	941.5	880.1	784.9	730.3	748.7	455.5	299.4	320.3	784.8	2232	3961	9999.9	2102	23.26	8.207	4.494	3.590	2.662	2.855	2.225	1.817	1.539	1.603	1.729	1.902	1.764	1.836	1.863	2.040	2.164	2.352	2.682	3.256	3.790	4.218	5.114	5.133	4.597	4.120	4.549	3.718	3.246	2.568	2.308	2.349	2.414	2.547	2.591	2.818	2.914	3.292	3.640	3.814	4.143	4.226	4.506	4.365	4.733	4.800	4.764	4.627	4.704	4.290	4.201	4.570
340.0	1605	2016	2005	1540	1014	673.2	553.3	551.2	624.5	746.8	863.1	957.5	967.3	909.5	806.6	689.4	702.8	629.8	354.8	262.9	310.4	595.4	1082	7048	9376	371.9	20.63	5.636	4.477	2.903	2.853	2.322	2.223	1.672	1.636	1.727	1.885	1.884	1.959	1.702	2.040	2.290	2.637	2.989	3.592	4.322	4.610	5.529	5.574	4.798	4.669	5.029	4.108	3.355	2.859	2.510	2.728	2.586	2.941	2.668	2.835	3.062	3.355	3.732	4.230	4.268	4.173	4.428	4.531	4.779	4.951	4.897	4.756	4.695	4.293	4.234	4.118
345.0	1575	2034	2024	1607	1068	715.7	575.4	567.3	629.5	734.0	855.1	943.3	952.8	903.8	806.3	686.0	613.5	643.7	478.7	276.6	225.6	251.4	332.4	2000	8402	3389	337.7	8.517	5.373	3.657	3.421	2.424	2.145	1.804	1.566	1.920	1.886	1.845	1.934	1.967	1.851	2.223	2.382	2.782	3.439	4.161	4.561	5.705	5.813	4.837	4.778	5.082	4.193	3.715	2.997	2.685	2.760	2.615	2.721	2.808	2.860	3.059	3.428	3.747	3.872	4.297	4.123	4.321	4.389	4.890	4.563	4.652	4.595	4.735	4.319	4.124	3.879
350.0	1503	1857	1902	1596	1099	759.1	594.6	586.9	643.6	732.8	827.4	909.6	919.1	876.5	795.2	684.9	587.1	541.1	548.3	404.6	248.4	200.2	188.3	530.6	2343	4080	6036	1184	20.05	4.827	4.048	2.872	2.462	1.897	1.663	1.907	1.843	1.814	1.909	1.975	1.999	2.176	2.304	2.604	3.311	3.879	4.356	5.322	5.319	4.734	4.651	5.130	4.348	3.948	3.210	2.801	2.766	2.689	2.835	2.810	2.921	3.081	3.435	3.684	3.899	4.018	3.998	4.230	4.299	4.703	4.717	4.506	4.668	4.747	4.298	4.268	3.795
355.0	1385	1734	1769	1507	1095	764.4	632.8	617.3	654.4	729.3	803.7	863.8	871.1	849.5	783.0	681.8	595.4	511.9	477.0	507.5	368.2	231.3	186.2	227.0	595.4	988.3	4190	6833	404.3	21.01	5.621	3.844	2.807	2.186	1.825	1.923	2.006	1.919	1.902	1.884	1.890	2.161	2.321	2.635	2.966	3.379	3.917	5.135	4.890	4.372	4.553	4.714	4.436	3.954	3.263	2.844	2.819	2.776	2.862	2.915	3.062	3.404	3.361	3.755	3.667	3.851	4.095	4.141	4.422	4.338	4.536	4.324	4.339	4.568	4.219	4.056	4.295
360.0	1295	1592	1670	1451	1085	791.9	657.0	639.0	673.2	730.7	794.1	829.8	841.5	812.3	770.9	680.1	601.7	517.0	459.1	466.4	472.8	298.5	211.2	182.5	228.7	283.6	1117	4848	6791	340.6	12.91	4.724	3.540	2.363	1.938	1.863	2.112	1.936	2.048	1.836	1.968	1.966	2.233	2.544	2.930	3.287	3.818	4.509	4.688	4.219	3.927	4.482	4.068	3.748	3.321	2.951	2.992	2.984	3.048	3.081	3.229	3.300	3.424	3.603	3.952	3.793	3.988	4.172	4.377	4.434	4.341	4.271	4.279	4.618	4.259	4.157	4.028
365.0	1199	1472	1560	1359	1071	812.8	682.7	654.0	680.3	732.3	776.5	801.2	820.5	791.2	745.8	668.2	596.4	528.4	470.2	434.5	477.2	410.1	258.6	198.8	170.4	146.3	307.7	1396	6499	3165	50.87	7.845	4.214	2.779	2.474	1.954	2.156	1.934	2.079	1.842	2.047	2.032	2.291	2.451	2.706	3.165	3.526	4.056	4.367	4.150	4.009	4.461	3.897	3.831	3.428	3.001	3.056	3.167	2.881	3.230	3.281	3.104	3.422	3.631	3.815	3.670	4.035	3.822	4.220	4.334	4.273	4.071	4.255	4.278	4.349	3.991	3.935
370.0	1126	1335	1403	1259	1017	800.6	705.1	687.2	707.4	743.5	778.1	785.8	786.6	762.1	722.6	659.2	598.8	544.5	497.3	457.6	438.8	457.7	385.0	260.1	198.3	151.1	155.9	373.1	1853	4008	4758	1113	18.18	4.186	2.934	2.396	2.215	2.259	1.980	1.970	1.967	1.941	2.152	2.305	2.520	2.963	3.303	3.637	3.856	3.704	3.650	4.190	3.819	3.830	3.328	3.102	3.170	3.060	2.969	3.172	3.300	3.381	3.659	3.668	3.735	3.681	3.680	3.599	4.016	3.983	4.085	4.108	4.116	4.144	4.006	4.056	4.174
375.0	1017	1277	1262	1182	986.8	819.3	721.6	713.5	718.5	753.0	767.5	766.9	767.6	738.9	702.6	647.8	604.7	561.6	524.6	488.2	448.2	433.2	453.4	382.0	253.1	194.2	158.3	174.2	478.5	977.3	3427	6850	1568	18.30	4.497	3.285	2.569	2.457	2.089	2.232	1.926	2.107	2.010	2.302	2.523	2.713	2.903	3.561	3.428	3.562	3.290	4.070	3.848	3.641	3.363	3.049	3.159	3.308	3.108	3.288	3.528	3.503	3.574	3.572	3.405	3.574	3.462	3.494	3.902	4.048	3.900	3.809	4.169	4.382	3.749	3.994	3.906
380.0	949.8	1176	1208	1105	957.3	832.2	746.9	725.4	730.1	761.7	769.8	762.9	748.7	725.8	691.5	641.5	602.0	564.7	535.1	506.9	465.7	439.6	442.6	461.8	329.0	236.5	187.5	156.3	194.9	282.1	933.5	5099	6009	280.7	9.966	4.567	3.600	2.955	2.161	2.322	1.893	2.080	2.049	2.189	2.480	2.540	2.746	3.430	3.448	3.208	3.069	3.748	3.720	3.647	3.391	2.988	3.183	3.146	3.263	3.344	3.259	3.361	3.648	3.497	3.507	3.647	3.320	3.600	3.838	3.676	3.925	3.789	3.946	4.045	3.843	3.839	3.750
385.0	954.1	1091	1164	1066	948.8	833.4	753.4	734.5	747.3	773.9	779.2	770.9	750.7	722.7	690.1	637.3	601.9	567.9	543.6	525.2	489.0	464.4	443.8	466.4	431.9	295.4	228.3	185.9	162.8	152.7	275.3	1485	5624	2632	40.45	7.904	4.941	3.522	2.630	2.289	2.126	1.959	1.997	1.969	2.554	2.518	2.760	3.238	3.470	3.106	2.989	3.665	3.768	3.611	3.350	3.006	3.482	3.254	3.473	3.120	3.401	3.477	3.719	3.626	3.582	3.635	3.519	3.857	3.860	3.675	3.652	3.664	3.802	3.784	3.886	3.826	4.097
390.0	952.5	1065	1109	1051	975.4	864.7	822.6	807.0	813.7	843.0	860.9	848.9	820.7	784.7	721.9	663.7	622.7	584.6	572.6	555.7	534.6	513.3	495.5	482.2	493.1	430.2	327.3	265.5	221.6	184.2	176.0	415.9	1643	3116	2997	784.3	18.32	6.417	3.911	2.755	2.438	2.137	2.231	2.188	2.453	2.645	2.742	3.188	3.079	2.907	3.042	3.645	3.554	3.581	3.572	3.442	3.651	3.592	3.521	3.410	3.530	3.742	3.698	3.865	3.886	3.739	3.951	3.779	3.804	3.863	3.895	3.911	4.154	4.125	3.801	3.965	4.373
395.0	969.2	1081	1114	1096	1008	945.4	914.7	932.1	959.4	1032	1068	1080	1031	970.6	872.6	754.2	682.9	630.8	618.9	613.5	609.5	605.4	599.9	586.9	571.7	576.2	519.7	409.2	351.8	303.3	254.1	258.2	485.8	812.7	2203	4217	290.0	22.08	6.976	4.048	2.953	2.607	2.258	2.454	2.480	2.655	2.735	3.267	3.039	2.742	3.132	3.586	3.863	3.740	3.705	3.713	3.632	3.798	3.792	3.828	4.087	4.250	3.927	4.283	4.520	4.220	4.277	4.401	4.596	4.474	4.570	4.464	4.590	4.569	4.233	4.121	4.616
400.0	993.2	1120	1150	1141	1082	1055	1068	1097	1167	1285	1376	1384	1325	1223	1076	901.0	763.0	691.5	676.9	678.1	696.9	708.1	724.5	716.8	700.9	696.6	698.6	603.0	471.6	436.0	380.2	316.8	301.6	327.6	694.2	3304	3925	243.4	14.65	6.067	3.507	3.026	2.682	2.568	2.611	2.854	2.830	3.192	3.256	2.829	3.134	3.855	3.902	4.101	3.853	3.926	4.233	4.372	4.263	4.264	4.469	4.876	4.618	4.960	5.170	5.151	5.086	4.938	5.211	5.448	5.593	5.364	5.183	4.987	4.726	4.859	4.587
405.0	1053	1150	1158	1191	1195	1179	1227	1279	1411	1591	1752	1768	1687	1549	1322	1076	870.4	768.6	752.0	763.1	793.1	826.8	855.9	878.1	869.9	852.8	856.1	817.2	691.9	614.2	539.1	423.3	348.8	291.5	328.7	1086	3962	2257	38.11	9.193	4.637	3.466	3.040	2.949	2.953	2.807	2.936	3.162	3.311	3.052	3.173	4.233	4.245	4.328	4.364	4.289	4.680	4.781	4.881	4.940	5.259	5.468	5.552	5.799	6.200	6.124	6.119	5.729	5.996	6.502	6.347	6.107	5.945	5.830	5.452	5.770	5.272
410.0	1110	1193	1240	1269	1278	1311	1368	1461	1644	1899	2097	2142	2046	1847	1560	1239	970.5	841.0	812.2	831.0	883.0	932.0	983.9	1017	1021	1009	987.2	976.6	911.4	794.7	692.4	572.4	451.9	354.5	302.0	418.8	1244	2696	2782	747.9	13.71	4.176	3.225	3.117	3.149	3.181	2.932	3.450	3.427	3.176	3.443	4.261	4.351	4.480	4.661	4.742	5.059	5.405	5.142	5.488	5.470	5.977	6.100	6.474	6.819	6.870	7.105	6.908	7.230	6.948	6.751	6.943	6.513	6.428	5.869	5.768	5.551
415.0	1074	1147	1228	1263	1295	1345	1423	1526	1718	1974	2171	2240	2129	1914	1613	1274	985.1	844.4	818.0	841.9	894.0	954.2	1005	1054	1058	1044	1016	988.0	966.3	882.9	749.6	620.0	486.6	377.5	302.6	271.0	396.5	696.0	2089	3933	258.4	12.53	4.084	3.295	3.271	3.147	3.150	3.553	3.217	3.128	3.290	4.092	4.291	4.259	4.959	5.014	4.912	5.338	5.599	5.687	5.834	6.306	6.283	6.655	6.893	7.132	7.133	7.160	7.343	6.931	6.987	6.952	6.880	6.422	5.786	5.633	5.513
