Sample:	'1
File name:	G2025051316巴德士调节池 125倍.FD3
Run date:	'15:21:51, 05/20/2025
Operator:	Administrator
Comment:	'

Instrument
Model:	F-2700 FL Spectrophotometer
Serial number:	23B8-004
ROM Version:	4J14000 07

Instrument parameters
Measurement type:	3-D scan
Data mode:	Fluorescence
EX  Start WL:	220.0 nm
EX  End WL:	600.0 nm
EX Sampling interval:	5.0 nm
EM  Start WL:	230.0 nm
EM  End WL:	650.0 nm
EM Sampling interval:	5.0 nm
Scan speed:	12000 nm/min
EX Slit:	5.0 nm
EM Slit:	5.0 nm
PMT Voltage:	700 V
Response:	Auto 
Corrected spectra:	Off
Contour interval:	50.000

Peak integration
Integration method:	Rectangular
Sensitivity:	1
Threshold:	1.000

Peaks
No.	ApexEX/EM(nm)	Height(Data)
1	260.0/575.0	261.1
2	265.0/445.0	115.6
3	265.0/585.0	225.2
4	270.0/600.0	157.3
5	275.0/610.0	110.5
6	280.0/625.0	90.21
7	285.0/315.0	871.6
8	285.0/635.0	67.92
9	290.0/325.0	694.5
10	295.0/330.0	527.8
11	300.0/335.0	476.0
12	305.0/345.0	396.5
13	310.0/350.0	313.1
14	315.0/355.0	285.7
15	320.0/360.0	254.9
16	325.0/370.0	203.2
17	330.0/375.0	191.8
18	335.0/380.0	187.7
19	340.0/385.0	153.9
20	350.0/400.0	135.8
21	355.0/405.0	127.0
22	360.0/410.0	112.5
23	365.0/420.0	106.8
24	370.0/425.0	98.97
25	375.0/430.0	81.79
26	380.0/435.0	75.13
27	385.0/445.0	64.32
28	385.0/580.0	8.377
29	390.0/450.0	52.59
30	390.0/590.0	8.855
31	395.0/300.0	32.33
32	395.0/455.0	45.25
33	395.0/595.0	9.343
34	400.0/465.0	40.49
35	400.0/605.0	10.26
36	405.0/470.0	31.45
37	405.0/610.0	9.558
38	410.0/475.0	27.29
39	410.0/620.0	9.476
40	415.0/485.0	23.26
41	415.0/625.0	8.723
42	420.0/490.0	19.60
43	420.0/635.0	8.144
44	425.0/495.0	17.99
45	425.0/640.0	9.233
46	430.0/505.0	16.17
47	435.0/510.0	13.50
48	440.0/520.0	12.55
49	445.0/525.0	11.59
50	455.0/540.0	8.346
51	465.0/555.0	5.523
52	470.0/560.0	4.942
53	590.0/390.0	4.204

Data points
	220.0	225.0	230.0	235.0	240.0	245.0	250.0	255.0	260.0	265.0	270.0	275.0	280.0	285.0	290.0	295.0	300.0	305.0	310.0	315.0	320.0	325.0	330.0	335.0	340.0	345.0	350.0	355.0	360.0	365.0	370.0	375.0	380.0	385.0	390.0	395.0	400.0	405.0	410.0	415.0	420.0	425.0	430.0	435.0	440.0	445.0	450.0	455.0	460.0	465.0	470.0	475.0	480.0	485.0	490.0	495.0	500.0	505.0	510.0	515.0	520.0	525.0	530.0	535.0	540.0	545.0	550.0	555.0	560.0	565.0	570.0	575.0	580.0	585.0	590.0	595.0	600.0
230.0	1498	9999.9	9999.9	9999.9	1997	190.9	136.4	105.9	91.65	82.36	77.04	70.93	59.35	49.59	40.93	33.35	29.66	27.00	23.92	20.83	18.17	16.12	14.66	13.31	11.92	10.72	9.334	8.698	8.129	7.679	7.128	6.499	6.499	5.783	5.332	4.670	4.163	3.810	3.424	3.371	3.250	3.481	3.491	3.317	3.270	3.585	60.97	392.4	717.2	529.6	169.3	14.14	3.931	2.216	1.998	1.847	1.806	1.670	1.514	1.405	1.410	1.255	1.265	1.205	1.146	1.136	1.105	1.090	0.928	1.002	0.893	0.884	0.898	0.846	0.816	0.736	0.819
235.0	952.7	4499	9999.9	9999.9	9999.9	545.2	197.2	149.4	119.2	100.5	89.96	80.56	65.48	55.24	44.45	36.67	31.60	27.72	24.50	22.21	19.58	17.02	14.95	13.96	12.36	11.67	10.59	9.187	8.574	8.309	7.503	6.701	6.087	6.119	5.625	4.934	4.493	4.081	4.096	3.293	3.347	3.045	3.578	3.537	3.376	3.395	15.98	94.30	235.3	409.8	596.8	648.5	173.3	19.30	4.468	2.468	2.356	2.135	1.774	1.737	1.608	1.463	1.490	1.368	1.302	1.225	1.206	1.138	1.099	1.099	1.050	1.052	0.967	0.866	0.974	0.891	0.855
240.0	857.9	1606	7719	9999.9	9999.9	9999.9	421.2	211.0	155.2	128.6	108.0	91.39	73.65	61.94	50.84	40.29	34.35	29.25	26.83	23.53	20.55	17.43	16.13	15.20	13.09	11.91	11.32	9.850	9.166	8.121	7.637	7.133	6.519	6.224	5.936	5.243	4.607	3.906	4.047	3.477	3.319	3.391	2.986	3.678	3.883	3.749	6.135	23.68	55.59	108.3	280.1	716.3	880.0	641.3	27.80	14.95	3.548	2.669	2.215	2.095	1.912	1.723	1.719	1.562	1.413	1.367	1.363	1.284	1.251	1.232	1.145	1.231	1.136	0.999	1.061	1.037	0.927
245.0	714.7	1043	2293	9999.9	9999.9	9999.9	9999.9	355.7	213.2	166.1	131.9	108.4	83.96	70.25	55.10	45.69	37.95	32.41	28.16	24.33	21.03	18.49	17.49	15.82	15.21	13.46	11.87	10.43	9.284	8.669	8.214	7.530	6.785	6.656	5.942	5.774	5.017	4.543	4.205	3.837	3.664	3.339	3.342	3.520	3.403	3.697	4.367	8.358	15.05	26.54	66.47	216.9	555.7	1012	989.0	217.5	26.28	9.928	3.391	2.583	2.556	2.286	2.133	1.931	1.693	1.683	1.577	1.510	1.339	1.365	1.189	1.350	1.152	1.178	1.094	1.128	1.025
250.0	648.3	780.0	1163	2830	9999.9	9999.9	9999.9	9999.9	1246	257.8	198.8	149.3	111.2	87.55	66.54	53.18	44.57	38.33	31.95	28.07	23.57	20.16	18.44	17.35	16.13	14.67	13.32	11.81	11.00	10.06	8.918	8.376	7.275	7.161	6.399	5.905	5.633	5.246	4.725	4.317	4.046	3.955	3.688	3.574	3.549	3.460	3.873	4.901	6.433	8.877	17.43	51.39	131.4	302.6	564.0	813.7	1132	895.6	548.1	17.88	9.275	3.582	3.093	2.713	2.640	2.450	2.011	2.000	1.854	1.897	1.637	1.617	1.468	1.386	1.420	1.417	1.578
255.0	648.4	611.1	774.6	1302	2757	6467	9999.9	9999.9	9999.9	1545	331.5	217.3	158.9	118.1	86.97	65.63	54.07	45.12	38.68	32.96	28.44	23.98	20.55	19.31	18.03	16.57	15.26	13.23	12.58	11.56	10.35	8.941	8.030	7.853	6.845	6.451	6.249	5.927	5.700	5.054	4.617	4.324	4.048	4.088	3.938	3.672	3.668	3.942	4.139	4.855	7.245	15.10	32.51	70.57	129.3	192.4	393.4	932.1	1768	1685	234.7	26.39	10.69	4.738	3.964	3.296	3.083	2.645	2.480	2.176	2.235	2.178	1.903	1.871	1.803	1.746	1.633
260.0	684.2	584.1	589.4	874.9	1251	2042	9999.9	9999.9	9999.9	9999.9	1088	326.2	223.2	153.3	111.2	82.26	63.99	52.15	45.00	36.18	32.45	26.35	23.15	21.25	19.34	18.20	16.55	14.97	14.12	13.07	11.93	10.43	9.254	8.275	7.811	6.943	6.557	6.273	6.355	5.484	5.396	5.157	4.893	4.565	4.416	4.140	3.976	3.854	4.052	3.919	4.456	7.373	11.36	19.53	32.42	46.99	93.11	245.6	743.5	1635	2179	1571	207.1	21.75	6.962	4.856	4.301	3.557	3.098	3.061	2.777	2.689	2.550	2.238	2.280	2.110	2.035
265.0	875.1	641.6	549.3	641.9	1008	1152	3016	9999.9	9999.9	9999.9	9999.9	662.0	315.2	202.6	139.2	102.3	76.49	62.59	51.03	42.68	36.43	30.29	26.74	23.78	21.55	20.25	18.43	16.82	15.33	14.41	12.83	12.20	10.63	9.564	9.230	7.817	7.556	7.222	6.959	6.538	6.266	6.580	5.568	5.248	5.063	4.794	4.177	4.302	4.025	3.761	3.667	5.168	6.930	9.390	11.75	14.78	25.09	59.94	175.1	466.9	1187	2309	2015	1386	31.66	16.61	6.445	5.695	4.298	4.076	3.273	3.468	3.215	2.800	2.823	2.768	2.659
270.0	2111	1030	627.3	581.4	788.7	1171	1581	3487	9999.9	9999.9	9999.9	9999.9	878.0	339.4	216.1	143.8	107.4	81.88	65.18	52.95	44.26	36.38	32.51	29.16	25.08	23.44	21.08	19.86	17.53	16.58	15.66	14.57	13.98	13.50	13.35	12.74	12.09	11.05	10.74	10.15	10.10	10.22	10.06	9.226	8.311	7.159	5.723	5.259	4.635	4.178	3.970	4.979	5.325	6.664	8.037	9.536	12.02	19.27	45.03	110.4	280.1	659.0	1157	2026	2050	1809	884.9	106.4	13.87	6.993	5.714	5.056	4.293	4.127	4.026	3.632	3.634
275.0	4288	1673	792.1	625.5	733.6	1027	1612	1975	3436	9999.9	9999.9	9999.9	9999.9	947.3	351.5	219.7	156.1	112.1	85.80	67.42	56.32	45.41	39.63	34.46	29.96	27.88	25.04	23.14	20.65	19.33	18.02	17.57	18.46	20.09	20.43	19.86	18.08	17.46	16.80	16.23	16.31	16.46	16.35	15.28	13.95	10.61	7.531	6.555	5.403	4.806	4.575	5.278	5.466	6.155	6.720	7.739	10.08	12.98	18.55	31.93	69.66	154.5	266.7	469.1	643.1	1535	3137	3450	1453	31.77	15.43	8.266	6.835	6.044	5.618	5.344	5.263
280.0	5680	2182	875.0	687.1	737.0	953.7	1433	1959	2042	3588	9999.9	9999.9	9999.9	9029	684.7	309.8	205.3	145.8	106.6	81.61	67.39	53.15	43.86	39.29	34.47	30.72	26.57	24.86	23.41	21.62	19.00	19.69	21.77	23.86	25.53	24.05	23.25	21.24	20.39	20.46	20.60	20.76	20.49	18.78	16.81	12.56	9.013	7.131	6.215	5.057	5.239	5.759	5.836	6.554	6.986	7.325	8.753	10.85	13.75	16.67	24.00	42.51	67.59	113.1	153.4	381.2	1106	2569	3768	2008	244.0	27.41	11.51	8.259	7.274	6.514	6.409
285.0	6603	2485	965.7	720.8	742.0	925.1	1259	1880	2020	2018	3655	9999.9	9999.9	9999.9	6544	474.9	278.6	186.9	135.6	98.88	77.28	60.38	49.78	44.58	36.95	32.56	29.72	27.46	25.59	23.19	20.51	21.32	22.78	26.63	29.02	26.88	26.53	24.63	23.06	23.78	23.11	24.26	23.36	21.88	19.42	14.41	9.798	7.826	6.774	5.615	5.613	6.165	6.267	6.620	6.793	7.591	8.309	9.251	11.26	13.37	16.15	19.04	23.15	33.51	42.56	92.97	257.9	654.5	1550	2906	3734	1800	35.95	22.32	10.27	8.404	7.587
290.0	7210	2726	1120	775.2	745.5	894.8	1155	1523	1985	1912	1754	3660	9999.9	9999.9	9999.9	9999.9	552.8	284.7	189.5	132.7	99.56	77.86	62.15	52.38	44.18	38.05	34.24	31.03	28.55	25.14	23.26	23.14	24.55	28.58	31.10	30.28	28.67	27.27	25.35	25.51	24.91	25.43	24.98	23.62	20.63	15.69	10.83	8.572	7.481	6.207	6.071	6.685	6.594	6.621	6.999	7.622	8.365	9.154	10.17	11.00	12.93	14.60	15.83	17.01	17.84	27.87	64.73	153.1	357.5	742.7	1453	2158	2681	1917	1054	132.5	18.92
295.0	7257	2855	1210	819.7	733.7	862.2	1093	1335	1587	1885	1558	1490	2958	9999.9	9999.9	9999.9	9999.9	584.4	281.1	188.8	130.9	100.4	78.12	64.74	53.28	45.77	39.52	35.24	31.10	28.19	25.72	25.74	25.86	29.43	32.04	31.07	29.99	28.51	26.78	25.83	26.12	25.44	24.89	23.78	21.47	16.57	11.29	9.363	7.752	6.492	6.302	7.025	6.544	7.180	7.144	7.866	8.321	9.544	9.493	10.25	11.47	11.27	12.37	14.22	14.93	14.40	20.95	40.40	86.42	172.3	331.7	491.2	679.3	1131	2673	3655	1869
300.0	7343	2871	1237	857.8	712.9	809.7	1036	1246	1427	1507	1639	1098	1261	2975	9999.9	9999.9	9999.9	5189	455.7	253.6	168.6	122.0	93.66	74.95	60.81	51.88	44.92	39.42	34.50	30.93	27.33	27.09	27.16	29.96	32.24	32.33	30.61	28.58	26.98	26.44	26.32	25.39	24.76	23.16	21.28	16.63	11.75	9.508	8.254	6.732	6.314	7.247	6.882	7.299	7.049	8.027	8.426	9.640	9.230	10.15	10.47	10.96	10.51	11.67	13.07	13.34	12.78	15.74	25.41	44.63	80.77	116.9	159.8	269.5	779.2	2000	3479
305.0	7121	2862	1230	839.4	717.9	810.4	992.1	1194	1331	1293	1339	1268	865.1	1208	3092	9999.9	9999.9	9999.9	3852	355.1	219.3	152.0	111.9	86.21	70.29	59.48	49.66	43.28	38.10	33.14	29.93	28.59	29.58	30.18	32.66	31.15	30.12	28.53	27.15	27.24	26.47	25.28	25.34	22.96	20.62	16.25	11.20	9.567	8.340	6.845	6.459	6.884	6.756	7.440	7.336	7.859	8.568	9.141	9.717	9.976	10.08	10.49	10.02	9.940	10.33	10.50	11.65	12.04	12.60	16.47	24.14	32.87	42.63	67.83	182.7	480.9	1176
310.0	6688	2667	1140	790.4	676.5	750.3	942.6	1126	1238	1158	959.0	1032	1011	762.9	1113	3187	9999.9	9999.9	9999.9	9999.9	402.8	220.2	150.9	111.1	85.12	69.15	57.01	49.16	41.37	36.56	33.10	30.27	30.13	31.84	32.38	30.54	30.51	28.23	26.63	26.00	25.58	24.86	24.60	23.08	20.72	16.27	11.41	9.456	8.341	7.048	6.643	7.143	6.911	7.338	7.535	7.761	8.253	8.963	9.368	9.794	9.740	10.01	9.705	9.522	9.175	8.175	8.897	9.707	10.40	11.35	12.19	13.25	15.40	21.54	47.25	114.3	271.2
315.0	6027	2459	1030	718.9	609.2	668.1	856.2	1031	1128	1022	772.7	638.3	830.5	871.6	598.3	1042	2662	9409	9999.9	9999.9	9999.9	427.9	218.0	150.8	109.4	83.46	69.00	56.85	47.85	41.20	36.19	32.33	30.91	32.01	32.86	30.76	30.57	28.40	26.09	25.31	24.59	24.30	23.66	22.58	19.69	15.75	11.31	9.480	8.232	6.886	6.656	6.938	6.958	7.336	7.324	7.389	8.134	8.641	8.873	9.511	9.877	9.378	9.164	8.731	8.593	7.663	7.350	7.408	7.561	8.835	10.04	10.18	9.730	10.32	16.07	31.26	66.51
320.0	5712	2358	980.5	668.0	567.7	627.0	779.0	971.4	1056	962.2	685.1	503.0	550.0	816.9	607.1	505.4	903.2	2553	9999.9	9999.9	9999.9	3882	346.0	198.2	138.4	101.4	77.50	63.49	53.68	45.29	39.33	34.31	32.79	32.51	32.67	31.25	30.55	27.78	25.81	24.93	24.40	23.80	23.27	21.76	19.84	15.55	10.87	9.309	8.017	6.865	6.293	6.992	6.919	7.159	6.949	7.002	7.782	8.168	8.343	8.778	9.501	9.195	8.711	8.487	8.173	6.956	6.905	6.598	6.560	6.719	7.618	9.101	9.366	8.877	9.044	12.10	20.44
325.0	5589	2263	969.3	658.7	557.2	604.4	747.8	905.7	1001	893.8	634.2	440.1	416.0	555.8	694.5	422.7	448.5	863.2	2794	9999.9	9999.9	9999.9	3002	274.5	176.5	124.6	90.81	72.21	59.40	49.16	41.83	37.37	34.01	33.48	32.79	31.07	30.37	28.62	25.87	24.38	23.94	23.51	22.73	21.43	19.19	15.24	11.13	9.321	8.198	6.702	6.388	6.970	7.246	6.917	6.819	6.855	7.665	8.039	8.098	8.439	9.079	8.495	8.488	8.126	7.590	6.599	6.417	5.978	5.836	5.833	6.455	6.880	7.982	8.536	8.525	8.148	9.979
330.0	5230	2152	948.5	671.8	563.9	579.2	702.0	850.3	926.5	835.5	587.6	394.2	355.9	363.8	472.2	527.8	369.8	402.6	868.9	2856	9999.9	9999.9	9999.9	9999.9	323.7	176.2	123.3	90.85	70.97	58.85	48.26	40.98	37.31	36.03	34.02	31.77	29.64	28.19	25.50	24.17	23.69	23.89	22.37	20.92	18.78	15.13	10.94	9.233	8.025	6.846	6.133	7.143	6.865	6.779	6.684	6.881	7.770	7.852	7.749	7.904	8.527	8.438	8.072	7.754	7.375	6.444	5.866	5.918	5.806	5.572	5.930	5.805	6.205	6.711	7.308	7.798	8.245
335.0	4810	1973	910.2	651.9	559.4	546.4	633.9	768.5	832.7	745.9	524.0	354.6	314.3	286.5	289.7	371.8	476.0	306.7	368.5	840.9	2497	7972	9999.9	9999.9	9999.9	347.7	172.3	123.9	90.43	71.24	57.90	46.83	42.42	38.47	35.90	33.21	30.08	28.20	25.07	24.08	22.91	22.53	21.11	19.70	18.28	14.52	10.75	9.383	8.230	6.585	6.222	6.917	6.721	6.770	6.905	6.795	7.620	7.782	7.796	7.839	7.764	8.097	7.647	7.583	7.132	6.271	5.747	5.802	5.334	5.274	5.753	5.653	5.745	5.799	5.789	6.170	7.039
340.0	4224	1815	858.7	616.1	524.3	510.5	577.5	695.2	751.2	669.3	470.7	325.6	287.3	259.7	233.9	245.3	399.2	379.1	246.1	349.8	752.4	2067	9999.9	9999.9	9999.9	3321	274.0	156.4	110.8	82.54	65.76	52.84	45.44	41.21	36.55	33.18	30.42	27.72	25.18	23.00	22.33	21.62	20.30	19.28	17.17	14.53	10.63	9.319	7.717	6.557	6.058	6.731	6.562	6.587	6.569	6.550	6.999	7.198	7.321	7.466	7.849	7.748	7.334	7.414	6.843	5.971	5.890	5.335	5.186	5.299	5.405	5.127	5.180	5.267	5.249	5.661	5.523
345.0	3811	1664	769.7	602.3	492.9	470.3	521.3	621.1	666.4	607.6	422.0	295.9	263.2	239.2	206.0	192.8	255.0	396.5	274.7	216.2	323.2	651.2	2602	9999.9	9999.9	9999.9	2696	208.6	134.0	98.23	73.80	57.87	47.82	42.39	37.28	32.42	30.13	27.01	23.98	21.88	21.27	20.69	19.54	17.66	15.99	13.52	10.27	9.524	8.082	6.429	6.056	6.953	6.361	6.637	6.336	6.381	6.752	6.979	7.104	6.997	7.125	7.070	7.229	6.843	6.553	5.547	5.543	5.076	5.055	5.069	5.127	4.896	5.111	5.091	4.851	5.403	4.988
350.0	3195	1381	671.2	532.6	444.0	412.9	452.8	536.2	575.5	511.7	364.8	261.9	236.0	211.8	184.2	162.3	166.8	236.8	313.1	234.3	194.5	280.4	745.2	2659	9999.9	9999.9	9999.9	9999.9	266.0	132.6	93.14	68.51	53.88	44.69	38.27	32.91	29.56	25.93	23.38	21.34	19.65	18.87	17.91	16.24	15.10	12.52	9.679	8.738	7.525	6.323	5.852	6.356	6.043	6.110	6.061	5.960	6.191	6.134	6.383	6.384	6.611	6.291	6.268	5.948	5.858	5.179	4.922	4.792	4.532	4.591	4.516	4.484	4.618	4.495	4.491	4.493	4.425
355.0	2553	1150	589.5	458.3	381.7	359.7	402.1	457.5	485.0	430.1	315.7	231.7	206.5	188.0	162.7	143.4	133.2	142.8	192.8	285.7	197.6	166.4	281.4	734.2	2413	6133	9999.9	9999.9	9999.9	298.9	128.5	89.76	66.25	51.21	40.66	34.90	29.88	26.01	22.94	20.44	18.90	17.34	16.12	15.59	13.90	11.82	9.288	8.465	7.448	6.168	5.601	5.906	5.751	5.441	5.632	5.481	5.590	5.950	5.710	6.097	6.192	5.413	5.694	5.631	5.552	4.502	4.470	4.355	4.445	4.215	4.270	4.082	4.039	4.054	4.065	4.034	3.806
360.0	2200	997.0	528.0	408.5	345.8	321.1	352.2	406.0	434.6	393.0	281.1	211.2	190.5	168.2	149.6	133.3	118.9	112.4	126.7	212.8	254.9	151.2	159.3	276.0	676.3	1567	9999.9	9999.9	9999.9	3235	233.3	115.1	80.90	58.83	45.39	36.96	31.07	26.53	22.92	20.66	18.40	16.99	15.96	14.06	12.98	11.51	9.273	8.263	7.519	5.931	5.357	5.938	5.478	5.375	5.281	5.562	5.387	5.594	5.738	5.702	5.692	4.972	5.154	5.083	4.822	4.487	4.162	4.143	4.412	4.081	4.192	3.927	3.706	3.867	3.895	3.778	3.669
365.0	1847	887.5	457.1	377.9	311.4	282.6	317.0	354.4	386.7	346.5	256.6	194.5	177.9	160.1	143.1	123.6	110.5	101.6	102.3	133.9	235.6	201.7	127.0	154.2	261.9	483.5	2474	9999.9	9999.9	9999.9	2740	172.0	99.65	73.03	52.23	40.25	33.43	28.25	23.91	20.39	18.28	17.11	15.57	13.73	12.72	11.15	9.333	8.336	7.231	6.047	5.550	5.741	5.546	5.332	5.236	5.139	5.425	5.053	5.637	5.174	5.417	5.116	5.115	4.968	4.900	4.182	3.887	4.160	3.968	3.858	3.955	3.809	3.914	3.702	3.843	3.418	3.596
370.0	1503	746.5	422.3	328.7	283.7	258.7	272.7	304.4	326.7	299.9	230.8	176.6	162.1	146.4	128.3	112.0	100.9	94.10	89.39	96.04	137.7	203.2	172.6	118.9	139.0	203.9	670.2	2506	9999.9	9999.9	9999.9	9999.9	229.0	101.4	69.72	49.84	38.54	30.59	25.81	21.91	19.44	17.85	16.00	13.43	12.01	10.82	8.981	8.128	7.071	6.044	5.500	5.694	5.522	5.309	4.951	4.873	5.058	4.955	4.990	5.048	5.053	4.925	4.536	4.662	4.370	4.066	3.769	3.799	3.649	3.597	3.689	3.532	3.710	3.578	3.512	3.424	3.672
375.0	1264	637.0	359.7	286.8	249.7	242.9	231.6	258.1	273.3	258.2	205.6	163.7	152.0	133.4	117.1	103.9	93.12	87.84	82.72	81.82	90.52	119.5	191.8	155.3	102.1	115.2	231.8	660.8	2366	4697	9999.9	9999.9	9999.9	259.8	96.60	64.22	48.62	35.81	28.18	23.78	20.29	18.41	16.10	13.79	12.10	11.14	8.991	8.132	6.761	6.046	5.598	5.745	5.285	5.030	5.113	4.606	4.915	4.679	4.800	4.815	4.580	4.631	4.362	4.149	4.251	3.907	3.736	3.590	3.277	3.349	3.264	3.433	3.411	3.477	3.188	3.127	3.222
380.0	1140	584.5	356.7	268.9	236.3	225.9	219.0	239.1	242.6	227.1	189.6	154.6	142.6	124.3	109.3	97.08	88.59	81.95	77.86	75.90	75.85	83.62	132.8	187.7	113.0	87.22	119.5	230.0	630.3	1199	8063	9999.9	9999.9	9999.9	194.5	81.06	58.62	42.18	32.53	25.85	21.29	19.48	16.11	13.93	12.29	11.06	9.074	8.415	7.093	5.942	5.492	5.710	5.177	5.182	5.188	4.619	4.863	4.409	4.611	4.392	4.318	4.236	4.218	4.096	4.066	3.672	3.648	3.568	3.286	3.462	3.363	3.564	3.336	3.230	3.083	2.953	3.137
385.0	927.1	509.6	327.7	254.5	221.9	206.3	199.5	211.5	216.0	208.7	171.2	147.3	133.7	116.7	104.5	91.10	84.55	78.00	73.27	70.90	69.21	70.62	86.91	153.1	153.9	84.76	83.89	118.2	222.9	369.5	1969	9999.9	9999.9	9999.9	2389	128.0	70.53	51.32	37.63	28.28	23.47	19.52	16.61	14.61	12.83	11.01	9.366	8.168	6.998	5.947	5.444	5.741	5.267	5.365	5.162	4.619	4.747	4.239	4.411	4.468	4.223	4.165	4.144	4.204	3.595	3.502	3.333	3.425	3.321	3.161	3.175	3.867	3.788	3.591	3.154	3.103	2.963
390.0	819.9	463.2	304.5	243.5	205.7	190.2	180.1	188.4	189.9	187.2	154.3	133.9	123.1	112.7	97.63	85.34	78.73	73.53	68.90	65.79	63.37	63.46	67.03	88.73	136.7	127.7	79.79	78.44	109.7	155.5	526.4	2391	9341	9999.9	9999.9	9508	185.7	69.33	48.45	35.19	26.96	21.76	18.18	15.17	13.61	11.82	9.667	8.741	7.525	6.244	5.411	5.723	5.168	5.147	4.986	4.660	4.658	4.295	4.223	4.279	4.093	4.070	3.927	3.877	3.694	3.275	3.543	3.245	3.334	3.038	2.982	3.233	3.476	4.041	4.204	4.004	3.072
395.0	716.7	415.5	279.0	215.3	195.1	174.2	174.8	173.6	178.7	169.6	149.8	127.6	120.5	107.0	95.08	84.10	75.23	67.91	65.87	63.34	60.74	59.18	60.62	63.57	80.59	125.8	121.9	72.29	74.50	89.54	181.5	608.5	2171	3231	9999.9	9999.9	9999.9	228.0	66.76	45.96	33.48	25.02	20.54	16.74	14.42	12.58	10.47	9.371	7.960	6.337	5.676	5.754	5.267	5.132	5.036	4.453	4.463	4.323	4.352	4.155	3.994	3.850	3.717	3.851	3.490	3.397	3.483	3.139	3.143	3.160	3.033	2.965	3.010	3.153	3.893	5.999	6.280
400.0	672.6	390.1	261.4	201.6	181.7	167.4	160.7	168.8	169.0	159.1	144.3	126.1	119.6	107.4	96.87	83.19	74.35	67.67	64.06	62.56	60.31	59.21	58.39	57.76	60.80	86.08	135.8	97.14	66.68	71.17	97.75	199.5	555.1	814.1	4543	9999.9	9999.9	9999.9	175.4	56.45	39.54	29.63	22.23	18.24	15.28	13.25	11.06	9.680	8.077	6.595	5.740	5.852	5.352	5.069	4.827	4.436	4.517	4.543	4.430	4.127	3.964	3.590	3.686	3.472	3.372	3.138	3.132	3.158	3.149	2.980	2.749	2.917	2.965	2.612	2.983	4.104	6.728
405.0	620.8	353.7	248.8	185.9	167.2	155.9	155.7	163.7	155.9	154.0	144.3	126.7	119.2	106.4	96.54	84.69	73.75	67.57	64.04	61.72	58.65	58.96	57.60	57.21	56.35	65.51	106.5	127.0	77.99	64.70	72.64	99.20	184.3	249.1	1110	6833	9999.9	9999.9	2219	114.9	48.16	34.03	26.14	19.92	15.99	13.64	11.37	9.951	8.288	6.686	5.509	5.799	5.118	5.048	4.606	4.354	4.616	4.240	4.323	3.874	3.883	3.761	3.385	3.418	3.278	3.143	3.116	3.001	2.975	2.960	2.811	2.659	2.624	2.377	2.878	3.162	3.943
410.0	539.1	338.7	234.9	188.6	162.3	146.0	145.3	152.5	154.4	152.4	143.7	130.5	117.8	108.0	95.11	80.88	71.48	65.36	62.03	59.65	57.86	56.91	56.99	56.55	55.19	58.35	71.33	106.4	112.5	76.71	62.98	68.90	88.96	108.0	305.5	1607	6462	9999.9	9999.9	9702	164.7	46.15	32.41	24.50	18.55	15.10	11.98	10.28	8.588	6.940	5.793	5.979	5.099	5.001	4.669	4.322	4.325	4.234	4.136	3.885	3.830	3.666	3.460	3.146	3.238	3.006	3.070	2.934	2.861	2.826	2.732	2.601	2.554	2.620	2.660	2.752	2.883
