Sample:	'1
File name:	Default_20230714_175306.FD3
Run date:	'17:46:45, 07/14/2023
Operator:	user
Comment:	'

Instrument
Model:	F-2700 FL Spectrophotometer
Serial number:	2190-003
ROM Version:	4J14000 07

Instrument parameters
Measurement type:	3-D scan
Data mode:	Fluorescence
EX  Start WL:	220.0 nm
EX  End WL:	600.0 nm
EX Sampling interval:	5.0 nm
EM  Start WL:	230.0 nm
EM  End WL:	650.0 nm
EM Sampling interval:	5.0 nm
Scan speed:	12000 nm/min
EX Slit:	5.0 nm
EM Slit:	5.0 nm
PMT Voltage:	700 V
Response:	Auto 
Corrected spectra:	Off
Contour interval:	50.000

Peak integration
Integration method:	Rectangular
Sensitivity:	1
Threshold:	1.000

Peaks
No.	ApexEX/EM(nm)	Height(Data)
1	225.0/270.0	93.92
2	225.0/550.0	105.0
3	225.0/575.0	90.38
4	225.0/630.0	82.69
5	230.0/265.0	78.43
6	230.0/545.0	110.1
7	230.0/615.0	99.22
8	235.0/585.0	85.86
9	235.0/600.0	76.32
10	240.0/575.0	87.75
11	240.0/615.0	66.82
12	240.0/640.0	71.72
13	245.0/265.0	170.4
14	245.0/605.0	66.57
15	250.0/270.0	170.9
16	250.0/370.0	 3049
17	250.0/580.0	76.68
18	250.0/610.0	59.51
19	255.0/280.0	242.7
20	255.0/605.0	64.72
21	260.0/285.0	332.0
22	260.0/635.0	59.65
23	265.0/290.0	389.9
24	265.0/575.0	115.8
25	265.0/615.0	66.75
26	270.0/590.0	104.3
27	270.0/625.0	63.94
28	270.0/635.0	64.86
29	275.0/305.0	969.0
30	275.0/605.0	100.7
31	280.0/310.0	946.6
32	280.0/615.0	88.39
33	285.0/315.0	871.7
34	285.0/630.0	65.17
35	290.0/640.0	48.90
36	295.0/265.0	11.98
37	300.0/235.0	11.04
38	300.0/335.0	528.8
39	305.0/265.0	10.12
40	305.0/340.0	563.6
41	310.0/235.0	7.868
42	310.0/245.0	7.640
43	310.0/350.0	514.3
44	310.0/405.0	855.2
45	315.0/355.0	519.5
46	320.0/275.0	8.972
47	320.0/360.0	561.6
48	330.0/245.0	5.332
49	330.0/260.0	5.571
50	335.0/380.0	614.5
51	340.0/250.0	6.043
52	345.0/245.0	4.580
53	350.0/320.0	5.723
54	365.0/635.0	7.250
55	370.0/275.0	4.804
56	370.0/330.0	5.780
57	380.0/295.0	3.954
58	385.0/340.0	4.179
59	390.0/305.0	3.966
60	390.0/320.0	4.262
61	395.0/265.0	3.174
62	410.0/255.0	3.334
63	415.0/345.0	3.410
64	430.0/300.0	2.614
65	430.0/320.0	3.103
66	445.0/315.0	3.104
67	480.0/425.0	5.044
68	495.0/360.0	10.55
69	500.0/370.0	10.90
70	500.0/440.0	5.221
71	535.0/395.0	6.018
72	550.0/445.0	4.689
73	550.0/515.0	3.199
74	560.0/310.0	4.641
75	570.0/315.0	4.168
76	575.0/520.0	3.217
77	580.0/485.0	3.907

Data points
	220.0	225.0	230.0	235.0	240.0	245.0	250.0	255.0	260.0	265.0	270.0	275.0	280.0	285.0	290.0	295.0	300.0	305.0	310.0	315.0	320.0	325.0	330.0	335.0	340.0	345.0	350.0	355.0	360.0	365.0	370.0	375.0	380.0	385.0	390.0	395.0	400.0	405.0	410.0	415.0	420.0	425.0	430.0	435.0	440.0	445.0	450.0	455.0	460.0	465.0	470.0	475.0	480.0	485.0	490.0	495.0	500.0	505.0	510.0	515.0	520.0	525.0	530.0	535.0	540.0	545.0	550.0	555.0	560.0	565.0	570.0	575.0	580.0	585.0	590.0	595.0	600.0
230.0	71.13	91.04	605.8	659.2	110.5	31.01	30.63	32.66	28.43	26.33	18.64	16.25	13.13	13.28	11.60	7.234	9.392	6.042	6.046	5.108	6.094	5.426	4.359	4.726	4.193	4.089	3.486	4.069	3.434	2.538	3.060	3.501	3.271	2.813	2.408	2.360	2.335	2.029	2.435	2.441	2.297	2.212	2.015	1.738	2.130	1.716	1.907	1.943	2.796	2.819	2.351	1.795	1.579	1.460	1.459	1.644	1.878	1.717	1.475	1.273	1.726	1.477	1.325	1.633	1.546	1.820	1.285	1.395	1.533	1.709	1.704	1.611	1.835	1.615	1.726	1.890	1.871
235.0	110.6	83.99	263.1	917.9	897.4	129.2	36.27	23.31	27.26	23.64	16.07	20.17	19.12	12.61	8.266	10.19	11.04	4.942	7.868	7.704	6.518	4.455	3.925	4.341	3.486	2.982	3.963	3.044	2.465	3.346	3.681	2.631	2.672	2.648	2.687	2.259	2.024	2.412	2.909	2.287	2.101	1.985	2.390	2.643	1.883	2.008	1.814	1.662	1.924	3.046	3.563	4.103	3.207	1.748	1.344	2.183	2.002	1.167	1.078	1.388	1.764	1.521	1.681	1.563	1.227	2.028	2.106	1.169	1.633	1.427	1.396	1.268	1.267	1.594	1.134	2.124	1.619
240.0	92.71	74.92	104.0	428.2	 1405	901.8	102.2	32.77	21.16	24.05	15.04	17.24	17.96	11.36	9.539	10.36	7.575	5.905	4.264	7.014	6.173	3.017	5.010	4.384	1.878	3.535	3.583	3.564	2.665	3.268	3.729	2.588	1.719	2.612	1.757	2.121	2.451	2.146	2.347	2.180	1.870	1.231	2.157	1.903	1.465	1.593	1.846	1.110	1.660	1.697	2.099	4.549	4.493	4.139	2.227	1.874	1.864	1.857	1.485	1.589	1.473	2.063	1.801	2.316	1.073	1.244	1.570	1.112	1.413	1.259	1.681	1.598	1.643	1.604	1.797	2.124	1.661
245.0	96.69	94.22	106.6	124.3	757.8	 1812	772.2	57.45	30.82	17.29	18.56	18.60	13.14	15.06	11.53	12.45	6.574	6.077	7.640	6.281	6.261	3.939	5.332	4.012	3.419	4.580	3.499	4.151	3.330	3.420	4.044	3.291	3.113	2.247	2.956	1.721	2.184	2.279	2.026	1.987	2.170	2.318	1.542	1.621	1.912	2.031	1.080	1.370	1.954	1.415	1.316	2.086	3.697	6.001	5.229	3.981	2.648	1.427	1.467	1.744	1.810	1.646	1.849	2.100	1.188	1.152	1.390	1.331	1.869	1.894	1.404	1.656	2.124	1.651	1.885	1.851	1.934
250.0	83.10	73.76	91.04	98.00	211.9	883.4	 1909	 1236	215.9	20.78	20.61	19.06	15.13	16.34	13.42	10.80	6.491	6.946	6.993	6.543	5.740	5.413	3.427	4.246	6.043	3.066	3.081	3.689	4.127	3.100	3.542	3.003	2.526	2.004	2.024	1.937	1.719	1.877	2.502	2.719	2.264	2.052	2.652	1.964	2.220	1.824	1.699	1.509	1.732	1.597	1.283	1.658	1.931	3.020	3.972	5.605	6.669	5.479	4.198	2.550	1.761	1.657	1.409	2.030	1.556	1.648	1.681	1.904	1.689	1.546	1.841	1.469	1.578	1.907	1.677	1.323	1.647
255.0	47.20	52.86	53.68	109.0	123.7	241.4	671.9	 2483	 1639	238.9	20.26	21.72	14.42	15.54	12.84	7.364	8.047	6.409	5.641	6.329	5.774	4.284	5.275	5.015	5.148	3.510	3.664	2.887	3.954	2.515	2.722	3.308	2.474	2.727	2.390	2.536	1.804	1.775	3.334	2.510	2.585	2.757	2.129	1.972	1.650	1.457	2.099	1.674	1.716	1.226	1.390	2.046	1.189	1.607	2.022	2.297	3.812	5.540	8.784	9.326	5.328	2.240	1.282	1.576	1.676	1.536	1.556	1.440	1.750	2.063	1.363	2.095	1.841	1.958	2.195	1.466	1.658
260.0	62.58	43.15	68.33	84.12	131.4	120.4	185.8	 1125	 3331	 1359	114.9	19.94	17.31	13.46	14.02	8.407	7.933	7.526	7.319	5.981	3.573	3.117	5.571	4.392	2.934	3.299	3.539	4.353	4.422	2.974	2.471	3.240	2.824	2.585	1.418	3.062	2.645	2.045	2.036	2.505	1.683	2.432	2.493	1.785	1.949	2.378	1.663	1.536	2.131	1.188	1.753	2.365	1.735	1.490	1.518	1.701	2.637	2.796	4.738	9.341	11.40	8.623	3.121	1.784	1.774	1.711	1.308	1.635	1.901	2.011	1.049	2.018	0.940	2.266	1.591	1.365	1.226
265.0	75.46	59.35	78.43	66.95	103.3	170.4	80.66	294.5	 1716	 3741	 1074	51.94	21.01	11.69	9.312	11.98	5.436	10.12	6.507	5.045	5.637	4.264	4.313	4.253	4.972	3.651	2.609	3.575	3.640	3.781	3.253	3.276	3.453	2.971	1.719	3.174	2.200	2.045	1.971	2.554	1.924	2.128	2.623	2.184	1.866	2.437	1.518	1.696	1.727	1.724	1.718	1.739	1.663	1.627	1.876	1.650	1.795	1.866	2.208	4.321	6.881	11.82	12.78	6.566	2.501	1.576	0.971	1.459	1.481	2.071	1.368	1.432	1.452	1.510	1.282	1.333	2.080
270.0	79.07	93.92	59.07	51.24	76.66	130.6	170.9	130.3	435.3	 1677	 3470	 2415	256.7	17.49	12.89	9.604	7.372	9.602	6.169	6.300	7.898	4.965	4.784	3.903	4.229	3.644	3.827	3.619	4.320	3.443	3.275	2.819	2.750	2.673	2.268	2.587	2.722	2.139	1.750	2.547	1.619	2.192	2.025	1.986	2.438	1.800	1.604	1.524	1.707	1.735	1.331	1.795	1.461	1.552	1.883	1.788	1.701	1.848	2.018	2.103	2.598	4.488	7.654	10.86	13.01	10.57	5.496	2.050	1.682	1.558	1.325	1.461	1.438	1.276	1.377	1.899	1.792
275.0	86.94	88.28	81.32	48.59	53.94	61.03	122.5	235.7	156.5	408.7	 1113	 4277	 3693	231.3	17.53	13.20	7.626	6.195	6.522	7.395	8.972	5.032	4.519	3.511	4.839	4.072	3.677	4.628	4.573	2.913	4.804	3.260	4.209	2.410	2.667	2.099	2.362	2.284	2.107	2.496	2.407	2.223	2.062	2.513	2.079	2.491	1.979	1.626	2.161	1.313	1.678	1.467	1.454	1.823	1.523	1.773	2.226	2.388	2.217	2.374	1.386	1.711	2.961	3.656	5.505	11.13	18.75	15.94	7.109	1.849	2.247	0.904	1.552	1.502	1.259	1.753	1.843
280.0	85.04	69.22	77.80	40.51	43.35	58.14	65.80	242.7	214.9	144.4	303.4	 1664	 5682	 2812	98.99	14.83	13.97	7.499	8.550	8.231	8.515	5.105	5.600	3.272	4.004	4.249	3.424	4.025	3.790	3.812	3.963	3.768	3.048	2.781	2.767	2.317	2.787	2.715	2.977	1.833	2.052	1.765	2.702	2.201	2.139	1.666	1.385	1.951	2.149	1.887	1.718	1.447	2.029	2.277	1.466	1.658	1.798	1.961	2.817	2.454	1.984	1.833	1.774	2.091	2.807	4.108	8.699	16.41	20.89	13.69	4.154	1.607	1.493	1.639	1.160	1.648	1.876
285.0	67.37	75.83	95.63	61.01	58.35	49.72	55.09	149.1	332.0	170.3	134.6	453.2	 2575	 6260	707.3	42.01	10.61	8.792	7.722	7.896	7.528	5.321	5.382	6.202	5.174	3.892	4.675	3.363	3.450	3.315	4.166	3.150	2.692	2.260	2.227	2.726	2.630	2.687	2.133	2.050	1.684	1.522	2.161	1.851	2.614	1.977	1.376	2.305	1.881	1.393	1.660	1.297	2.195	2.149	1.540	1.690	1.425	1.602	1.617	2.867	2.750	2.982	1.699	2.035	1.984	1.984	3.432	6.022	12.85	21.00	20.59	8.362	2.499	1.546	1.314	2.131	1.812
290.0	76.21	94.60	107.1	75.66	59.01	63.24	61.89	96.00	224.7	389.9	277.5	244.8	735.5	 2746	 4693	 2499	175.6	11.96	8.412	6.394	6.419	5.474	5.663	4.869	5.265	3.698	4.370	3.939	3.149	3.639	3.017	2.640	3.031	2.603	3.035	2.549	3.027	2.477	2.455	2.232	1.905	1.903	1.485	1.957	2.222	2.195	1.788	2.018	1.587	1.717	1.505	1.697	2.065	1.559	1.959	1.729	1.874	1.472	2.027	2.350	2.024	3.136	2.592	2.368	1.841	2.221	2.240	2.882	4.579	7.322	12.18	16.08	17.44	13.58	6.380	2.830	1.697
295.0	83.93	115.3	113.0	86.37	84.40	92.80	105.8	150.5	216.1	340.2	641.4	419.1	408.3	793.5	 1511	 5228	 3546	194.8	10.72	7.063	5.795	6.490	6.737	4.255	5.312	3.428	2.802	4.172	2.283	4.186	2.717	2.433	3.954	3.052	3.558	2.442	3.228	1.890	2.393	2.015	1.745	2.091	1.809	2.078	2.022	1.829	1.864	1.539	1.945	1.491	1.466	1.729	1.998	1.721	1.933	2.378	2.532	2.260	2.124	1.907	2.474	2.651	2.603	2.744	3.089	3.315	2.330	2.790	2.895	3.708	4.325	5.106	7.147	14.94	24.12	18.92	7.532
300.0	119.0	114.7	132.6	129.0	104.4	111.1	160.7	226.0	286.2	365.7	682.0	779.2	465.9	425.3	487.8	 2081	 6362	 2630	97.01	8.608	7.117	5.923	5.470	5.172	4.772	4.206	4.909	4.065	4.375	4.936	4.381	3.152	3.837	2.676	3.008	1.424	2.229	1.782	1.981	1.983	1.789	1.910	2.614	2.161	2.142	1.415	2.083	1.465	1.875	1.414	1.384	2.119	2.246	2.305	2.412	2.073	2.967	2.394	2.641	1.843	2.553	2.152	3.113	2.569	3.275	4.027	2.843	3.160	2.675	2.725	2.642	2.420	3.483	5.118	11.13	22.25	25.79
305.0	142.7	120.9	141.9	157.5	123.8	161.7	202.4	269.6	346.5	431.4	631.0	969.0	744.4	413.0	289.8	576.1	 3063	 6456	441.7	33.80	7.335	6.322	5.618	4.006	5.010	3.527	4.038	5.568	4.338	4.899	3.401	3.719	3.302	2.936	3.966	1.989	2.018	2.316	1.076	1.894	2.284	1.927	1.908	2.076	1.959	1.354	1.473	1.582	2.536	1.859	1.711	1.781	1.593	2.165	2.283	2.288	2.933	2.539	2.150	2.739	3.050	2.807	3.022	2.658	3.542	3.373	4.145	3.779	3.312	3.274	2.434	1.927	2.431	2.548	3.927	7.367	16.62
310.0	98.42	117.4	135.8	161.0	157.6	188.5	245.7	328.5	424.8	526.7	659.1	818.3	946.6	658.6	315.7	257.7	790.2	 2884	 4729	 1696	129.3	8.732	6.549	6.412	5.768	5.310	4.565	4.822	3.981	4.123	3.882	3.638	3.496	3.114	3.069	2.569	2.724	2.221	1.988	2.489	1.707	2.053	1.389	1.965	2.004	2.346	1.981	2.116	2.232	2.062	1.691	1.859	1.950	1.900	2.149	2.147	2.472	2.513	2.348	3.352	2.950	3.426	3.453	3.156	3.634	3.291	4.119	4.002	4.641	3.901	3.033	2.493	2.405	2.445	2.721	2.794	5.789
315.0	86.82	127.5	182.9	173.2	184.5	197.1	309.2	386.6	477.9	581.6	690.5	753.5	779.0	871.7	501.9	218.3	263.8	704.7	 1544	 5131	 2588	160.4	8.424	7.203	4.977	4.339	4.359	5.021	4.249	3.413	2.006	3.607	2.392	2.378	2.233	2.235	2.598	2.168	1.872	2.102	2.215	2.383	1.798	2.144	1.807	3.104	1.721	2.022	1.932	1.838	1.912	2.026	1.819	2.299	1.942	2.531	2.090	2.360	2.690	3.006	3.275	2.910	3.028	2.710	2.785	3.678	4.167	3.428	3.989	4.132	4.168	3.006	2.845	2.144	2.052	1.679	3.110
320.0	92.42	156.2	187.6	200.5	246.0	259.5	336.3	393.3	519.3	617.8	702.8	723.1	714.8	750.6	710.0	286.4	168.9	230.5	403.2	 2151	 5783	 2044	81.33	7.097	5.400	4.716	5.723	4.595	4.369	3.302	3.339	2.689	2.906	2.413	4.262	3.555	2.341	2.354	1.760	2.821	2.336	1.892	3.103	2.365	2.577	2.726	2.420	1.872	1.779	1.925	2.051	2.076	2.303	2.349	1.896	2.557	2.529	3.270	2.820	2.659	2.730	4.123	3.552	3.942	3.291	3.915	3.867	3.261	4.113	3.673	4.029	3.696	2.649	2.666	2.040	1.630	2.553
325.0	97.04	139.8	219.5	278.0	318.0	352.5	403.2	504.8	569.2	655.1	698.2	712.0	716.2	631.5	690.3	495.0	194.2	146.7	159.3	547.5	 2994	 5687	 1463	26.06	8.694	5.189	4.250	4.595	4.405	3.607	4.339	3.675	3.886	2.885	3.416	2.707	3.278	2.556	2.111	2.137	2.991	1.988	2.804	2.650	1.908	1.957	2.071	1.860	1.816	2.125	1.550	1.854	2.667	2.594	2.295	2.927	2.941	3.049	3.035	2.887	2.751	3.492	3.416	3.218	3.265	4.009	3.763	3.065	3.844	2.863	3.466	3.260	3.801	3.580	2.504	1.495	2.474
330.0	126.7	201.7	299.5	425.4	577.0	649.6	692.5	765.5	728.3	751.8	762.4	705.6	689.5	595.5	559.8	558.1	408.2	198.3	136.7	189.8	760.3	 2696	 4449	 2151	107.3	7.724	6.243	5.069	5.143	3.765	5.780	3.813	3.522	3.314	2.978	2.518	3.127	2.424	2.024	2.538	2.929	2.636	2.217	2.407	1.863	1.849	1.638	2.684	2.181	2.016	2.482	2.937	3.095	2.983	3.041	3.462	3.496	4.292	4.296	3.821	3.631	3.370	3.363	3.282	3.528	3.810	3.035	3.324	3.317	2.521	2.771	3.108	2.837	2.715	3.284	3.068	3.199
335.0	145.9	284.8	444.4	693.9	945.8	 1145	 1181	 1191	994.1	956.8	839.4	719.5	677.8	618.3	526.7	445.3	528.8	407.7	189.8	147.3	245.0	659.6	 1517	 4886	 2049	137.5	7.246	4.677	5.475	4.261	4.995	4.661	3.177	3.965	3.234	3.927	2.359	2.522	2.229	2.357	2.466	1.669	2.118	2.602	2.041	1.877	1.642	2.722	2.537	2.741	3.385	3.773	4.458	4.231	4.269	4.963	4.494	5.722	5.181	4.874	4.233	4.488	4.343	3.855	3.880	3.772	3.588	3.673	3.663	3.771	3.124	3.217	2.681	2.865	3.082	3.078	3.516
340.0	185.4	310.9	562.6	920.3	 1260	 1578	 1644	 1532	 1289	 1131	916.9	743.3	677.4	621.1	543.6	452.1	469.8	563.6	312.8	172.5	161.0	221.5	403.1	 2126	 5321	 1699	77.90	7.445	6.063	4.843	4.723	4.196	2.788	4.179	2.586	3.791	2.294	2.429	2.551	2.701	2.383	2.472	2.281	2.192	2.188	2.688	1.974	2.629	2.557	2.766	3.387	4.912	5.572	5.245	6.445	6.534	5.975	6.517	5.062	5.416	4.769	4.596	4.628	4.920	3.550	3.442	3.876	3.322	2.966	4.166	3.197	2.193	2.636	3.967	2.680	2.553	3.446
345.0	151.7	388.4	678.1	 1137	 1604	 1877	 2022	 1845	 1535	 1327	994.5	759.2	690.5	645.2	583.0	492.9	434.3	514.0	478.3	245.2	175.6	149.7	164.4	558.6	 2897	 5193	 1280	28.66	7.556	5.297	4.762	3.384	3.639	3.499	3.086	2.405	1.926	2.518	2.404	3.410	2.295	2.069	2.840	2.713	2.453	2.338	1.743	3.068	3.012	3.401	4.700	5.076	5.938	6.892	6.943	6.977	7.783	7.165	6.286	6.387	5.395	5.558	5.256	4.786	3.448	3.847	3.203	3.429	2.994	3.821	3.974	3.302	2.472	3.466	2.835	2.974	2.805
350.0	200.3	437.1	816.8	 1399	 1970	 2372	 2523	 2224	 1850	 1541	 1085	790.0	694.0	681.2	611.3	538.9	477.9	461.4	514.3	450.3	274.2	187.6	156.8	213.3	756.4	 2561	 4085	 1936	100.1	7.892	5.676	5.036	4.355	2.849	3.498	2.581	2.798	2.347	2.498	3.209	2.396	2.473	2.608	2.377	2.219	2.065	2.595	3.123	3.371	3.647	5.037	6.789	7.073	8.680	8.232	8.891	8.773	8.865	7.663	7.062	6.016	6.090	5.799	5.079	4.020	3.859	3.332	2.977	3.647	3.860	3.142	3.277	3.065	4.008	2.859	2.934	3.026
355.0	190.7	466.1	903.9	 1545	 2172	 2693	 2896	 2491	 2109	 1732	 1182	798.5	719.5	717.4	664.1	595.5	559.3	510.0	468.3	519.5	475.2	278.2	203.1	182.9	271.6	644.3	 1472	 4378	 1787	125.9	7.521	5.629	4.587	3.893	3.975	3.149	2.487	2.228	2.424	1.875	2.548	2.417	2.592	1.471	2.301	2.415	2.587	3.426	4.010	4.305	5.380	7.439	8.044	9.225	8.706	10.23	9.220	9.724	8.477	8.117	6.481	6.495	5.807	5.168	4.407	3.921	4.135	3.926	3.770	3.914	3.601	3.310	3.462	3.232	4.107	3.219	3.051
360.0	242.7	464.2	 1025	 1680	 2366	 2898	 3014	 2673	 2190	 1772	 1226	822.8	750.1	722.7	696.5	643.4	594.0	553.8	507.1	491.2	561.6	378.0	269.3	209.4	189.7	242.2	401.4	 1971	 4645	 1526	72.10	6.038	6.231	3.252	4.050	3.578	2.635	2.300	2.125	1.481	2.309	2.166	1.295	2.508	2.383	3.198	2.936	3.966	3.587	4.294	5.696	7.662	8.820	8.523	9.773	10.55	9.717	10.07	8.492	8.328	7.113	7.292	6.050	4.294	3.857	4.104	4.307	3.927	4.040	3.421	3.442	3.426	4.089	3.156	3.363	3.514	3.113
365.0	237.2	486.4	970.1	 1710	 2366	 2945	 3038	 2731	 2223	 1793	 1255	845.0	750.7	742.6	733.0	684.4	615.9	593.1	557.7	508.8	534.2	544.0	343.9	266.5	212.4	185.2	182.8	527.7	 2545	 4718	 1157	26.86	7.290	3.972	3.429	3.601	3.330	2.581	2.626	3.256	3.368	2.723	2.168	2.597	2.784	2.510	2.741	3.811	4.181	4.261	5.548	7.936	8.694	8.492	10.22	10.11	10.40	9.453	8.634	7.942	7.707	7.990	6.450	5.468	3.911	3.526	3.781	3.656	4.318	3.170	3.786	3.883	4.233	3.769	4.028	3.468	4.184
370.0	266.9	510.8	 1007	 1691	 2354	 2915	 3049	 2709	 2198	 1804	 1270	874.9	786.7	766.2	760.0	718.8	681.9	667.5	624.5	571.5	539.9	562.9	526.1	379.1	274.3	223.2	173.3	212.0	675.8	 2342	 3804	 1780	83.09	6.453	4.421	3.598	3.811	3.396	2.913	2.891	2.301	2.470	2.076	2.146	2.318	2.833	3.167	3.835	4.095	4.474	5.558	7.536	8.420	9.646	9.568	10.36	10.90	9.918	8.402	7.798	6.717	7.177	6.442	5.419	4.451	4.277	3.821	4.015	4.258	3.659	3.710	3.100	4.051	3.720	3.898	3.425	4.035
375.0	243.7	468.5	958.9	 1659	 2198	 2720	 2978	 2562	 2145	 1788	 1243	895.8	817.7	799.6	779.8	764.2	737.5	708.1	696.0	640.2	606.9	566.5	576.9	552.1	381.6	291.1	232.0	191.6	250.6	593.6	 1390	 4076	 1496	102.5	6.089	4.552	3.329	4.242	2.909	2.233	3.044	2.374	2.464	2.467	1.626	2.864	3.207	4.215	3.860	4.385	5.473	7.008	7.839	8.799	8.678	9.842	10.51	9.791	8.496	7.778	6.467	7.061	6.495	5.334	4.579	4.131	3.829	3.587	3.924	3.913	3.592	3.520	4.024	3.479	3.758	4.032	4.355
380.0	222.4	475.8	960.8	 1515	 2130	 2586	 2736	 2460	 2042	 1708	 1279	927.0	842.6	841.5	813.9	788.3	775.8	755.1	727.7	697.9	662.9	612.3	577.5	614.5	517.9	363.6	283.0	222.2	190.0	227.0	381.3	 1856	 4182	 1258	54.46	5.519	4.033	4.420	3.523	2.990	2.697	2.800	2.523	2.489	1.897	2.408	2.407	3.609	3.835	4.039	4.921	6.386	7.370	8.208	8.271	10.16	9.333	8.306	7.717	7.799	6.556	6.431	5.959	5.924	4.808	3.891	3.195	3.898	3.810	3.374	2.883	3.846	4.380	4.265	3.736	4.467	3.730
385.0	226.0	431.2	870.4	 1464	 2051	 2414	 2516	 2329	 1909	 1669	 1222	920.0	860.4	845.3	830.4	802.1	790.1	791.3	764.4	723.1	701.9	649.9	598.9	596.0	620.5	464.1	342.2	263.8	211.1	169.3	168.4	496.6	 2341	 3992	903.5	18.14	5.721	4.095	4.092	2.888	1.961	1.906	2.611	2.483	2.065	2.713	2.105	3.363	3.811	3.429	5.081	6.054	7.565	8.241	7.989	8.477	9.430	7.327	8.408	7.700	6.916	6.014	6.037	5.586	4.652	4.531	4.103	3.832	3.811	3.333	3.863	3.984	3.471	3.922	3.853	4.354	4.116
390.0	211.4	404.8	811.8	 1306	 1803	 2178	 2311	 2132	 1816	 1539	 1192	932.9	862.6	858.3	845.6	826.4	819.8	809.5	798.0	770.0	747.8	704.4	659.9	625.2	617.4	590.5	459.0	331.9	270.4	202.8	159.8	196.0	618.0	 1975	 3050	 1337	62.96	5.480	4.148	2.686	2.331	2.316	2.806	3.009	2.700	3.248	2.332	3.490	3.677	3.824	4.836	6.103	6.348	7.894	7.292	8.072	8.962	7.858	7.561	7.506	6.421	6.160	5.424	5.060	4.496	4.662	3.793	3.855	4.326	4.102	3.954	4.301	3.557	4.074	4.161	4.660	4.297
395.0	220.1	413.2	713.9	 1178	 1550	 1893	 2033	 1885	 1613	 1409	 1128	927.0	880.9	860.2	855.0	841.9	831.5	829.3	833.1	821.8	789.4	754.6	712.6	666.8	632.8	616.3	587.9	434.7	339.7	259.9	204.1	160.9	221.4	495.4	 1130	 3167	 1164	75.83	5.723	2.688	2.415	1.903	2.637	2.914	2.332	2.671	2.177	2.611	3.170	3.367	4.002	5.420	5.744	7.020	6.153	7.430	7.369	7.662	6.500	6.133	6.430	5.923	4.846	6.018	4.816	4.391	3.799	4.288	4.186	4.540	4.155	4.070	3.645	4.212	4.212	4.644	4.028
400.0	173.1	390.6	639.7	 1045	 1437	 1699	 1847	 1770	 1510	 1370	 1135	942.2	891.3	869.7	877.7	850.4	822.6	835.8	854.2	826.5	808.5	763.4	742.1	712.2	659.7	622.9	627.9	536.7	395.2	312.4	241.4	182.7	150.7	179.4	305.7	 1456	 3190	968.4	40.03	4.278	4.046	2.371	2.541	2.610	2.491	2.105	2.313	2.953	3.579	2.987	4.323	5.808	5.397	6.510	6.503	7.112	6.670	6.580	6.472	5.134	5.863	6.012	5.203	4.834	4.335	4.527	4.071	3.796	3.078	4.299	3.842	4.100	4.274	3.971	3.473	3.990	4.188
405.0	174.8	310.2	572.4	931.4	 1336	 1599	 1687	 1586	 1392	 1290	 1104	941.0	908.5	885.5	880.5	874.9	851.7	852.8	855.2	839.3	809.0	789.4	757.1	730.6	682.5	647.9	605.4	608.0	472.0	356.7	280.3	213.6	158.4	127.1	126.9	385.0	 1788	 2950	684.2	13.31	5.198	3.091	3.003	2.463	1.747	1.980	2.177	3.213	3.314	3.049	3.452	5.180	5.301	5.896	5.892	6.649	6.075	6.041	5.841	5.389	5.824	5.723	5.269	4.389	4.233	4.899	3.742	3.845	3.466	3.704	4.459	4.244	4.695	3.877	3.962	4.723	4.131
