Sample:	'1
File name:	Default_20230303_090146.FD3
Run date:	'08:55:25, 03/03/2023
Operator:	user
Comment:	'

Instrument
Model:	F-2700 FL Spectrophotometer
Serial number:	2190-003
ROM Version:	4J14000 07

Instrument parameters
Measurement type:	3-D scan
Data mode:	Fluorescence
EX  Start WL:	220.0 nm
EX  End WL:	600.0 nm
EX Sampling interval:	5.0 nm
EM  Start WL:	230.0 nm
EM  End WL:	650.0 nm
EM Sampling interval:	5.0 nm
Scan speed:	12000 nm/min
EX Slit:	5.0 nm
EM Slit:	5.0 nm
PMT Voltage:	700 V
Response:	Auto 
Corrected spectra:	Off
Contour interval:	50.000

Peak integration
Integration method:	Rectangular
Sensitivity:	1
Threshold:	1.000

Peaks
No.	ApexEX/EM(nm)	Height(Data)
1	230.0/335.0	213.1
2	245.0/385.0	489.9
3	245.0/530.0	-94.43
4	250.0/395.0	486.4
5	250.0/405.0	484.8
6	250.0/420.0	461.8
7	250.0/540.0	-68.38
8	255.0/280.0	200.2
9	255.0/375.0	460.6
10	255.0/400.0	484.1
11	255.0/415.0	466.8
12	255.0/425.0	447.9
13	255.0/550.0	-89.22
14	260.0/285.0	314.0
15	260.0/420.0	437.8
16	260.0/565.0	-74.48
17	265.0/290.0	380.7
18	265.0/580.0	-65.07
19	270.0/295.0	611.7
20	270.0/425.0	471.0
21	270.0/590.0	-52.44
22	275.0/305.0	843.0
23	275.0/600.0	-34.03
24	280.0/310.0	856.6
25	280.0/335.0	718.2
26	280.0/615.0	-30.43
27	285.0/315.0	818.1
28	285.0/625.0	-27.03
29	290.0/320.0	777.0
30	290.0/390.0	632.8
31	290.0/645.0	-25.92
32	305.0/340.0	504.0
33	305.0/395.0	596.9
34	310.0/345.0	449.7
35	315.0/355.0	400.7
36	320.0/360.0	448.2
37	325.0/365.0	444.1
38	330.0/375.0	434.2
39	335.0/380.0	452.4
40	340.0/385.0	442.5
41	350.0/400.0	420.1
42	355.0/405.0	412.6
43	415.0/485.0	57.06
44	430.0/505.0	29.59
45	440.0/515.0	18.33
46	445.0/525.0	14.27
47	450.0/530.0	11.48
48	460.0/540.0	6.250
49	465.0/550.0	3.479
50	470.0/555.0	1.524
51	540.0/300.0	-6.067
52	550.0/305.0	-5.753
53	560.0/310.0	-5.910
54	570.0/315.0	-5.959
55	580.0/325.0	-6.029

Data points
	220.0	225.0	230.0	235.0	240.0	245.0	250.0	255.0	260.0	265.0	270.0	275.0	280.0	285.0	290.0	295.0	300.0	305.0	310.0	315.0	320.0	325.0	330.0	335.0	340.0	345.0	350.0	355.0	360.0	365.0	370.0	375.0	380.0	385.0	390.0	395.0	400.0	405.0	410.0	415.0	420.0	425.0	430.0	435.0	440.0	445.0	450.0	455.0	460.0	465.0	470.0	475.0	480.0	485.0	490.0	495.0	500.0	505.0	510.0	515.0	520.0	525.0	530.0	535.0	540.0	545.0	550.0	555.0	560.0	565.0	570.0	575.0	580.0	585.0	590.0	595.0	600.0
230.0	-873.4	-409.0	 1816	 1275	-235.0	-276.8	-230.1	-204.7	-182.7	-159.5	-141.5	-119.0	-100.1	-82.02	-65.79	-54.30	-46.63	-40.01	-34.45	-30.31	-27.17	-25.24	-22.99	-20.84	-19.84	-18.71	-17.91	-17.13	-16.76	-16.56	-15.64	-14.84	-13.85	-13.10	-12.10	-10.85	-10.70	-10.68	-10.17	-9.880	-9.488	-9.783	-9.648	-9.122	-8.828	-8.560	-7.418	-6.039	-2.698	-2.361	-4.725	-7.195	-7.027	-7.580	-7.230	-7.606	-7.802	-7.714	-7.746	-7.735	-7.814	-7.856	-7.929	-7.959	-7.934	-8.099	-7.991	-8.149	-8.260	-8.281	-8.251	-8.173	-8.258	-8.385	-8.394	-8.714	-8.985
235.0	-844.2	-595.5	366.9	 2411	 1625	-141.2	-236.3	-206.7	-181.2	-156.5	-140.7	-120.3	-102.2	-83.54	-67.88	-54.97	-46.06	-39.41	-34.33	-31.46	-27.13	-24.96	-22.91	-21.16	-19.71	-18.67	-18.00	-16.76	-16.22	-16.59	-15.75	-14.87	-13.75	-13.05	-12.15	-10.86	-10.89	-10.96	-10.34	-10.01	-9.504	-9.853	-9.669	-9.207	-8.874	-8.438	-7.460	-7.290	-5.294	-3.029	-1.265	-2.487	-4.703	-7.283	-7.050	-7.602	-7.942	-7.711	-7.651	-7.786	-7.629	-7.788	-8.042	-8.012	-8.063	-8.075	-7.947	-8.144	-7.972	-8.441	-8.245	-8.250	-8.382	-8.383	-8.609	-8.837	-9.008
240.0	-860.5	-660.1	-330.7	 1007	 3311	 1427	-160.0	-205.0	-178.0	-161.5	-138.0	-121.1	-97.16	-82.28	-65.99	-53.92	-44.89	-39.64	-34.50	-30.19	-27.30	-25.06	-23.17	-21.51	-19.73	-19.14	-17.75	-16.62	-16.57	-16.37	-15.88	-14.89	-13.73	-13.27	-12.21	-11.00	-10.84	-10.56	-10.09	-9.873	-9.721	-9.482	-9.708	-9.257	-8.468	-8.518	-7.509	-7.551	-6.717	-5.267	-3.999	-1.513	1.129	-1.716	-5.610	-7.567	-7.635	-7.663	-7.728	-7.780	-7.783	-7.865	-8.010	-7.979	-7.849	-7.772	-8.056	-7.916	-8.209	-8.433	-8.255	-8.320	-8.273	-8.373	-8.491	-8.628	-9.008
245.0	-864.9	-646.9	-476.8	-48.56	 1916	 4129	 1094	-182.9	-175.2	-162.4	-136.6	-121.3	-100.2	-82.42	-66.77	-53.05	-46.29	-38.88	-34.70	-30.33	-27.80	-25.09	-23.10	-21.82	-19.46	-18.87	-17.48	-16.92	-17.01	-16.66	-15.78	-14.89	-13.97	-12.88	-12.11	-10.87	-10.64	-10.19	-9.864	-9.681	-9.627	-9.700	-9.492	-9.032	-8.469	-8.559	-7.361	-7.545	-6.990	-6.026	-5.593	-5.466	-1.925	1.893	1.265	-3.222	-6.714	-7.424	-7.990	-7.855	-7.630	-7.776	-8.177	-8.065	-7.912	-7.934	-7.875	-7.991	-7.980	-8.352	-8.142	-8.199	-8.472	-8.187	-8.411	-8.826	-8.925
250.0	-845.1	-677.8	-437.2	-256.8	244.1	 2047	 4110	 2651	177.2	-156.3	-133.5	-116.6	-98.94	-80.84	-65.72	-52.99	-45.33	-39.41	-34.02	-29.83	-27.48	-24.41	-22.59	-21.28	-19.70	-18.71	-17.56	-17.38	-16.75	-16.35	-15.39	-14.74	-14.07	-12.79	-12.21	-11.01	-10.61	-10.61	-9.918	-10.05	-9.638	-9.500	-9.319	-8.974	-8.714	-8.604	-7.372	-7.627	-6.718	-5.767	-5.956	-6.739	-6.018	-4.623	-2.067	0.556	2.709	0.889	-3.449	-7.137	-7.652	-7.818	-7.984	-8.005	-7.979	-8.010	-8.090	-8.072	-8.152	-8.286	-8.214	-8.257	-8.307	-8.320	-8.462	-8.850	-8.989
255.0	-819.9	-692.2	-519.5	-229.4	-113.9	257.1	 1400	 5531	 4693	275.1	-133.9	-113.3	-96.64	-79.88	-64.29	-53.18	-45.18	-39.13	-34.37	-29.43	-27.49	-24.87	-23.09	-21.63	-19.90	-18.69	-18.28	-16.93	-16.79	-16.36	-15.75	-14.85	-13.93	-12.73	-12.23	-11.11	-10.91	-10.57	-10.33	-10.06	-9.724	-9.771	-9.456	-8.721	-8.877	-8.597	-7.383	-7.605	-6.911	-5.825	-5.805	-6.820	-6.574	-6.888	-6.017	-5.736	-4.058	1.669	9.314	8.001	-0.598	-7.190	-7.843	-7.802	-7.985	-8.010	-8.130	-8.058	-8.327	-8.203	-8.238	-8.214	-8.473	-8.076	-8.531	-8.796	-9.071
260.0	-877.1	-711.1	-533.9	-312.5	-85.59	-79.13	153.0	 2474	 7757	 1636	61.23	-112.8	-95.78	-78.65	-63.88	-53.73	-44.51	-39.10	-33.11	-30.09	-27.60	-24.90	-23.09	-21.46	-20.11	-18.39	-17.05	-16.93	-16.60	-16.50	-15.37	-14.53	-14.07	-12.60	-11.89	-10.95	-11.03	-10.75	-10.39	-10.10	-9.549	-9.550	-9.267	-8.875	-8.857	-8.765	-7.481	-7.725	-6.888	-5.995	-5.974	-6.787	-6.508	-7.254	-6.742	-7.025	-6.778	-5.339	-0.013	9.024	14.81	6.061	-3.541	-7.778	-7.895	-8.049	-8.087	-8.292	-8.179	-8.335	-8.114	-8.168	-8.268	-8.222	-8.577	-8.826	-8.929
265.0	-838.3	-746.2	-544.6	-372.4	-131.6	-40.62	-109.6	480.2	 4024	 8829	 1330	-61.55	-94.29	-79.60	-61.97	-53.73	-44.55	-39.01	-32.09	-30.40	-26.76	-24.55	-23.10	-21.44	-20.13	-18.39	-17.27	-16.89	-16.83	-16.48	-15.21	-14.28	-13.65	-13.26	-12.09	-10.96	-10.90	-10.77	-10.17	-10.20	-9.165	-9.665	-9.487	-9.198	-8.857	-8.807	-7.538	-7.861	-6.973	-5.915	-5.922	-7.054	-6.666	-6.907	-6.399	-7.251	-7.441	-7.237	-5.839	-2.699	5.941	16.47	16.20	2.043	-6.627	-8.008	-8.030	-8.068	-8.289	-7.863	-8.159	-8.160	-8.286	-7.958	-8.652	-8.725	-8.815
270.0	-785.0	-693.3	-528.7	-396.3	-271.0	-78.11	12.22	10.11	858.3	 4004	 8704	 5204	291.3	-75.18	-60.55	-51.06	-44.35	-38.18	-32.99	-29.82	-26.81	-24.66	-23.09	-20.78	-19.35	-18.53	-17.32	-16.69	-16.45	-16.22	-15.50	-14.68	-13.67	-12.90	-12.26	-11.14	-10.75	-10.83	-10.13	-9.970	-9.673	-9.914	-9.494	-9.160	-8.767	-8.636	-7.505	-7.669	-6.995	-6.003	-5.913	-7.060	-6.877	-7.176	-6.684	-6.895	-7.017	-7.313	-7.220	-6.623	-4.280	-0.382	5.458	11.96	15.27	11.58	-0.017	-6.889	-8.242	-8.059	-8.340	-8.182	-8.285	-8.247	-8.556	-8.749	-8.770
275.0	-790.0	-682.7	-485.1	-384.1	-303.5	-208.9	11.41	155.8	126.4	811.2	 2770	9999.9	 7681	365.1	-56.12	-50.40	-41.84	-37.45	-32.60	-29.04	-26.12	-23.90	-23.15	-20.88	-19.66	-18.36	-17.03	-17.16	-16.23	-16.02	-15.71	-14.51	-12.72	-12.87	-12.30	-11.03	-10.59	-10.82	-10.41	-9.917	-9.943	-9.836	-9.423	-9.092	-8.654	-8.325	-7.157	-7.447	-6.666	-5.829	-5.925	-7.239	-6.986	-7.007	-7.015	-7.234	-6.822	-6.241	-6.999	-7.401	-7.010	-6.197	-4.719	-3.061	0.835	14.13	31.14	21.96	1.260	-7.660	-8.396	-7.835	-8.252	-8.192	-8.256	-8.833	-8.861
280.0	-756.3	-594.8	-466.3	-381.7	-307.9	-249.2	-124.3	200.2	167.5	121.7	608.0	 3930	9999.9	 5791	164.8	-44.89	-40.85	-34.61	-32.37	-28.24	-26.53	-23.98	-21.75	-21.02	-20.08	-18.02	-17.10	-17.23	-16.66	-15.91	-15.43	-14.58	-12.79	-13.07	-11.96	-11.02	-10.55	-10.39	-10.50	-9.933	-9.996	-9.740	-9.484	-9.222	-8.693	-8.380	-7.068	-7.454	-6.615	-5.985	-5.882	-7.223	-6.984	-7.249	-7.084	-7.436	-7.583	-6.942	-6.284	-6.797	-7.051	-7.355	-6.912	-6.486	-5.853	-1.813	9.210	27.43	34.35	13.54	-4.630	-7.833	-8.103	-8.048	-8.326	-8.817	-8.759
285.0	-738.7	-579.1	-400.8	-362.4	-298.1	-255.5	-171.0	13.81	314.0	121.0	126.0	950.7	 5373	9999.9	 4068	29.20	-38.28	-33.82	-31.20	-28.10	-25.40	-24.15	-22.16	-20.97	-19.85	-17.64	-17.51	-17.42	-16.44	-15.94	-15.15	-14.24	-13.25	-12.57	-11.70	-10.51	-10.51	-10.44	-10.29	-9.747	-9.768	-9.668	-9.622	-9.321	-8.462	-8.303	-7.219	-7.154	-6.789	-5.953	-5.912	-7.013	-7.064	-7.163	-7.068	-7.151	-7.487	-7.220	-6.898	-6.778	-6.378	-7.285	-7.374	-7.445	-7.320	-6.409	-3.767	2.937	19.81	35.18	30.07	5.853	-7.065	-8.168	-8.643	-8.804	-8.481
290.0	-740.7	-531.4	-338.0	-279.0	-270.3	-217.8	-171.6	-80.14	145.9	380.7	259.2	325.9	 1374	 5009	9999.9	 6541	185.3	-30.08	-29.27	-26.39	-24.39	-23.12	-21.44	-20.29	-19.23	-17.74	-17.01	-16.82	-16.55	-15.92	-15.19	-14.42	-12.95	-12.55	-11.65	-10.71	-10.50	-10.54	-10.30	-9.734	-9.623	-9.505	-9.458	-9.140	-8.365	-8.334	-7.076	-7.190	-6.576	-5.468	-5.968	-7.075	-6.818	-7.041	-7.031	-7.257	-7.383	-7.499	-7.328	-7.133	-6.848	-6.729	-6.652	-7.098	-7.316	-7.229	-6.746	-5.348	-1.226	5.724	16.58	25.18	26.28	15.27	0.871	-7.387	-8.687
295.0	-660.5	-473.3	-252.6	-248.5	-240.1	-172.5	-135.9	-72.08	25.79	253.2	611.7	398.2	502.2	 1259	 3065	9999.9	 9527	255.3	-24.37	-24.80	-23.90	-22.27	-20.91	-19.10	-19.28	-16.97	-17.06	-16.66	-16.22	-15.47	-14.86	-13.84	-12.63	-12.44	-11.43	-10.95	-10.52	-10.56	-10.18	-9.890	-9.739	-9.535	-9.263	-9.134	-8.544	-8.393	-7.209	-7.029	-6.487	-5.454	-5.626	-6.924	-6.778	-7.155	-7.072	-7.202	-7.739	-7.225	-7.293	-7.309	-7.136	-7.160	-6.805	-6.345	-6.210	-6.874	-6.972	-6.924	-6.048	-4.328	-2.029	0.130	5.264	23.12	40.85	27.09	1.657
300.0	-639.9	-421.5	-227.5	-214.9	-191.0	-149.4	-128.7	-35.29	21.90	193.5	553.7	769.6	431.9	480.0	791.3	 3868	9999.9	 3346	158.8	-21.78	-21.12	-21.89	-20.56	-19.60	-18.46	-16.98	-16.38	-16.15	-15.59	-15.75	-14.94	-14.53	-13.25	-12.91	-11.75	-10.60	-10.73	-10.49	-9.919	-9.670	-9.464	-9.129	-9.523	-8.987	-8.398	-8.249	-7.172	-7.058	-6.321	-5.493	-5.505	-6.849	-6.734	-7.000	-7.047	-7.351	-7.491	-7.503	-7.389	-7.029	-7.161	-7.109	-7.004	-7.032	-6.067	-6.202	-6.438	-6.849	-7.085	-6.823	-6.528	-6.125	-4.662	1.073	15.77	40.04	44.20
305.0	-680.6	-396.2	-210.4	-163.5	-158.9	-115.6	-78.69	-3.761	67.27	177.5	402.7	843.0	699.5	359.8	327.1	955.7	 5168	9999.9	 2624	60.70	-19.23	-19.95	-20.47	-19.40	-18.14	-16.76	-16.64	-16.22	-15.58	-15.28	-14.95	-14.51	-13.54	-12.78	-12.06	-10.21	-10.48	-10.40	-9.685	-9.595	-9.716	-9.228	-9.512	-9.065	-8.374	-8.071	-6.982	-7.144	-6.311	-5.411	-5.525	-6.521	-6.813	-7.015	-7.001	-7.218	-7.224	-7.338	-7.461	-7.092	-7.053	-7.045	-6.978	-6.885	-6.466	-6.051	-5.753	-5.999	-7.066	-7.194	-7.003	-7.248	-6.871	-5.636	-2.448	7.482	29.16
310.0	-599.4	-363.8	-197.6	-129.2	-143.4	-98.16	-47.42	13.02	105.6	207.0	374.2	608.1	856.6	631.1	299.9	316.6	 1255	 4880	9999.9	 6235	132.1	-15.51	-17.87	-18.52	-17.40	-16.50	-16.06	-15.49	-15.65	-15.53	-14.82	-13.91	-13.25	-12.21	-11.70	-10.47	-10.46	-9.969	-10.01	-9.647	-9.540	-9.366	-9.594	-8.992	-8.420	-8.280	-7.105	-7.242	-6.358	-5.569	-5.477	-6.680	-6.737	-6.987	-6.715	-7.112	-7.175	-7.133	-7.017	-7.139	-7.082	-7.094	-6.985	-6.918	-6.701	-6.479	-6.441	-6.193	-5.910	-6.580	-6.699	-7.528	-7.355	-7.277	-6.813	-4.886	0.483
315.0	-627.6	-389.5	-147.9	-83.48	-106.8	-69.75	-11.86	56.95	166.9	258.2	391.3	529.1	674.3	818.1	556.0	236.3	356.2	 1133	 2989	9999.9	 8648	193.0	-13.90	-17.10	-16.87	-16.18	-15.81	-15.11	-15.29	-15.42	-14.29	-13.90	-13.21	-12.14	-11.77	-10.73	-10.34	-10.25	-9.935	-9.884	-9.467	-9.175	-9.447	-9.059	-8.488	-8.426	-7.142	-6.828	-6.471	-5.588	-5.425	-6.475	-6.497	-7.027	-6.607	-7.119	-7.010	-7.104	-7.051	-6.933	-7.150	-6.796	-6.636	-7.067	-6.756	-6.274	-6.517	-6.540	-6.124	-6.015	-5.959	-6.718	-7.405	-7.714	-7.601	-7.557	-6.637
320.0	-594.8	-299.0	-87.00	-34.54	-66.62	-48.99	20.84	82.69	186.3	274.3	465.5	531.9	624.7	679.1	777.0	350.2	191.5	311.0	701.1	 3908	9999.9	 6345	121.2	-12.80	-15.17	-14.69	-15.32	-15.07	-15.13	-15.65	-14.82	-13.68	-12.91	-11.31	-11.22	-10.56	-10.00	-10.62	-9.689	-9.696	-9.571	-9.300	-9.564	-8.666	-8.629	-7.880	-6.951	-6.924	-6.299	-5.419	-5.583	-6.911	-6.450	-6.888	-6.613	-7.034	-7.164	-7.264	-6.812	-7.032	-6.931	-6.942	-6.445	-6.808	-6.678	-6.260	-6.632	-6.615	-6.552	-6.539	-6.273	-6.133	-6.670	-7.395	-7.707	-8.088	-7.941
325.0	-616.9	-186.3	73.63	36.19	-27.97	-18.61	32.60	122.8	217.0	334.4	480.8	588.4	662.9	622.5	735.1	577.2	225.0	158.3	203.7	934.1	 5143	9999.9	 1912	58.60	-12.66	-12.86	-15.60	-14.27	-15.06	-15.05	-14.97	-13.57	-12.91	-11.72	-11.39	-10.74	-10.05	-10.31	-9.939	-9.600	-9.507	-9.434	-9.269	-8.705	-8.643	-7.513	-6.433	-7.042	-6.153	-5.512	-5.519	-6.508	-6.202	-6.811	-6.812	-7.083	-7.086	-7.002	-6.518	-7.159	-6.667	-6.851	-6.687	-6.975	-6.647	-6.640	-6.454	-6.338	-6.583	-6.420	-6.516	-6.196	-6.029	-6.313	-7.530	-8.324	-8.046
330.0	-538.0	-151.7	141.2	104.3	23.51	22.52	74.27	143.4	236.9	357.1	505.3	613.8	687.0	636.7	616.3	586.6	452.9	204.3	128.5	256.8	 1237	 4737	 9425	 5610	104.0	-8.771	-13.33	-13.89	-14.28	-14.01	-13.80	-13.73	-12.60	-11.94	-11.01	-10.41	-9.912	-10.10	-9.763	-9.578	-9.167	-9.423	-9.463	-8.847	-8.483	-7.643	-6.746	-6.779	-6.119	-5.168	-5.242	-6.568	-6.283	-6.640	-6.378	-6.851	-7.064	-7.070	-6.864	-7.025	-6.847	-6.807	-6.585	-6.573	-6.626	-6.460	-6.345	-6.433	-6.574	-6.292	-6.626	-6.392	-6.386	-6.376	-6.500	-7.025	-7.769
335.0	-492.0	-108.3	213.1	178.4	104.6	94.73	124.6	213.6	283.4	400.0	554.3	616.1	718.2	665.0	600.7	494.8	512.4	407.2	164.5	136.9	329.9	 1091	 2961	9999.9	 8151	154.4	-9.261	-11.61	-12.45	-13.83	-13.38	-12.99	-12.44	-11.63	-11.30	-9.987	-10.26	-10.31	-9.697	-9.567	-9.322	-9.225	-9.101	-8.659	-8.424	-7.513	-6.649	-6.317	-5.708	-4.852	-5.269	-6.450	-6.104	-6.569	-6.391	-6.906	-6.982	-6.868	-6.789	-6.420	-6.565	-6.406	-6.542	-6.348	-6.523	-6.284	-6.321	-6.427	-6.568	-6.567	-6.398	-6.582	-6.631	-6.508	-6.742	-7.175	-6.597
340.0	-483.9	-93.52	193.3	236.9	142.1	153.2	160.4	225.6	323.9	442.9	555.2	629.5	717.1	679.2	625.0	485.6	436.1	504.0	301.3	140.4	151.6	298.2	699.7	 3966	9999.9	 6172	109.3	-9.474	-11.60	-11.98	-13.22	-12.51	-11.97	-11.71	-10.91	-9.712	-10.08	-10.08	-9.446	-9.772	-9.109	-9.268	-9.084	-8.594	-8.158	-7.626	-6.673	-6.379	-5.645	-4.780	-5.017	-5.584	-6.020	-6.635	-6.306	-6.678	-6.726	-6.496	-6.523	-6.493	-6.261	-6.307	-6.280	-6.696	-6.362	-6.406	-6.534	-6.207	-6.388	-6.383	-6.375	-6.566	-6.836	-6.650	-6.912	-7.280	-7.214
345.0	-517.2	-131.5	218.2	245.7	166.0	202.1	188.0	233.4	326.7	425.6	567.4	634.3	715.6	682.4	624.5	509.7	406.5	429.7	449.7	220.1	133.3	138.5	208.8	953.7	 5354	9999.9	 1532	55.26	-9.337	-10.64	-12.14	-12.66	-12.05	-11.78	-10.91	-9.834	-9.819	-9.750	-9.523	-9.357	-8.965	-8.982	-9.072	-8.413	-8.123	-8.033	-6.536	-6.298	-5.860	-4.697	-5.036	-5.602	-5.779	-6.457	-6.084	-6.785	-6.737	-6.575	-6.517	-6.688	-6.169	-6.313	-6.347	-6.683	-6.405	-6.462	-6.632	-6.299	-6.553	-6.016	-6.261	-6.230	-6.670	-6.993	-7.174	-7.166	-7.545
350.0	-514.4	-163.1	185.6	283.2	264.8	243.3	221.9	284.8	335.3	418.0	544.5	618.9	705.5	669.7	647.5	522.6	416.6	374.5	417.4	380.6	223.7	145.9	132.4	271.2	 1306	 5058	 9746	 5499	88.48	-6.863	-10.45	-11.61	-10.97	-10.78	-10.64	-9.796	-9.772	-9.909	-9.235	-9.415	-8.832	-8.975	-9.136	-8.295	-8.055	-7.974	-6.534	-6.205	-5.706	-4.790	-4.898	-5.943	-5.932	-6.426	-6.163	-6.636	-6.624	-6.580	-6.542	-6.517	-6.420	-6.470	-6.341	-6.412	-6.408	-6.374	-6.235	-6.147	-6.362	-6.288	-6.366	-6.278	-6.192	-6.874	-7.063	-7.106	-7.524
355.0	-517.0	-153.4	253.2	290.5	273.7	282.0	298.7	310.9	355.9	447.2	513.8	603.3	676.0	660.2	654.1	537.6	473.8	399.8	372.2	400.7	395.7	228.6	156.0	152.9	353.5	 1173	 3289	9999.9	 7379	127.4	-7.582	-9.490	-10.71	-10.35	-10.71	-9.937	-9.464	-9.796	-9.311	-9.090	-9.118	-8.631	-9.174	-8.424	-8.057	-7.786	-6.599	-6.435	-5.961	-5.030	-5.187	-6.394	-5.620	-6.513	-6.103	-6.277	-6.421	-6.679	-6.525	-6.054	-6.199	-6.602	-6.441	-6.438	-6.456	-6.403	-6.326	-6.317	-6.139	-6.096	-6.353	-6.274	-6.512	-6.711	-6.651	-7.367	-7.346
360.0	-543.5	-175.7	254.4	324.9	325.5	311.5	362.4	340.5	377.6	464.2	514.7	582.4	656.1	627.9	647.9	567.1	481.1	440.1	397.7	376.8	448.2	355.4	201.0	157.7	166.2	318.9	783.4	 4337	9999.9	 5368	82.76	-7.610	-8.939	-9.623	-10.01	-9.724	-9.615	-10.17	-9.687	-8.889	-8.939	-8.839	-8.961	-8.561	-8.016	-7.783	-6.798	-6.251	-5.710	-4.883	-4.992	-6.125	-5.951	-6.193	-5.957	-6.105	-6.547	-6.588	-6.504	-5.845	-6.108	-6.475	-6.302	-6.569	-6.459	-6.611	-6.440	-6.354	-6.333	-6.332	-6.321	-6.159	-6.816	-6.205	-6.849	-7.156	-7.090
365.0	-597.3	-195.1	163.6	328.5	343.1	341.8	393.8	372.3	402.7	444.1	491.8	546.9	643.9	644.0	650.4	567.4	502.9	462.4	432.7	391.4	408.7	444.1	270.6	187.4	147.3	148.2	228.2	 1059	 5663	9999.9	 1319	39.84	-7.384	-9.163	-9.454	-9.393	-9.967	-9.949	-9.207	-9.251	-8.999	-9.163	-8.780	-8.841	-8.227	-7.921	-6.827	-6.506	-5.549	-4.913	-4.832	-6.147	-5.803	-6.033	-5.827	-6.387	-5.988	-6.373	-6.235	-6.286	-6.202	-6.272	-6.351	-6.402	-6.398	-6.449	-6.402	-6.495	-6.008	-6.365	-6.200	-5.976	-6.338	-6.657	-6.817	-7.003	-7.206
370.0	-564.7	-221.5	117.8	330.3	391.2	374.7	425.8	413.1	412.9	447.7	497.0	545.5	624.2	621.1	644.5	586.9	535.0	503.6	485.0	437.5	413.3	437.7	422.0	290.0	188.0	149.5	135.4	288.2	 1390	 5302	 9148	 4763	67.88	-6.581	-7.851	-8.547	-8.933	-9.337	-9.040	-8.987	-9.041	-8.933	-8.657	-8.652	-7.924	-7.726	-6.605	-6.528	-5.642	-5.079	-4.838	-5.726	-5.689	-5.450	-5.904	-6.229	-6.181	-6.282	-6.603	-6.334	-6.531	-6.198	-6.480	-6.571	-6.329	-6.502	-6.344	-6.575	-6.132	-6.506	-6.254	-6.630	-6.379	-6.689	-6.586	-6.993	-7.211
375.0	-562.0	-228.9	124.8	306.3	384.2	415.8	451.9	460.6	422.0	436.1	497.0	552.8	603.5	608.8	635.0	582.8	559.0	547.4	525.5	481.8	456.9	423.9	434.2	426.0	280.0	189.8	147.8	144.9	361.6	 1217	 3329	9999.9	 6446	94.39	-5.675	-6.871	-7.591	-8.989	-8.557	-8.790	-8.706	-9.190	-8.385	-8.190	-8.162	-7.572	-6.482	-6.638	-5.634	-4.791	-4.934	-5.886	-5.386	-5.901	-5.431	-6.040	-6.212	-6.282	-6.691	-6.258	-6.257	-6.190	-6.663	-6.245	-6.688	-6.424	-6.504	-6.483	-6.578	-5.915	-6.190	-6.709	-6.285	-6.891	-6.823	-6.847	-6.586
380.0	-610.8	-255.7	125.0	296.7	414.0	477.4	469.6	445.7	428.5	441.9	482.0	533.7	596.9	591.9	614.0	600.1	572.3	561.2	545.6	523.9	478.3	442.6	423.0	452.4	382.7	229.4	174.6	134.4	150.1	314.2	789.9	 4691	9999.9	 4327	55.37	-5.081	-7.149	-8.340	-8.265	-8.630	-8.544	-8.769	-8.874	-8.245	-8.156	-7.901	-6.614	-6.219	-5.645	-4.989	-4.717	-5.786	-5.550	-5.760	-5.587	-5.744	-6.206	-6.101	-6.384	-6.452	-6.394	-6.209	-6.374	-6.330	-6.245	-6.318	-6.870	-6.149	-6.817	-6.330	-6.316	-6.565	-6.270	-6.354	-6.479	-6.719	-6.916
385.0	-579.5	-250.7	117.0	309.2	409.3	489.9	482.0	447.9	455.6	471.6	489.6	512.5	588.1	582.9	629.1	594.8	583.3	572.9	560.5	533.0	499.2	475.2	432.4	426.8	442.5	312.8	210.5	156.1	124.6	131.0	214.1	 1156	 6271	 9893	990.5	15.81	-6.199	-7.945	-8.089	-8.496	-8.188	-8.897	-8.532	-8.230	-7.800	-7.676	-6.549	-6.268	-5.673	-5.058	-4.629	-5.849	-5.443	-5.677	-5.729	-5.675	-6.351	-6.583	-6.178	-6.324	-6.483	-6.248	-6.536	-6.403	-6.337	-6.201	-6.551	-6.337	-6.525	-6.744	-6.522	-6.591	-6.500	-6.459	-6.400	-6.645	-6.981
390.0	-566.0	-270.3	79.21	312.9	404.3	466.5	479.9	464.7	444.9	439.0	496.9	514.6	559.9	587.8	632.8	593.9	580.9	575.1	576.7	561.6	540.2	508.3	460.8	428.4	420.5	405.3	307.5	204.4	156.3	122.1	108.7	297.1	 1566	 5452	 7518	 3380	48.61	-5.496	-6.728	-7.513	-7.985	-8.364	-8.378	-7.931	-7.748	-7.519	-6.813	-6.248	-5.733	-4.999	-4.764	-5.609	-5.589	-6.060	-5.740	-5.920	-6.110	-6.110	-6.193	-6.360	-6.630	-6.420	-6.441	-6.574	-6.659	-6.433	-6.538	-6.380	-6.695	-6.442	-6.485	-6.414	-6.432	-6.234	-6.407	-6.665	-6.982
