Sample:	'1
File name:	Default_20250718_101711.FD3
Run date:	'10:10:49, 07/18/2025
Operator:	dsjg
Comment:	'

Instrument
Model:	F-2700 FL Spectrophotometer
Serial number:	2198-001
ROM Version:	4J14000 07

Instrument parameters
Measurement type:	3-D scan
Data mode:	Fluorescence
EX  Start WL:	220.0 nm
EX  End WL:	600.0 nm
EX Sampling interval:	5.0 nm
EM  Start WL:	230.0 nm
EM  End WL:	650.0 nm
EM Sampling interval:	5.0 nm
Scan speed:	12000 nm/min
EX Slit:	5.0 nm
EM Slit:	5.0 nm
PMT Voltage:	700 V
Response:	Auto 
Corrected spectra:	Off
Contour interval:	50.000

Peak integration
Integration method:	Rectangular
Sensitivity:	1
Threshold:	1.000

Peaks
No.	ApexEX/EM(nm)	Height(Data)
1	225.0/495.0	89.46
2	225.0/535.0	19.63
3	225.0/575.0	13.86
4	230.0/340.0	 3574
5	230.0/505.0	86.98
6	235.0/515.0	73.98
7	240.0/265.0	207.3
8	245.0/270.0	174.8
9	245.0/540.0	48.28
10	250.0/275.0	198.8
11	250.0/550.0	35.63
12	255.0/280.0	218.2
13	255.0/565.0	34.58
14	260.0/575.0	30.25
15	275.0/320.0	 4558
16	275.0/615.0	212.8
17	320.0/360.0	309.7
18	335.0/380.0	151.6
19	340.0/385.0	112.3
20	350.0/400.0	79.79
21	355.0/405.0	77.81
22	360.0/410.0	61.33
23	365.0/415.0	61.89
24	370.0/425.0	59.72
25	375.0/430.0	47.14
26	380.0/435.0	44.88
27	385.0/445.0	40.83
28	390.0/450.0	31.66
29	395.0/455.0	28.54
30	400.0/465.0	25.70
31	405.0/470.0	19.71
32	410.0/475.0	17.89
33	415.0/485.0	16.86
34	420.0/490.0	13.29
35	425.0/495.0	11.85
36	430.0/505.0	10.87
37	435.0/510.0	8.284
38	440.0/520.0	7.786
39	445.0/525.0	7.136
40	450.0/530.0	5.494
41	455.0/540.0	5.214
42	460.0/340.0	11.56
43	460.0/545.0	4.629
44	470.0/560.0	2.873
45	475.0/340.0	11.49
46	475.0/565.0	2.493
47	485.0/580.0	1.559
48	560.0/320.0	23.18

Data points
	220.0	225.0	230.0	235.0	240.0	245.0	250.0	255.0	260.0	265.0	270.0	275.0	280.0	285.0	290.0	295.0	300.0	305.0	310.0	315.0	320.0	325.0	330.0	335.0	340.0	345.0	350.0	355.0	360.0	365.0	370.0	375.0	380.0	385.0	390.0	395.0	400.0	405.0	410.0	415.0	420.0	425.0	430.0	435.0	440.0	445.0	450.0	455.0	460.0	465.0	470.0	475.0	480.0	485.0	490.0	495.0	500.0	505.0	510.0	515.0	520.0	525.0	530.0	535.0	540.0	545.0	550.0	555.0	560.0	565.0	570.0	575.0	580.0	585.0	590.0	595.0	600.0
230.0	75.17	 1551	 2898	598.6	15.74	4.821	4.198	3.469	2.652	2.441	2.346	2.495	2.302	1.795	1.800	1.333	1.168	1.094	0.736	0.483	0.561	0.492	0.505	0.435	0.398	0.425	0.382	0.351	0.359	0.335	0.370	0.347	0.314	0.287	0.276	0.349	0.373	0.353	0.329	0.320	0.394	0.514	0.599	0.468	0.334	0.296	0.636	3.827	8.116	7.909	3.902	0.933	0.292	0.222	0.188	0.178	0.213	0.219	0.221	0.187	0.204	0.197	0.190	0.195	0.233	0.186	0.211	0.195	0.182	0.170	0.193	0.212	0.201	0.206	0.214	0.229	0.208
235.0	102.9	425.6	 1794	 2313	466.5	20.15	5.576	3.307	2.636	2.900	2.802	2.372	2.378	2.021	1.695	1.421	1.267	1.186	0.823	0.551	0.568	0.430	0.374	0.482	0.462	0.380	0.297	0.376	0.368	0.375	0.298	0.252	0.303	0.335	0.264	0.322	0.383	0.385	0.336	0.280	0.319	0.344	0.431	0.635	0.614	0.463	0.386	1.131	2.542	4.563	7.159	8.604	4.821	1.275	0.284	0.265	0.239	0.209	0.224	0.152	0.224	0.209	0.167	0.195	0.198	0.231	0.181	0.179	0.156	0.170	0.185	0.222	0.184	0.228	0.203	0.193	0.242
240.0	158.8	147.2	538.1	 1995	 2046	330.4	9.819	3.602	3.520	3.235	2.651	2.301	2.507	1.995	1.590	1.393	1.152	1.044	0.704	0.560	0.532	0.648	0.401	0.444	0.462	0.406	0.340	0.390	0.387	0.298	0.316	0.299	0.295	0.269	0.314	0.253	0.279	0.355	0.281	0.300	0.331	0.399	0.295	0.456	0.564	0.823	0.574	0.545	0.715	1.305	2.946	7.418	10.37	8.147	3.310	0.640	0.241	0.205	0.222	0.184	0.197	0.235	0.210	0.213	0.167	0.177	0.209	0.155	0.197	0.178	0.193	0.198	0.202	0.219	0.189	0.288	0.227
245.0	128.2	172.4	155.1	723.1	 2207	 1702	207.0	5.251	3.720	3.650	3.487	2.701	2.389	1.963	1.580	1.542	1.266	1.116	0.677	0.583	0.622	0.539	0.413	0.454	0.375	0.367	0.440	0.374	0.343	0.369	0.373	0.278	0.285	0.326	0.269	0.247	0.259	0.298	0.338	0.365	0.319	0.367	0.361	0.320	0.387	0.658	0.682	0.744	0.527	0.487	0.889	2.206	5.446	9.645	10.16	5.929	1.712	0.348	0.210	0.203	0.147	0.198	0.200	0.198	0.176	0.209	0.238	0.184	0.200	0.188	0.167	0.171	0.194	0.187	0.279	0.205	0.275
250.0	52.34	133.3	164.3	208.1	737.0	 1707	 1680	231.3	24.37	3.940	3.386	3.318	2.462	2.311	2.172	1.782	1.411	1.163	0.706	0.581	0.551	0.554	0.549	0.433	0.404	0.402	0.382	0.457	0.362	0.326	0.314	0.354	0.296	0.289	0.290	0.255	0.268	0.275	0.309	0.360	0.307	0.303	0.343	0.318	0.314	0.375	0.426	0.658	0.782	0.763	0.584	0.757	1.462	2.895	4.933	6.828	7.771	6.887	3.659	1.391	0.318	0.206	0.222	0.209	0.219	0.198	0.211	0.200	0.184	0.229	0.181	0.236	0.214	0.214	0.200	0.220	0.230
255.0	26.60	46.69	135.6	209.2	205.6	445.2	 1310	 1933	295.6	22.81	4.027	3.448	2.823	2.904	2.107	1.997	1.530	1.171	0.816	0.610	0.587	0.509	0.551	0.474	0.396	0.380	0.345	0.443	0.429	0.384	0.252	0.288	0.354	0.319	0.356	0.249	0.317	0.301	0.283	0.273	0.408	0.348	0.313	0.304	0.276	0.277	0.258	0.371	0.397	0.593	0.961	1.056	0.919	0.905	1.306	1.853	2.591	5.406	8.944	9.517	5.088	1.451	0.336	0.241	0.229	0.163	0.280	0.271	0.147	0.209	0.208	0.200	0.223	0.195	0.222	0.180	0.222
260.0	22.41	18.45	60.53	183.8	168.3	121.8	410.5	 1596	 1683	229.8	10.26	4.044	3.484	2.743	2.276	2.122	1.483	1.230	0.854	0.705	0.615	0.559	0.451	0.472	0.566	0.511	0.286	0.449	0.417	0.362	0.303	0.369	0.333	0.235	0.351	0.287	0.353	0.267	0.278	0.256	0.322	0.307	0.368	0.314	0.310	0.351	0.218	0.274	0.273	0.313	0.541	0.972	1.252	0.993	0.672	0.600	0.804	1.542	3.584	7.533	10.29	8.265	3.557	0.724	0.205	0.218	0.250	0.182	0.181	0.220	0.221	0.247	0.222	0.225	0.208	0.203	0.239
265.0	17.66	12.24	22.31	90.97	207.3	112.0	107.6	556.0	 1681	 1372	168.1	5.897	4.115	2.970	2.510	2.080	1.601	1.244	0.636	0.623	0.632	0.527	0.386	0.417	0.570	0.475	0.329	0.366	0.425	0.314	0.352	0.292	0.330	0.273	0.323	0.234	0.307	0.262	0.241	0.279	0.294	0.294	0.360	0.345	0.321	0.320	0.240	0.231	0.257	0.219	0.262	0.490	0.875	1.364	1.160	0.623	0.451	0.577	1.039	2.261	5.181	8.904	9.923	6.408	1.985	0.333	0.254	0.224	0.195	0.214	0.247	0.198	0.243	0.228	0.206	0.192	0.257
270.0	17.54	11.16	11.53	28.73	105.4	174.8	126.7	146.8	541.1	 1228	 1331	506.7	36.32	3.822	2.892	2.388	1.969	1.338	0.843	0.656	0.706	0.518	0.542	0.461	0.530	0.440	0.383	0.370	0.350	0.408	0.318	0.344	0.370	0.331	0.285	0.272	0.281	0.289	0.298	0.302	0.236	0.264	0.305	0.280	0.340	0.322	0.282	0.268	0.242	0.214	0.241	0.288	0.432	0.684	0.912	1.159	1.185	0.746	0.587	0.706	1.436	2.621	4.546	6.410	7.728	6.699	4.226	1.556	0.329	0.220	0.223	0.218	0.245	0.223	0.247	0.234	0.243
275.0	20.58	10.60	11.45	11.79	31.08	88.04	198.8	144.8	139.0	317.7	875.8	 1540	673.1	28.70	3.523	2.473	2.205	1.654	1.177	0.684	0.735	0.677	0.628	0.500	0.421	0.459	0.463	0.387	0.409	0.346	0.400	0.397	0.324	0.398	0.364	0.364	0.398	0.376	0.332	0.321	0.298	0.226	0.236	0.265	0.338	0.315	0.292	0.306	0.334	0.281	0.215	0.258	0.263	0.392	0.366	0.520	1.031	1.562	1.471	0.805	0.584	0.801	1.256	1.741	2.482	4.378	7.724	9.185	5.569	1.433	0.334	0.255	0.250	0.189	0.273	0.211	0.211
280.0	19.80	16.34	12.66	11.69	13.44	32.57	133.6	218.2	107.9	87.11	270.9	 1059	 1484	162.5	11.90	3.139	2.609	1.739	1.239	0.745	0.727	0.712	0.521	0.505	0.474	0.455	0.466	0.426	0.413	0.318	0.285	0.405	0.262	0.453	0.376	0.401	0.400	0.403	0.411	0.276	0.249	0.266	0.294	0.255	0.254	0.325	0.339	0.288	0.300	0.280	0.225	0.234	0.247	0.264	0.255	0.268	0.512	0.832	1.361	1.569	1.021	0.559	0.513	0.603	0.801	1.338	2.961	6.421	9.254	8.054	3.526	0.773	0.256	0.204	0.201	0.206	0.288
285.0	25.55	21.81	15.77	12.96	11.41	15.97	59.83	186.8	203.3	68.88	86.17	365.8	 1170	 1210	122.0	6.069	3.082	2.481	1.253	0.902	0.746	0.731	0.707	0.613	0.464	0.554	0.428	0.387	0.439	0.330	0.313	0.393	0.464	0.476	0.390	0.434	0.385	0.424	0.416	0.343	0.316	0.276	0.302	0.270	0.266	0.274	0.346	0.383	0.378	0.274	0.254	0.227	0.246	0.319	0.260	0.246	0.342	0.441	0.719	1.213	1.820	1.371	0.650	0.415	0.476	0.603	0.991	2.044	4.176	7.477	9.503	6.078	1.850	0.280	0.228	0.254	0.290
290.0	40.56	40.71	36.13	27.74	29.72	34.49	53.12	110.7	221.9	235.1	130.1	151.2	401.1	869.5	 1027	440.0	31.50	6.163	1.873	1.096	0.938	0.808	0.671	0.653	0.412	0.547	0.479	0.465	0.472	0.368	0.392	0.337	0.413	0.500	0.501	0.569	0.525	0.525	0.462	0.408	0.345	0.350	0.294	0.300	0.311	0.266	0.385	0.390	0.387	0.332	0.274	0.306	0.321	0.344	0.384	0.336	0.413	0.460	0.537	0.748	1.139	1.581	1.885	1.651	1.094	0.718	0.732	0.965	1.384	2.467	4.078	5.837	7.161	6.883	4.036	1.388	0.356
295.0	97.21	106.2	105.2	95.00	106.7	129.7	172.6	216.5	282.2	441.0	512.6	237.5	258.8	344.0	701.6	 1329	649.2	56.05	8.093	2.063	1.312	0.912	0.902	0.822	0.575	0.606	0.509	0.525	0.526	0.367	0.355	0.367	0.482	0.590	0.769	0.773	0.899	0.745	0.629	0.597	0.486	0.552	0.420	0.426	0.494	0.568	0.491	0.546	0.582	0.570	0.518	0.568	0.642	0.758	0.818	0.813	0.975	1.086	1.094	1.293	1.473	1.755	2.102	2.813	3.375	2.870	2.187	1.701	1.780	1.913	2.105	2.391	2.952	5.196	8.981	10.62	5.980
300.0	295.6	315.8	296.6	257.3	285.2	362.1	426.2	407.1	868.4	 1148	 1422	 1325	 1090	907.0	902.9	 1332	 1897	606.2	52.90	6.550	1.819	1.381	1.209	0.953	0.732	0.739	0.810	0.716	0.556	0.460	0.477	0.536	0.694	0.885	1.151	1.277	1.544	1.391	1.404	1.339	1.163	1.204	0.991	0.965	0.967	1.144	1.160	1.283	1.182	1.152	1.031	1.192	1.253	1.416	1.605	1.766	2.447	2.647	3.279	3.775	4.247	4.943	5.284	6.231	6.985	8.176	8.063	6.718	6.552	5.593	5.129	4.393	4.888	5.306	6.793	10.16	14.12
305.0	628.0	688.1	618.1	511.9	558.7	740.5	 1049	 1386	 1897	 2330	 2928	 3257	 2800	 2159	 1966	 1756	 2436	 2263	405.5	18.69	3.931	1.956	1.541	1.094	0.999	0.918	0.857	0.765	0.614	0.623	0.616	0.703	0.960	1.545	1.883	2.303	2.482	2.627	2.607	2.638	2.365	2.355	1.836	1.864	1.726	2.024	2.254	2.398	2.310	2.339	1.798	2.034	2.294	2.530	2.930	3.570	4.532	5.459	6.770	7.953	8.279	10.48	11.65	13.03	14.12	15.12	16.46	17.14	15.36	13.08	11.76	10.27	11.42	10.43	9.826	9.974	13.73
310.0	997.6	 1143	 1005	791.8	821.1	 1054	 1458	 1898	 2426	 3071	 3619	 4030	 3803	 3005	 2622	 2108	 2277	 2134	 1243	330.6	22.24	2.796	2.051	1.435	1.209	1.134	1.027	0.900	0.697	0.733	0.675	0.795	1.119	1.752	2.506	3.028	3.448	3.555	3.490	3.475	3.163	3.143	2.857	2.658	2.746	3.281	3.446	3.697	3.571	3.322	2.737	3.430	3.511	3.560	4.122	5.042	6.076	7.504	9.089	10.05	11.02	13.22	14.91	16.66	17.52	18.92	19.94	20.74	20.66	18.89	16.30	14.50	14.62	13.91	12.37	10.96	12.47
315.0	 1412	 1613	 1444	 1113	 1062	 1291	 1749	 2190	 2697	 3425	 3984	 4450	 4275	 3675	 3132	 2398	 2349	 1714	753.7	 1112	467.8	19.71	2.991	1.864	1.439	1.172	1.110	0.988	0.854	0.954	0.695	0.874	1.328	1.968	2.639	3.206	3.654	3.905	4.086	3.994	3.938	3.438	3.497	3.466	3.588	4.340	4.796	5.464	5.082	4.748	3.740	4.480	4.494	4.674	5.042	6.185	7.189	9.264	10.79	11.61	12.56	14.50	16.71	18.15	19.37	20.72	21.83	22.37	22.04	20.85	19.73	18.27	17.58	17.02	13.99	12.48	13.25
320.0	 1781	 2140	 1782	 1281	 1167	 1379	 1850	 2285	 2751	 3475	 4092	 4558	 4393	 3846	 3437	 2545	 2387	 1625	452.4	651.5	 1154	329.4	9.033	2.581	1.516	1.356	1.170	1.097	0.861	0.806	0.761	0.948	1.265	1.831	2.677	3.277	3.744	4.293	4.262	4.251	3.931	3.840	3.851	4.090	4.373	5.514	5.885	6.854	6.722	5.432	4.470	5.080	5.041	5.136	5.502	6.598	8.132	9.360	11.51	12.15	13.12	14.63	16.89	18.79	19.88	21.15	22.03	23.07	23.18	22.18	20.75	20.33	19.36	18.10	14.81	13.19	13.49
325.0	 2114	 2600	 2132	 1435	 1206	 1362	 1777	 2187	 2570	 3231	 3820	 4277	 4128	 3622	 3312	 2529	 2231	 1481	376.4	260.5	772.8	 1124	62.48	5.450	2.026	1.546	1.467	1.018	0.946	0.892	0.759	0.956	1.119	1.778	2.374	3.249	3.640	3.910	3.967	4.140	3.846	3.949	4.061	4.517	4.922	6.255	6.962	8.149	7.744	6.325	5.413	5.445	5.347	5.190	5.403	6.213	8.061	9.148	10.86	11.82	12.16	13.42	16.19	17.08	17.80	19.62	20.55	21.71	21.99	20.58	19.06	18.03	18.56	18.18	14.94	12.17	12.77
330.0	 2320	 2961	 2695	 2002	 1531	 1357	 1611	 1921	 2249	 2789	 3301	 3743	 3652	 3226	 2909	 2353	 2068	 1316	395.0	192.3	293.6	745.3	875.6	259.6	19.99	2.404	1.429	1.127	1.070	0.930	0.864	0.980	1.198	1.650	2.208	2.893	3.360	3.513	3.715	3.653	3.673	4.050	4.098	4.518	5.261	6.664	7.576	9.367	9.163	8.187	7.156	7.642	6.959	6.609	6.107	6.353	7.007	8.240	9.547	10.63	10.73	11.82	13.71	15.01	15.85	17.51	18.45	19.12	19.29	18.30	17.40	16.29	15.92	15.78	13.86	12.08	12.16
335.0	 2531	 3382	 3442	 2870	 2202	 1500	 1482	 1704	 1932	 2403	 2876	 3255	 3251	 2932	 2596	 2089	 1961	 1306	476.8	264.7	235.4	304.1	487.4	 1078	388.7	17.42	2.059	1.309	1.026	0.985	0.904	0.927	1.062	1.496	2.114	2.409	2.762	3.283	3.342	3.306	3.610	3.676	4.107	4.549	5.627	7.330	8.465	11.04	11.34	10.44	9.631	10.88	10.38	10.05	7.732	6.855	6.856	7.678	8.582	9.205	9.420	10.06	11.47	13.08	13.85	15.36	15.96	16.51	16.91	16.30	15.55	14.32	14.34	13.65	12.14	11.16	11.64
340.0	 2482	 3434	 3574	 2992	 2306	 1459	 1290	 1469	 1663	 2040	 2462	 2792	 2815	 2570	 2279	 1805	 1676	 1252	506.6	279.5	224.6	205.1	237.0	640.2	 1055	273.3	6.491	1.629	1.251	1.175	0.886	0.877	1.154	1.377	1.856	2.061	2.311	2.819	2.718	3.205	3.148	3.419	3.645	4.515	5.510	7.040	8.215	11.27	11.56	10.49	10.19	11.49	11.08	10.07	8.092	6.135	6.195	6.852	7.119	8.068	8.025	8.940	9.796	11.03	11.61	13.02	13.65	14.19	14.51	13.95	13.37	12.91	13.12	12.15	10.77	9.386	10.15
345.0	 2240	 3165	 3384	 2861	 2159	 1305	 1114	 1232	 1378	 1678	 2027	 2327	 2358	 2172	 1915	 1524	 1361	 1062	547.4	275.1	211.4	173.7	159.0	252.0	707.3	923.3	51.73	2.948	1.334	1.145	0.801	0.829	1.072	1.323	1.639	1.935	1.996	2.253	2.519	2.626	2.720	3.076	3.405	3.938	4.768	6.183	7.114	9.934	10.52	9.701	9.713	11.05	10.36	9.336	7.209	5.470	5.348	5.796	5.903	6.686	6.943	7.400	8.457	8.920	9.757	10.47	11.07	11.69	12.05	11.82	11.20	10.82	10.76	10.30	9.167	8.214	8.195
350.0	 1938	 2785	 3122	 2777	 2144	 1204	922.9	 1006	 1096	 1317	 1588	 1829	 1859	 1744	 1554	 1252	 1090	819.8	524.2	358.0	226.0	173.2	151.8	144.3	214.5	553.7	724.4	220.8	14.21	1.190	0.933	0.909	1.013	1.289	1.414	1.608	1.790	1.936	2.134	2.094	2.319	2.594	3.058	3.367	4.094	5.265	6.409	8.371	9.670	9.292	9.332	10.87	10.52	9.718	6.989	4.899	4.708	4.758	5.137	5.582	5.629	5.935	6.376	7.254	7.720	8.411	8.823	9.550	9.413	9.565	9.058	9.007	8.886	8.280	7.396	6.783	6.606
355.0	 1628	 2415	 2734	 2559	 1990	 1075	746.0	785.8	850.9	 1008	 1211	 1394	 1437	 1365	 1220	994.3	860.1	642.8	402.7	366.5	290.7	173.1	147.3	121.1	79.46	138.5	315.1	814.6	338.5	13.12	1.182	1.020	1.009	1.130	1.284	1.282	1.574	1.600	1.766	1.794	1.896	2.242	2.609	2.873	3.404	4.613	5.586	7.123	8.501	8.300	8.168	9.862	10.10	9.392	6.577	4.405	3.889	3.889	4.342	4.335	4.214	4.745	4.781	5.571	5.799	6.576	7.066	7.365	7.146	7.255	7.114	6.843	6.965	6.587	6.150	5.594	5.264
360.0	 1358	 2036	 2311	 2176	 1711	902.6	617.9	626.2	673.2	801.7	947.7	 1095	 1127	 1074	978.3	797.8	687.0	514.9	319.1	276.8	309.7	191.6	128.5	99.65	45.99	42.22	84.79	425.2	891.8	243.6	5.280	1.096	1.053	1.086	1.144	1.169	1.286	1.413	1.395	1.585	1.651	1.741	2.039	2.427	2.687	3.910	4.762	6.276	6.647	7.190	7.325	8.261	8.347	7.931	5.482	3.722	3.127	3.263	3.572	3.430	3.357	3.660	3.974	4.421	4.644	5.038	5.200	5.921	6.120	5.765	5.457	5.494	5.472	5.383	5.024	4.663	4.228
365.0	 1129	 1652	 1926	 1858	 1473	775.4	510.6	513.9	539.9	633.1	761.1	865.8	905.1	858.5	787.3	646.0	563.3	417.1	266.7	208.7	249.4	233.1	128.1	84.38	36.79	21.20	26.11	117.4	585.3	812.7	48.37	2.543	1.219	1.026	1.088	1.031	1.000	1.257	1.233	1.320	1.448	1.680	1.751	2.038	2.397	3.187	3.868	5.271	5.553	5.874	6.148	7.084	7.022	7.169	4.680	3.068	2.695	2.628	2.635	2.950	2.686	3.053	3.261	3.476	3.780	3.980	4.583	4.718	5.054	4.458	4.571	4.382	4.516	4.519	3.966	3.820	3.361
370.0	874.9	 1313	 1557	 1555	 1265	655.9	409.0	403.1	416.7	482.9	581.6	656.9	687.6	662.8	608.0	507.3	437.3	334.5	222.9	170.1	163.7	199.2	182.5	93.31	32.24	16.88	12.89	31.62	154.9	483.0	527.0	198.7	12.20	1.179	0.991	0.970	1.045	1.089	1.033	1.113	1.199	1.299	1.382	1.658	1.929	2.525	3.158	4.140	4.445	4.694	5.101	6.011	6.132	6.016	4.156	2.774	2.265	2.185	2.239	2.299	2.186	2.379	2.570	2.827	2.989	3.316	3.461	3.529	3.586	3.707	3.554	3.585	3.566	3.523	3.260	3.139	2.719
375.0	659.8	983.7	 1234	 1219	 1027	529.7	321.9	311.5	322.2	354.6	425.3	482.7	500.3	490.5	450.5	383.5	329.3	257.0	179.0	139.8	120.1	120.7	162.8	145.0	41.57	14.94	9.566	12.02	38.66	114.2	249.1	727.2	294.1	11.95	1.057	1.028	1.095	1.003	0.867	0.918	1.106	0.984	1.089	1.274	1.521	1.986	2.386	3.101	3.477	3.753	3.991	4.934	5.133	5.033	3.349	2.167	1.710	1.689	1.755	1.872	1.855	1.827	1.998	2.178	2.212	2.418	2.480	2.722	2.728	2.646	2.799	2.689	2.670	2.726	2.517	2.462	2.163
380.0	527.3	792.3	991.6	 1013	848.1	425.5	261.3	243.5	247.8	275.8	327.6	373.2	389.1	386.7	349.8	304.1	263.1	206.5	147.8	118.0	99.55	87.41	107.0	151.6	65.97	17.03	9.382	7.671	12.60	29.21	64.61	376.2	744.1	197.0	3.935	1.090	0.981	0.956	0.917	0.875	0.900	0.861	0.909	1.098	1.338	1.617	1.837	2.340	2.819	2.965	3.413	4.038	4.143	4.074	2.728	1.879	1.618	1.418	1.408	1.512	1.565	1.425	1.533	1.721	1.708	1.910	1.937	2.067	2.204	2.068	2.238	2.138	2.047	2.064	1.816	2.035	1.745
385.0	433.2	639.7	803.1	835.2	705.8	361.5	216.7	199.5	202.6	220.8	258.3	295.8	315.2	304.3	282.0	249.4	215.5	173.6	126.0	100.7	83.37	73.21	72.87	105.7	112.3	35.84	9.606	6.829	6.748	10.05	17.88	101.8	482.1	632.6	38.91	1.620	1.021	0.780	0.880	0.845	0.861	0.835	0.848	0.988	1.110	1.313	1.586	1.911	2.241	2.640	2.805	3.348	3.327	3.231	2.436	1.629	1.314	1.190	1.172	1.209	1.180	1.239	1.155	1.354	1.381	1.621	1.636	1.764	1.830	1.806	1.936	1.864	1.792	1.732	1.497	1.692	1.460
390.0	332.2	485.0	617.5	665.3	562.2	291.4	171.7	162.6	159.8	176.1	200.7	227.5	240.0	236.7	221.3	191.8	169.6	139.0	104.8	84.83	70.86	61.36	56.75	57.11	81.21	76.07	30.42	7.977	5.763	6.071	7.439	25.87	125.7	371.0	404.9	154.5	9.897	0.877	0.813	0.731	0.693	0.695	0.821	0.847	0.895	1.111	1.234	1.532	1.876	1.969	2.268	2.677	2.727	2.587	1.916	1.326	1.054	0.985	1.040	1.042	0.989	1.029	0.963	1.094	1.085	1.330	1.317	1.369	1.402	1.473	1.461	1.400	1.500	1.437	1.344	1.326	1.309
395.0	244.4	370.8	468.1	515.2	435.3	233.3	134.6	128.0	127.8	137.1	152.6	171.8	181.4	181.8	166.3	147.0	133.7	112.7	87.41	71.61	60.18	50.42	45.81	38.43	36.93	64.14	79.02	23.30	5.677	5.027	4.930	8.733	30.55	86.94	189.2	529.5	229.0	9.403	0.885	0.786	0.690	0.647	0.711	0.688	0.753	0.845	1.079	1.240	1.427	1.554	1.713	2.120	2.260	2.013	1.668	1.059	0.948	0.802	0.909	0.857	0.832	0.765	0.797	0.921	0.983	0.963	1.076	1.085	1.065	1.183	1.043	1.180	1.111	1.214	1.240	1.225	1.136
400.0	209.0	300.2	377.4	413.7	373.5	194.4	115.7	104.6	106.6	111.9	129.0	140.5	150.6	148.7	136.3	122.2	108.9	94.56	75.35	61.96	51.74	45.40	39.75	31.37	24.04	33.54	79.79	54.62	11.10	5.235	4.542	4.955	9.539	22.05	48.37	271.3	541.4	40.46	3.358	0.778	0.751	0.672	0.629	0.560	0.653	0.810	0.940	1.073	1.178	1.395	1.407	1.813	1.884	1.741	1.463	0.924	0.730	0.807	0.821	0.735	0.723	0.643	0.767	0.717	0.769	0.733	0.917	0.913	0.886	0.933	0.876	1.041	1.004	0.975	1.018	1.108	1.096
405.0	185.5	246.8	319.1	348.1	307.6	168.5	98.50	92.10	91.79	97.07	111.2	119.9	123.7	122.3	116.6	102.8	95.49	82.69	66.02	55.61	47.29	39.81	34.74	28.17	19.44	19.08	45.61	77.81	31.53	6.663	4.585	4.453	5.033	7.441	13.28	71.97	336.8	447.7	34.02	1.535	0.734	0.693	0.648	0.628	0.545	0.757	0.715	0.932	0.965	1.089	1.269	1.472	1.540	1.686	1.149	0.990	0.682	0.625	0.703	0.659	0.600	0.658	0.675	0.620	0.792	0.754	0.766	0.727	0.763	0.815	0.959	0.857	0.873	0.789	0.852	0.919	0.958
410.0	148.6	196.8	250.7	275.2	248.5	140.6	85.62	82.34	77.56	85.03	90.80	99.60	103.7	101.1	96.36	84.57	81.27	71.23	58.70	50.06	41.76	35.32	30.85	25.51	17.10	14.44	20.36	47.56	61.33	27.61	6.551	4.254	4.103	4.351	5.263	18.27	86.95	268.6	325.4	134.7	7.991	0.757	0.597	0.606	0.535	0.712	0.684	0.780	0.831	0.931	0.979	1.128	1.322	1.279	1.007	0.759	0.694	0.611	0.614	0.631	0.597	0.614	0.643	0.537	0.639	0.643	0.666	0.633	0.743	0.724	0.824	0.766	0.817	0.713	0.752	0.803	0.770
