Sample:	'1
File name:	G2025062408黄河十六路雨洪口.FD3
Run date:	'15:55:33, 06/26/2025
Operator:	Administrator
Comment:	'

Instrument
Model:	F-2700 FL Spectrophotometer
Serial number:	23B8-004
ROM Version:	4J14000 07

Instrument parameters
Measurement type:	3-D scan
Data mode:	Fluorescence
EX  Start WL:	220.0 nm
EX  End WL:	600.0 nm
EX Sampling interval:	5.0 nm
EM  Start WL:	230.0 nm
EM  End WL:	650.0 nm
EM Sampling interval:	5.0 nm
Scan speed:	12000 nm/min
EX Slit:	5.0 nm
EM Slit:	5.0 nm
PMT Voltage:	700 V
Response:	Auto 
Corrected spectra:	Off
Contour interval:	50.000

Peak integration
Integration method:	Rectangular
Sensitivity:	1
Threshold:	1.000

Peaks
No.	ApexEX/EM(nm)	Height(Data)
1	225.0/345.0	3738
2	225.0/580.0	257.9
3	255.0/285.0	618.4
4	260.0/570.0	157.3
5	265.0/585.0	149.8
6	270.0/600.0	139.5
7	275.0/345.0	2767
8	275.0/610.0	138.7
9	280.0/625.0	122.5
10	455.0/340.0	9.749
11	510.0/280.0	3.531
12	520.0/285.0	3.876
13	555.0/340.0	12.17
14	560.0/345.0	12.53

Data points
	220.0	225.0	230.0	235.0	240.0	245.0	250.0	255.0	260.0	265.0	270.0	275.0	280.0	285.0	290.0	295.0	300.0	305.0	310.0	315.0	320.0	325.0	330.0	335.0	340.0	345.0	350.0	355.0	360.0	365.0	370.0	375.0	380.0	385.0	390.0	395.0	400.0	405.0	410.0	415.0	420.0	425.0	430.0	435.0	440.0	445.0	450.0	455.0	460.0	465.0	470.0	475.0	480.0	485.0	490.0	495.0	500.0	505.0	510.0	515.0	520.0	525.0	530.0	535.0	540.0	545.0	550.0	555.0	560.0	565.0	570.0	575.0	580.0	585.0	590.0	595.0	600.0
230.0	214.1	3673	5685	1230	37.85	11.72	9.452	8.990	7.298	7.211	6.166	6.184	5.194	4.295	4.010	3.276	2.885	2.464	2.399	2.165	1.878	1.666	1.734	1.486	1.351	1.283	1.247	1.142	1.148	1.020	1.079	0.936	0.898	0.866	0.748	0.690	0.683	0.669	0.609	0.702	0.780	0.917	0.860	0.612	0.554	0.727	5.354	17.68	22.27	12.31	3.617	0.834	0.442	0.431	0.437	0.407	0.435	0.413	0.437	0.378	0.413	0.376	0.394	0.382	0.393	0.391	0.411	0.398	0.370	0.418	0.377	0.382	0.412	0.373	0.390	0.393	0.417
235.0	184.2	1034	4364	5609	597.4	54.29	12.56	10.24	9.368	7.985	6.665	6.126	5.713	4.810	4.552	2.973	3.171	2.523	2.300	2.009	1.891	1.798	1.701	1.492	1.439	1.287	1.244	1.211	1.149	1.146	1.087	1.056	0.848	0.868	0.784	0.715	0.668	0.750	0.625	0.555	0.677	0.739	0.885	0.901	0.842	0.719	1.552	4.988	10.24	16.65	21.46	18.37	7.009	1.340	0.401	0.449	0.457	0.440	0.508	0.425	0.405	0.421	0.416	0.423	0.373	0.365	0.413	0.430	0.448	0.387	0.381	0.407	0.349	0.347	0.351	0.348	0.447
240.0	260.2	336.0	1430	5828	4697	471.2	32.85	11.79	9.958	9.206	6.921	6.836	5.925	4.622	4.416	3.089	2.903	2.670	2.623	2.058	1.897	1.677	1.740	1.679	1.437	1.317	1.344	1.302	1.208	1.277	1.051	1.029	0.876	0.805	0.741	0.700	0.793	0.753	0.722	0.593	0.625	0.664	0.719	0.815	1.072	0.977	0.841	1.511	2.744	5.495	13.99	29.86	27.09	17.66	5.412	0.835	0.487	0.433	0.418	0.435	0.368	0.446	0.425	0.433	0.430	0.402	0.396	0.440	0.397	0.420	0.381	0.448	0.458	0.364	0.408	0.373	0.374
245.0	210.6	297.9	388.9	2264	7139	3915	346.4	18.34	11.75	11.40	8.912	7.975	6.520	5.161	3.769	3.635	3.314	2.740	2.585	2.338	2.092	1.904	1.865	1.776	1.438	1.406	1.366	1.387	1.309	1.128	1.139	1.069	0.847	0.848	0.776	0.796	0.723	0.698	0.689	0.559	0.607	0.613	0.635	0.608	0.785	0.980	1.124	1.133	1.070	1.527	3.716	11.63	25.71	40.64	27.40	14.85	3.458	0.570	0.453	0.472	0.441	0.466	0.445	0.499	0.401	0.440	0.435	0.470	0.414	0.414	0.424	0.405	0.383	0.389	0.415	0.360	0.517
250.0	100.5	230.2	287.3	594.8	2575	6553	6754	1352	76.26	14.30	10.98	9.079	8.067	6.217	4.962	4.125	3.442	3.053	2.725	2.443	2.145	1.956	1.939	1.930	1.727	1.606	1.514	1.391	1.256	1.206	1.110	1.015	0.973	0.947	0.774	0.751	0.780	0.770	0.696	0.590	0.566	0.606	0.664	0.604	0.691	0.701	0.848	1.113	1.281	1.114	1.294	3.034	6.571	14.15	23.92	37.19	39.32	36.08	13.30	4.195	0.665	0.499	0.495	0.477	0.408	0.479	0.486	0.486	0.405	0.390	0.417	0.427	0.440	0.435	0.454	0.423	0.433
255.0	65.59	94.25	226.0	384.7	651.3	1811	7446	9999.9	1867	80.70	14.78	11.93	8.490	7.779	6.005	4.418	4.117	3.488	3.048	3.145	2.575	1.996	2.019	1.860	1.641	1.564	1.432	1.566	1.334	1.293	1.138	0.989	0.998	0.914	0.839	0.818	0.765	0.795	0.824	0.617	0.632	0.596	0.618	0.648	0.633	0.637	0.598	0.644	0.850	1.081	1.526	1.755	2.099	3.582	5.753	9.583	18.46	44.99	72.61	31.33	20.20	4.195	0.536	0.571	0.479	0.506	0.431	0.447	0.480	0.403	0.400	0.387	0.416	0.396	0.428	0.407	0.428
260.0	53.81	53.36	108.9	324.6	349.4	460.2	2538	9999.9	9999.9	1395	39.60	16.89	10.83	8.578	7.194	4.831	4.389	4.073	3.265	3.387	2.335	2.160	1.959	1.839	1.676	1.795	1.663	1.618	1.498	1.362	1.323	1.224	1.127	0.990	0.978	0.812	0.762	0.793	0.826	0.775	0.588	0.615	0.604	0.575	0.632	0.563	0.527	0.619	0.554	0.670	1.074	1.926	1.911	1.601	1.773	2.604	4.758	13.02	36.31	67.82	90.13	30.23	16.28	2.131	0.568	0.551	0.556	0.584	0.563	0.384	0.520	0.470	0.463	0.494	0.487	0.447	0.523
265.0	62.79	54.99	61.05	172.3	377.6	253.8	625.4	4032	9999.9	9999.9	224.3	26.29	14.48	10.60	7.834	5.945	5.368	4.188	3.352	3.293	2.794	2.601	2.233	2.192	1.894	1.820	1.696	1.683	1.647	1.473	1.161	1.190	1.080	1.143	0.986	0.916	0.776	0.735	0.755	0.783	0.660	0.677	0.693	0.837	0.732	0.609	0.562	0.585	0.503	0.536	0.641	1.226	1.923	2.062	1.557	1.179	1.515	3.413	9.165	22.60	57.11	95.70	103.3	26.94	9.916	0.963	0.626	0.570	0.585	0.462	0.574	0.552	0.444	0.468	0.514	0.460	0.506
270.0	215.1	208.9	151.2	103.9	220.0	379.1	344.5	990.9	4149	9999.9	9999.9	3553	62.70	16.64	11.56	8.195	6.299	5.045	4.239	3.548	3.037	2.763	2.417	2.246	1.964	1.879	1.725	1.789	1.597	1.495	1.469	1.325	1.156	1.241	1.214	1.069	0.946	0.909	0.929	0.907	0.929	0.879	0.945	0.992	0.918	1.011	0.954	0.875	0.812	0.715	0.625	0.714	0.931	1.412	1.825	2.119	1.870	1.694	2.679	5.787	13.99	29.81	57.57	82.65	103.4	82.03	17.53	8.099	1.117	0.717	0.642	0.579	0.530	0.476	0.506	0.497	0.547
275.0	739.4	698.7	442.3	176.7	108.0	232.2	509.4	456.7	1032	2785	9999.9	9999.9	1267	66.03	17.53	11.02	8.542	6.231	5.018	4.024	3.478	2.914	2.892	2.501	2.327	2.244	2.180	1.948	1.571	1.595	1.647	1.428	1.333	1.290	1.595	1.569	1.235	1.398	1.195	1.266	1.273	1.321	1.550	1.564	1.604	1.975	1.987	2.079	1.690	1.294	0.826	0.762	0.745	0.875	1.075	1.476	2.564	3.323	2.457	2.373	3.879	7.507	13.80	19.85	33.70	75.74	135.4	143.4	28.18	9.509	0.894	0.656	0.669	0.574	0.640	0.639	0.599
280.0	1189	1192	779.7	289.1	109.7	134.9	389.9	602.4	435.9	777.7	3308	9999.9	9999.9	928.7	37.24	15.27	11.19	7.851	6.012	4.567	4.416	3.571	3.152	2.814	2.641	2.418	2.020	2.088	1.694	1.601	1.702	1.598	1.414	1.696	2.006	2.155	1.953	1.730	1.746	1.736	1.759	1.825	2.144	2.478	2.685	3.030	2.997	3.150	2.670	1.771	1.293	1.020	0.723	0.836	0.834	1.083	1.390	2.596	3.531	3.316	2.230	2.678	4.187	5.554	8.532	19.72	51.25	118.0	160.6	134.6	23.47	4.416	0.786	0.690	0.682	0.654	0.678
285.0	1702	1676	1115	416.9	138.2	124.9	237.8	618.4	602.6	400.7	977.3	4307	9999.9	9054	128.0	23.23	14.56	10.03	7.617	5.882	4.465	4.180	3.686	3.066	2.697	2.551	2.137	2.075	1.885	1.754	1.665	1.604	1.465	1.662	2.561	2.704	2.661	2.147	2.139	2.113	2.133	2.425	2.926	2.954	3.383	3.854	4.234	4.355	3.251	2.273	1.616	1.267	0.974	0.824	0.932	0.920	1.161	1.619	2.434	3.854	3.876	2.970	2.512	2.450	3.406	5.705	12.93	31.85	73.27	148.9	173.1	33.63	17.02	1.820	0.877	0.796	0.735
290.0	2095	2058	1395	552.1	196.5	159.0	221.8	404.5	745.3	767.7	667.0	1362	4235	9999.9	9999.9	2595	43.97	14.90	9.690	7.767	5.681	4.928	4.282	3.502	2.998	2.833	2.432	2.224	2.159	2.104	1.798	1.670	1.656	2.057	2.776	3.220	3.144	2.815	2.796	2.781	2.611	2.989	3.389	3.734	4.298	4.654	4.930	5.218	4.116	3.157	1.964	1.540	1.243	1.059	1.111	1.116	1.282	1.385	1.814	2.386	3.348	4.367	4.380	3.985	3.339	3.538	4.952	9.219	18.45	39.60	71.06	93.42	131.2	101.7	76.07	12.79	2.755
295.0	2263	2255	1563	669.4	286.8	240.2	280.5	394.2	610.8	1053	1130	945.6	1444	2765	9999.9	9999.9	738.2	48.27	14.69	10.37	7.762	5.687	5.152	4.085	3.608	3.248	2.841	2.557	2.373	2.142	1.916	1.718	1.670	2.133	2.895	3.504	3.590	3.344	3.293	3.029	3.123	3.166	3.609	3.922	4.489	5.435	5.563	5.481	4.624	3.478	2.329	1.928	1.537	1.373	1.337	1.385	1.432	1.595	2.005	2.307	2.706	3.523	4.006	5.851	6.496	5.338	4.395	5.191	7.098	11.63	18.18	22.92	34.78	60.07	141.2	184.9	35.97
300.0	2359	2299	1656	761.0	372.2	322.6	389.4	506.4	695.7	1017	1552	1249	1023	1064	2953	9999.9	9999.9	604.3	30.40	13.28	9.608	7.164	5.825	4.535	3.984	3.523	3.118	2.921	2.410	2.280	2.055	1.847	1.942	2.151	3.047	3.832	3.724	3.648	3.593	3.467	3.544	3.623	3.831	4.274	4.766	5.547	5.498	5.566	4.932	3.683	2.707	2.227	1.715	1.670	1.584	1.774	1.822	2.041	2.389	2.714	3.046	3.676	4.072	5.271	6.755	7.972	7.007	5.523	5.759	6.369	7.088	7.734	9.682	15.51	42.30	101.6	164.2
305.0	2408	2379	1674	849.3	460.4	422.5	523.8	687.9	904.0	1186	1652	1791	1285	902.2	1065	3516	9999.9	9999.9	83.75	21.01	12.74	9.315	6.601	5.697	4.339	3.929	3.476	3.134	2.871	2.526	2.310	1.912	1.958	2.232	3.074	3.706	4.104	3.791	3.693	3.675	3.910	3.829	4.014	4.523	4.972	5.394	5.343	5.713	4.976	3.758	2.987	2.440	2.162	2.054	1.833	2.184	2.425	2.766	2.890	3.648	4.044	4.674	5.009	5.666	6.899	7.790	9.288	8.588	7.517	6.423	5.557	5.038	5.184	5.981	11.58	25.61	57.33
310.0	2368	2283	1679	931.4	580.6	553.7	676.3	873.6	1104	1399	1698	2008	1864	1160	813.8	1128	3557	9999.9	9999.9	1999	34.06	12.86	9.163	6.944	5.375	4.485	3.856	3.429	3.097	2.812	2.394	2.133	2.186	2.274	2.995	3.835	4.278	4.078	3.967	3.904	4.018	3.948	4.244	4.496	4.767	5.507	5.299	5.575	5.142	3.842	3.091	2.997	2.461	2.331	2.402	2.746	3.044	3.360	3.740	4.236	4.798	5.490	5.954	6.584	7.348	7.742	8.674	9.136	9.700	9.197	7.626	5.693	5.071	4.859	5.290	8.134	14.89
315.0	2399	2332	1751	1030	710.6	683.7	820.7	1043	1283	1589	1865	2037	2018	1714	987.3	700.3	1121	2522	8238	9999.9	2982	39.31	13.46	9.174	6.824	5.248	4.766	4.201	3.368	2.959	2.560	2.428	2.249	2.406	2.843	3.665	4.074	4.321	4.063	3.820	4.088	4.322	4.352	4.664	5.039	5.562	5.453	5.642	4.936	4.070	3.232	3.185	2.850	2.825	2.874	3.385	3.632	3.794	4.337	4.825	5.541	6.106	6.586	7.633	7.960	8.606	8.933	8.989	8.968	9.576	10.00	9.159	7.028	5.413	4.507	4.624	5.823
320.0	2581	2489	1893	1175	799.0	767.7	924.7	1160	1415	1731	2033	2159	2060	1887	1338	723.8	646.5	805.9	2222	9999.9	9999.9	482.0	28.97	11.65	8.701	6.258	5.144	4.667	3.698	3.453	3.149	2.486	2.356	2.542	3.045	3.357	4.060	4.119	4.066	4.156	4.347	4.565	4.548	5.278	5.638	5.778	5.929	6.125	5.608	4.440	3.723	3.578	3.222	3.053	3.159	3.311	3.693	4.401	4.701	5.265	5.862	6.689	7.293	7.873	8.722	8.991	9.282	9.765	9.468	9.619	9.639	9.390	9.331	7.443	5.655	4.433	4.193
325.0	2747	2845	2260	1413	944.7	855.5	992.3	1228	1520	1865	2152	2305	2182	1872	1595	923.2	609.9	472.5	656.7	2958	9999.9	9999.9	384.4	17.60	10.99	7.772	5.798	5.028	4.168	3.654	3.275	2.675	2.419	2.573	2.935	3.097	4.026	3.940	4.145	4.347	4.244	4.456	4.982	5.783	5.877	6.444	6.336	6.915	6.369	5.324	4.490	4.512	3.787	3.463	3.659	3.632	4.018	4.779	5.181	6.058	6.449	6.875	7.534	8.292	9.273	9.319	9.948	10.22	10.28	9.718	9.425	9.026	9.070	9.205	7.469	5.622	4.541
330.0	3086	3237	2742	1888	1221	1018	1109	1353	1647	2008	2308	2482	2366	2008	1613	1222	784.2	493.7	382.1	816.8	3069	9999.9	9999.9	1714	30.29	11.13	7.933	6.258	4.782	4.242	3.393	3.000	2.864	2.540	3.176	3.227	3.940	4.153	4.264	4.468	4.537	4.857	5.317	5.960	6.513	7.330	7.300	7.975	7.612	6.524	5.721	5.769	4.884	4.460	4.143	4.078	4.642	5.368	5.427	6.344	6.924	7.368	8.264	8.969	9.822	10.14	10.84	10.85	11.11	10.75	10.50	9.622	9.039	8.348	7.941	7.749	6.565
335.0	3372	3526	3112	2302	1586	1250	1265	1497	1815	2159	2485	2650	2557	2219	1726	1294	1103	706.2	435.8	419.4	838.8	2393	7393	9999.9	2735	35.29	11.53	8.311	6.021	4.659	4.053	3.361	3.189	2.818	3.267	3.189	4.360	4.462	4.408	4.559	4.573	5.320	5.771	6.411	6.920	7.962	8.344	9.149	8.384	7.541	6.617	6.731	6.090	5.480	5.147	4.664	5.462	5.748	6.138	6.724	7.598	8.209	8.703	9.597	10.11	10.56	11.44	11.59	11.77	11.47	11.48	10.95	9.797	9.019	8.094	7.643	7.458
340.0	3559	3675	3343	2536	1772	1393	1393	1591	1925	2262	2568	2749	2660	2349	1850	1355	1159	942.9	549.7	391.3	387.5	669.8	1952	9594	9999.9	423.4	25.06	10.95	7.540	5.451	4.366	3.907	3.236	3.056	3.104	3.353	3.947	4.306	4.437	4.373	4.900	5.177	5.740	6.492	7.332	8.146	8.535	9.749	9.062	8.142	7.418	7.364	6.765	6.326	5.686	5.288	5.894	5.906	6.158	6.919	8.108	8.608	9.043	9.776	10.39	11.24	11.48	12.17	12.07	11.72	11.73	11.37	10.48	9.853	8.802	7.913	7.481
345.0	3626	3738	3480	2686	1909	1515	1494	1656	1990	2307	2591	2767	2687	2398	1909	1419	1133	1014	703.2	441.2	332.9	323.1	555.3	2739	9999.9	9999.9	356.7	15.82	9.281	6.505	5.097	4.084	3.477	3.258	3.103	3.585	3.741	4.262	4.710	4.546	4.842	5.349	5.961	6.475	7.573	8.039	8.598	9.662	8.969	8.485	7.578	8.224	7.461	6.607	6.001	5.936	6.198	6.018	6.824	7.394	8.172	8.808	9.587	10.33	10.52	10.95	11.62	12.04	12.53	12.28	12.07	11.75	11.00	10.07	9.146	8.487	7.747
350.0	3543	3658	3411	2729	2065	1687	1623	1764	2037	2328	2583	2736	2657	2404	1952	1484	1180	978.4	840.5	620.3	402.3	303.8	293.4	730.3	2943	9394	9999.9	1560	27.00	9.609	6.629	4.932	4.044	3.348	3.405	3.439	3.768	4.209	4.397	4.421	4.776	5.359	5.982	6.470	7.406	8.054	8.264	9.465	8.938	8.120	7.757	8.571	7.820	7.218	6.521	6.436	6.728	7.156	7.300	7.800	8.477	8.971	9.603	10.48	10.94	11.31	11.48	11.76	11.85	12.23	11.77	11.74	11.20	10.65	9.581	8.646	8.121
355.0	3449	3540	3297	2704	2204	1868	1817	1929	2134	2398	2586	2706	2621	2391	1991	1541	1262	1033	853.1	776.6	567.4	381.2	298.8	333.7	772.7	2229	6374	9999.9	2454	31.72	8.880	6.456	4.455	3.765	3.449	3.695	3.752	4.282	4.345	4.297	4.748	5.164	6.107	6.223	7.349	8.054	8.131	8.943	8.835	7.747	7.516	8.604	7.951	7.676	6.939	6.958	7.221	7.592	8.040	8.482	9.066	9.789	10.42	10.76	10.89	11.41	11.49	11.63	12.04	12.15	11.57	11.60	11.54	11.13	9.886	9.294	8.777
360.0	3311	3476	3177	2696	2279	1985	1918	2026	2206	2444	2596	2685	2595	2362	1997	1585	1319	1096	896.6	794.7	710.8	487.2	351.3	287.1	328.1	604.9	1662	8621	9999.9	395.2	21.17	8.527	5.831	4.511	4.005	3.811	4.044	4.308	4.336	4.587	4.775	5.155	5.811	6.076	7.167	7.759	7.669	8.610	7.968	7.842	7.796	8.668	8.184	7.870	7.595	7.277	7.867	8.070	8.279	9.018	9.526	9.989	10.22	10.31	10.99	10.78	11.76	11.89	11.59	11.58	11.64	11.54	11.24	11.05	9.963	9.231	8.951
365.0	3267	3390	3075	2710	2298	2082	2012	2101	2255	2432	2576	2620	2542	2325	1996	1613	1358	1144	951.4	810.1	754.1	601.5	426.0	322.7	268.5	272.1	465.3	2477	9999.9	9999.9	327.6	13.38	7.516	5.297	4.335	3.977	4.034	4.560	4.731	4.399	4.678	5.184	5.634	6.452	6.817	7.467	7.673	8.496	8.286	7.447	7.824	8.678	8.355	8.148	7.942	7.764	8.541	8.455	8.953	8.847	9.525	10.19	10.43	10.72	10.90	10.90	11.47	11.65	11.59	11.43	11.01	11.10	11.04	10.85	9.844	9.336	9.019
370.0	3155	3252	2957	2640	2346	2175	2086	2152	2270	2421	2528	2545	2459	2265	1959	1625	1396	1203	1026	878.9	773.7	713.2	592.0	421.1	319.7	251.0	239.5	645.8	2893	8875	9999.9	1383	22.84	7.827	5.455	4.547	4.618	4.740	4.583	4.777	4.910	5.114	5.610	6.118	6.586	7.423	7.284	8.139	7.820	7.069	7.404	8.639	8.426	8.393	8.381	8.204	8.603	8.626	8.815	9.302	9.750	9.995	10.13	10.52	10.95	10.74	11.22	11.09	11.37	11.11	10.95	11.06	10.90	10.30	9.707	9.394	9.309
375.0	3034	3062	2856	2569	2409	2256	2148	2168	2266	2386	2476	2474	2365	2191	1910	1624	1427	1261	1105	961.5	839.6	744.1	706.8	578.5	407.4	305.0	240.2	274.6	731.2	2098	6264	9999.9	2113	26.44	7.872	5.717	5.173	4.844	4.769	4.907	5.132	5.397	5.414	6.003	6.614	6.869	6.798	8.130	7.464	6.919	7.306	8.535	8.507	8.330	8.476	8.210	9.064	8.718	8.927	9.614	9.783	9.937	10.27	10.71	10.83	10.60	11.19	10.72	10.93	10.91	10.93	10.48	11.12	10.39	9.765	9.332	9.036
380.0	2875	2997	2779	2555	2405	2272	2176	2164	2241	2350	2410	2392	2295	2117	1868	1614	1431	1284	1142	1022	892.9	787.3	723.2	677.4	503.2	366.4	275.6	222.8	275.3	542.8	1642	8051	9999.9	330.7	17.36	7.381	5.789	5.120	5.084	5.163	4.981	5.228	5.507	5.898	6.246	6.805	7.192	7.620	7.424	6.794	6.905	8.701	8.306	8.359	8.568	8.690	8.975	8.996	9.206	9.552	9.537	10.07	10.05	10.43	10.28	10.32	10.79	10.26	10.72	10.77	10.65	10.16	10.34	10.04	9.630	9.208	9.097
385.0	2903	2868	2654	2479	2392	2274	2181	2169	2207	2279	2318	2308	2222	2048	1828	1588	1427	1304	1169	1054	935.7	836.0	745.7	701.4	609.2	433.0	324.8	243.4	204.2	218.5	433.8	2328	9468	8105	259.4	11.10	7.299	5.802	5.574	5.579	5.124	5.563	5.552	5.958	6.208	6.445	6.867	7.161	7.335	6.533	6.800	8.501	8.091	8.379	8.314	8.961	8.939	9.007	8.997	9.331	9.217	9.860	10.13	10.31	9.951	10.19	10.42	10.02	10.29	10.31	10.47	10.42	9.988	9.293	9.455	9.473	8.907
390.0	2812	2731	2569	2410	2363	2273	2180	2131	2132	2190	2224	2202	2091	1950	1761	1551	1415	1303	1188	1079	976.0	879.9	790.0	713.9	660.5	548.9	405.9	301.1	233.5	188.7	194.6	588.7	2683	7019	5672	1064	19.80	7.538	6.415	5.816	5.572	5.624	5.574	5.956	6.079	6.389	6.642	6.994	6.999	6.513	6.640	8.104	8.083	8.344	8.390	8.653	8.946	8.946	8.745	8.873	9.085	9.297	9.804	9.989	9.886	9.775	9.804	9.831	9.618	9.811	9.945	9.830	9.618	9.390	8.750	9.196	9.129
395.0	2543	2614	2435	2351	2311	2229	2155	2090	2069	2117	2134	2096	1994	1871	1692	1509	1392	1289	1185	1093	1002	923.2	832.3	751.3	678.2	629.0	520.8	371.9	291.9	228.2	183.4	229.2	665.0	1668	4478	8571	1648	22.25	7.853	6.649	6.173	5.827	5.670	5.871	6.268	6.197	5.997	6.530	6.663	6.264	6.116	7.809	7.987	8.475	8.324	8.176	8.795	8.873	8.534	8.873	9.086	9.060	9.618	9.219	9.653	9.388	9.176	9.293	9.312	9.157	9.379	9.009	9.309	9.071	9.118	8.747	8.839
400.0	2522	2519	2349	2273	2277	2178	2116	2049	2034	2054	2060	2017	1919	1807	1634	1467	1355	1280	1178	1101	1014	934.5	860.6	778.2	703.9	640.2	584.6	452.1	345.5	269.1	208.7	172.6	234.4	432.5	1224	6374	7473	276.5	14.95	7.516	6.919	5.868	5.877	5.435	5.932	6.154	6.210	6.537	6.505	6.142	6.070	7.352	8.261	8.382	8.158	8.354	8.917	8.678	8.720	8.712	8.733	9.052	9.053	9.105	9.386	9.186	8.933	8.741	9.240	9.032	8.857	8.712	9.067	8.704	8.575	8.654	8.792
405.0	2453	2433	2252	2220	2213	2167	2104	2014	1992	1987	2002	1952	1853	1744	1583	1435	1330	1244	1159	1086	1009	941.6	881.9	802.8	730.0	649.7	601.4	533.5	402.1	312.3	243.8	184.4	159.1	171.5	327.1	1851	7064	5701	218.2	10.16	7.359	6.246	6.018	5.671	5.754	6.056	6.124	6.593	6.530	5.807	6.139	7.562	7.856	8.339	8.172	8.240	8.834	8.681	8.708	8.591	8.647	8.914	8.585	8.827	8.826	8.636	8.898	8.609	8.679	8.754	8.871	8.448	8.932	8.369	8.552	8.377	8.101
410.0	2323	2284	2180	2158	2129	2113	2041	1977	1955	1929	1920	1867	1765	1655	1500	1371	1279	1197	1122	1056	994.0	933.0	875.7	816.0	748.7	673.9	606.4	562.3	485.4	375.4	290.3	223.1	170.7	135.7	142.6	462.5	2026	5168	4356	940.5	17.51	7.491	6.572	5.907	5.781	5.948	5.797	6.191	6.122	5.731	5.893	7.314	7.757	7.728	7.945	7.990	8.474	8.430	8.607	8.475	8.519	8.507	8.130	8.559	8.429	8.374	8.382	8.067	8.589	8.136	8.293	8.275	8.294	8.219	7.934	7.682	8.005
415.0	2219	2150	2084	2030	2042	2025	1982	1932	1893	1860	1827	1772	1645	1558	1416	1296	1206	1138	1064	1008	963.4	909.9	864.0	814.2	753.4	683.7	617.4	557.7	519.7	449.1	335.7	261.0	196.8	147.4	116.4	161.3	491.1	1230	3361	6193	1368	19.81	7.568	6.332	5.860	5.980	5.252	6.099	5.915	5.545	5.488	7.061	7.412	7.550	7.448	7.726	8.305	8.186	8.032	8.151	8.590	8.219	8.144	8.228	8.256	7.943	8.065	7.749	8.046	7.802	7.700	7.655	7.910	7.796	7.486	7.486	7.623
420.0	2070	2067	1968	1986	1959	1972	1941	1871	1833	1800	1768	1683	1573	1482	1357	1235	1153	1085	1022	965.6	924.8	882.0	845.0	801.4	743.0	687.1	624.8	557.1	511.7	485.8	382.8	285.7	214.7	162.1	121.2	103.3	156.6	306.4	907.8	4579	5506	253.1	13.25	7.058	6.154	5.909	5.361	5.722	5.668	5.363	5.496	6.953	6.929	7.351	7.719	7.594	8.213	7.831	7.642	7.740	7.884	7.941	8.225	8.248	7.880	7.812	7.596	7.578	7.907	7.446	7.536	7.711	7.706	7.410	7.052	7.492	7.329
425.0	1963	1963	1957	1905	1909	1928	1873	1825	1788	1729	1719	1620	1504	1408	1284	1182	1107	1043	981.0	928.9	889.9	853.1	825.5	782.1	732.5	681.6	624.5	566.3	509.2	483.0	421.4	313.5	231.1	177.4	129.9	99.72	89.93	107.2	230.2	1336	5099	4267	197.9	9.233	6.918	6.193	5.514	5.603	5.569	5.305	5.359	6.878	6.914	6.826	7.405	7.218	8.064	8.019	7.728	7.741	7.628	7.687	7.953	8.163	7.666	7.300	7.510	6.954	7.409	6.892	6.843	7.200	7.209	7.029	6.684	7.022	7.127
