Sample:	'1
File name:	t2025032803金星厂内雨水井.FD3
Run date:	'15:05:47, 03/28/2025
Operator:	Administrator
Comment:	'

Instrument
Model:	F-2700 FL Spectrophotometer
Serial number:	23B8-004
ROM Version:	4J14000 07

Instrument parameters
Measurement type:	3-D scan
Data mode:	Fluorescence
EX  Start WL:	220.0 nm
EX  End WL:	600.0 nm
EX Sampling interval:	5.0 nm
EM  Start WL:	230.0 nm
EM  End WL:	650.0 nm
EM Sampling interval:	5.0 nm
Scan speed:	12000 nm/min
EX Slit:	5.0 nm
EM Slit:	5.0 nm
PMT Voltage:	700 V
Response:	Auto 
Corrected spectra:	Off
Contour interval:	50.000

Peak integration
Integration method:	Rectangular
Sensitivity:	1
Threshold:	1.000

Peaks
No.	ApexEX/EM(nm)	Height(Data)
1	225.0/490.0	191.6
2	230.0/405.0	250.9
3	230.0/425.0	241.0
4	230.0/500.0	186.1
5	235.0/255.0	379.9
6	235.0/515.0	148.6
7	240.0/265.0	458.7
8	240.0/525.0	145.0
9	245.0/270.0	436.2
10	245.0/540.0	124.3
11	250.0/275.0	563.8
12	250.0/550.0	114.2
13	255.0/565.0	132.9
14	260.0/400.0	158.2
15	260.0/575.0	179.9
16	265.0/590.0	242.9
17	270.0/300.0	3424
18	270.0/600.0	259.0
19	275.0/305.0	3179
20	275.0/610.0	198.2
21	300.0/335.0	373.0
22	305.0/345.0	321.0
23	310.0/350.0	251.1
24	315.0/355.0	227.3
25	320.0/360.0	218.1
26	325.0/370.0	172.8
27	330.0/375.0	169.7
28	335.0/380.0	173.6
29	345.0/395.0	129.5
30	350.0/400.0	136.9
31	355.0/405.0	122.4
32	360.0/415.0	102.5
33	365.0/420.0	107.4
34	370.0/425.0	93.83
35	380.0/440.0	67.10
36	385.0/445.0	55.84
37	390.0/305.0	6.515
38	395.0/460.0	37.00
39	400.0/465.0	33.42
40	405.0/470.0	25.12
41	410.0/475.0	21.90
42	415.0/485.0	19.70
43	420.0/490.0	16.12
44	425.0/500.0	14.17
45	430.0/505.0	12.99
46	435.0/510.0	10.49
47	440.0/300.0	4.830
48	440.0/520.0	9.327
49	445.0/525.0	8.589
50	455.0/540.0	5.811
51	460.0/545.0	4.610
52	470.0/560.0	3.027
53	480.0/575.0	1.732
54	485.0/265.0	2.119
55	485.0/580.0	1.626
56	495.0/270.0	2.054
57	505.0/275.0	3.227
58	510.0/280.0	3.880
59	520.0/285.0	5.638
60	540.0/295.0	14.00
61	545.0/300.0	14.71
62	550.0/305.0	14.32
63	585.0/325.0	3.815

Data points
	220.0	225.0	230.0	235.0	240.0	245.0	250.0	255.0	260.0	265.0	270.0	275.0	280.0	285.0	290.0	295.0	300.0	305.0	310.0	315.0	320.0	325.0	330.0	335.0	340.0	345.0	350.0	355.0	360.0	365.0	370.0	375.0	380.0	385.0	390.0	395.0	400.0	405.0	410.0	415.0	420.0	425.0	430.0	435.0	440.0	445.0	450.0	455.0	460.0	465.0	470.0	475.0	480.0	485.0	490.0	495.0	500.0	505.0	510.0	515.0	520.0	525.0	530.0	535.0	540.0	545.0	550.0	555.0	560.0	565.0	570.0	575.0	580.0	585.0	590.0	595.0	600.0
230.0	75.45	1036	2217	523.6	14.37	3.013	3.076	2.375	2.081	1.857	2.049	1.985	1.248	1.175	0.801	0.597	0.520	0.536	0.449	0.478	0.322	0.356	0.356	0.320	0.289	0.219	0.241	0.211	0.198	0.232	0.205	0.186	0.167	0.154	0.158	0.194	0.143	0.182	0.194	0.205	0.420	0.738	0.624	0.300	0.170	0.192	1.236	4.517	6.572	3.926	1.176	0.231	0.106	0.095	0.096	0.083	0.094	0.117	0.095	0.105	0.096	0.088	0.092	0.097	0.080	0.087	0.092	0.080	0.085	0.084	0.095	0.086	0.083	0.076	0.096	0.085	0.082
235.0	165.2	302.3	1428	1868	456.4	24.58	3.510	2.298	2.405	2.478	1.938	2.116	1.373	1.269	0.698	0.662	0.675	0.533	0.433	0.448	0.372	0.322	0.273	0.370	0.236	0.225	0.228	0.199	0.242	0.208	0.212	0.156	0.213	0.277	0.157	0.155	0.150	0.234	0.230	0.151	0.247	0.358	0.599	0.748	0.559	0.309	0.417	1.279	2.711	4.366	5.534	5.363	2.068	0.406	0.088	0.116	0.134	0.122	0.091	0.092	0.108	0.081	0.084	0.118	0.096	0.093	0.090	0.090	0.098	0.091	0.093	0.082	0.102	0.066	0.091	0.096	0.115
240.0	275.4	196.8	445.9	1704	1836	363.2	14.09	3.248	3.375	2.497	2.831	1.988	1.247	1.478	0.953	0.654	0.649	0.566	0.479	0.517	0.419	0.345	0.318	0.315	0.281	0.219	0.227	0.212	0.217	0.159	0.173	0.186	0.177	0.166	0.154	0.219	0.162	0.238	0.215	0.196	0.238	0.156	0.295	0.458	0.801	0.851	0.501	0.496	0.744	1.390	3.117	7.631	8.513	5.182	1.717	0.210	0.090	0.118	0.125	0.097	0.147	0.117	0.120	0.116	0.095	0.080	0.085	0.101	0.088	0.084	0.094	0.089	0.108	0.074	0.103	0.082	0.109
245.0	197.7	305.3	186.9	625.3	2184	2049	260.6	6.983	3.452	3.007	3.306	2.775	1.731	1.693	0.931	0.723	0.548	0.660	0.442	0.453	0.447	0.334	0.460	0.354	0.362	0.302	0.281	0.234	0.259	0.231	0.203	0.207	0.200	0.171	0.201	0.143	0.137	0.252	0.251	0.181	0.232	0.094	0.182	0.192	0.538	0.869	1.053	0.840	0.426	0.440	0.857	2.753	6.614	10.24	9.211	4.481	1.151	0.190	0.098	0.115	0.124	0.103	0.100	0.104	0.107	0.094	0.098	0.096	0.087	0.103	0.061	0.089	0.104	0.077	0.092	0.076	0.099
250.0	66.61	219.7	303.0	248.6	732.2	2168	2906	801.8	34.45	4.496	4.220	3.461	2.247	1.853	1.020	0.698	0.771	0.645	0.570	0.469	0.424	0.360	0.421	0.318	0.276	0.329	0.261	0.249	0.297	0.224	0.223	0.195	0.224	0.201	0.221	0.152	0.166	0.196	0.214	0.167	0.162	0.111	0.178	0.178	0.259	0.359	0.551	0.932	1.040	0.840	0.563	0.784	1.719	3.499	6.198	9.089	11.19	8.995	4.326	1.072	0.179	0.105	0.108	0.124	0.112	0.111	0.095	0.124	0.102	0.096	0.078	0.093	0.111	0.071	0.081	0.085	0.108
255.0	24.43	65.51	224.0	379.9	258.6	570.3	2487	3005	307.0	36.24	5.268	4.213	2.458	2.055	1.405	0.913	1.030	0.622	0.583	0.573	0.557	0.393	0.520	0.448	0.344	0.352	0.277	0.264	0.296	0.233	0.243	0.240	0.233	0.234	0.195	0.179	0.209	0.218	0.172	0.141	0.174	0.162	0.190	0.164	0.169	0.170	0.206	0.384	0.624	1.080	1.382	1.213	0.763	0.921	1.528	2.272	4.483	10.20	17.41	14.97	6.283	1.093	0.192	0.155	0.148	0.128	0.102	0.123	0.105	0.089	0.065	0.093	0.108	0.091	0.107	0.090	0.088
260.0	18.24	24.51	87.43	351.1	350.5	180.7	775.4	2967	2447	259.2	16.49	5.465	2.764	2.740	1.601	1.030	1.159	0.711	0.589	0.634	0.546	0.543	0.424	0.394	0.402	0.288	0.292	0.341	0.317	0.261	0.232	0.198	0.247	0.208	0.230	0.240	0.182	0.225	0.219	0.169	0.205	0.209	0.203	0.140	0.182	0.195	0.126	0.195	0.222	0.431	0.846	1.742	1.651	0.887	0.590	0.669	1.179	2.844	8.096	16.11	20.84	14.02	4.551	0.607	0.168	0.156	0.088	0.145	0.101	0.094	0.101	0.099	0.099	0.097	0.093	0.080	0.116
265.0	16.48	17.03	30.38	156.4	458.7	251.2	210.1	1044	3727	2140	191.7	8.989	3.782	3.612	1.923	1.520	1.208	0.803	0.581	0.588	0.546	0.523	0.488	0.352	0.391	0.257	0.326	0.322	0.293	0.281	0.294	0.201	0.299	0.245	0.303	0.248	0.207	0.269	0.206	0.222	0.193	0.223	0.190	0.194	0.120	0.179	0.150	0.132	0.164	0.207	0.323	0.874	1.743	2.119	1.390	0.503	0.443	0.840	2.032	4.859	12.38	21.33	22.71	11.59	2.439	0.217	0.085	0.159	0.126	0.135	0.102	0.109	0.085	0.115	0.114	0.110	0.090
270.0	34.23	24.84	22.02	48.60	213.2	436.2	287.7	283.6	1245	3364	3974	773.4	35.60	5.389	2.551	1.960	1.303	1.030	0.789	0.681	0.621	0.628	0.504	0.445	0.343	0.364	0.350	0.300	0.289	0.284	0.337	0.245	0.360	0.334	0.334	0.366	0.257	0.267	0.291	0.218	0.233	0.246	0.232	0.201	0.194	0.234	0.161	0.148	0.191	0.143	0.172	0.310	0.610	1.162	1.989	2.054	1.673	0.921	0.758	1.301	3.059	6.426	11.70	17.43	20.39	17.13	8.890	2.185	0.339	0.144	0.137	0.129	0.127	0.117	0.127	0.177	0.125
275.0	126.4	90.60	44.81	38.02	70.66	211.4	563.8	340.5	390.2	962.0	3503	7190	977.8	31.88	4.237	2.655	1.666	1.437	1.055	0.899	0.763	0.553	0.542	0.510	0.511	0.506	0.435	0.337	0.409	0.303	0.304	0.388	0.580	0.510	0.626	0.614	0.399	0.472	0.527	0.456	0.435	0.458	0.452	0.377	0.333	0.369	0.246	0.231	0.261	0.202	0.216	0.226	0.274	0.442	0.670	1.065	2.349	3.227	2.310	0.935	1.148	1.976	3.159	4.569	6.923	14.25	26.43	26.64	12.82	3.043	0.228	0.125	0.164	0.156	0.106	0.165	0.114
280.0	416.7	250.1	133.5	81.75	70.89	119.0	433.2	765.9	373.1	477.4	1418	5983	5059	151.5	13.24	3.908	2.291	1.923	1.471	1.153	0.848	0.823	0.512	0.574	0.495	0.533	0.430	0.372	0.404	0.299	0.371	0.506	0.914	1.150	1.273	1.149	1.031	0.929	0.845	0.948	0.943	0.958	1.012	0.948	0.830	0.843	0.636	0.497	0.435	0.363	0.298	0.328	0.322	0.379	0.414	0.719	1.242	2.491	3.880	3.518	2.244	1.939	2.214	2.878	3.653	5.399	10.90	21.67	32.10	25.50	8.984	1.248	0.283	0.233	0.178	0.167	0.131
285.0	813.1	539.8	296.7	170.5	112.8	132.8	301.4	878.4	1066	960.1	1231	2510	5352	4715	112.8	7.164	3.173	2.169	1.697	1.466	1.095	0.848	0.744	0.612	0.625	0.479	0.450	0.534	0.477	0.426	0.565	0.777	1.653	2.083	2.403	2.112	1.976	1.629	1.453	1.534	1.574	1.763	1.866	1.852	1.914	1.637	1.290	1.101	0.819	0.650	0.496	0.631	0.485	0.514	0.504	0.724	1.059	1.470	2.540	4.577	5.638	4.206	3.875	4.076	4.875	5.017	6.062	8.832	15.75	26.37	30.41	19.49	5.251	0.729	0.328	0.263	0.202
290.0	1450	1034	586.8	323.2	204.0	210.0	365.9	797.8	1585	1999	1981	1961	2238	4548	3665	439.8	22.99	3.599	2.425	1.794	1.424	1.151	0.955	0.738	0.721	0.602	0.616	0.572	0.514	0.467	0.537	1.059	2.259	3.776	4.290	3.690	3.331	2.751	2.583	2.550	2.734	2.874	3.199	3.195	3.194	2.910	2.531	2.019	1.599	1.282	0.945	0.977	0.833	0.815	0.847	1.007	1.278	1.845	2.465	3.650	5.402	7.107	8.487	8.674	8.696	8.059	7.715	8.032	8.020	9.604	13.23	18.56	22.55	20.85	13.04	4.322	0.769
295.0	2012	1456	845.5	462.1	285.4	274.1	458.8	862.1	1577	2635	2999	2373	1524	1410	2481	4423	610.1	18.66	3.522	2.212	1.694	1.385	1.134	0.997	0.756	0.639	0.865	0.611	0.632	0.652	0.556	1.298	3.042	5.159	5.646	5.287	4.664	3.931	3.486	3.307	3.565	3.984	4.293	4.258	4.209	4.140	3.412	3.204	2.377	1.817	1.400	1.250	1.057	0.971	1.115	1.230	1.645	2.160	3.077	3.929	5.279	6.996	9.280	12.13	14.00	12.43	10.28	9.364	8.141	6.141	5.457	5.652	6.735	11.17	23.14	29.70	18.24
300.0	2173	1648	974.0	523.9	312.6	295.4	479.2	894.7	1569	2500	3424	2823	1492	725.8	758.2	3254	3889	89.24	8.217	3.188	2.214	1.852	1.174	1.043	0.735	0.661	0.721	0.661	0.673	0.565	0.602	1.362	3.301	5.368	6.241	5.469	5.327	4.234	3.648	3.411	3.762	4.283	4.450	4.390	4.830	4.649	3.962	3.430	2.878	1.982	1.472	1.465	1.152	1.099	1.129	1.285	1.765	2.125	3.168	3.997	5.362	6.941	8.623	11.11	13.53	14.71	13.59	10.79	8.475	5.885	4.204	3.075	2.506	3.250	7.157	16.60	28.27
305.0	2177	1687	1007	534.7	323.5	301.6	458.9	858.7	1514	2284	3106	3179	1608	608.0	298.3	978.0	3623	3042	70.69	4.547	2.495	1.982	1.597	1.275	1.018	0.891	0.708	0.643	0.584	0.540	0.633	1.455	3.491	5.526	6.515	5.620	5.215	4.588	3.657	3.650	3.789	4.180	4.315	4.702	4.747	4.332	3.897	3.576	2.777	2.089	1.614	1.571	1.257	1.150	1.082	1.207	1.794	2.179	3.050	4.029	5.192	6.448	7.931	10.32	11.64	13.25	14.32	13.18	9.926	6.339	4.090	2.764	1.686	1.497	2.233	4.404	9.868
310.0	1938	1551	950.9	491.4	305.3	273.6	413.7	753.2	1301	1960	2492	2664	1870	695.7	209.5	273.1	1038	2604	2784	302.0	16.62	3.051	1.833	1.374	1.089	1.023	0.795	0.749	0.699	0.661	0.661	1.313	3.129	4.961	5.946	5.754	4.964	4.148	3.411	3.279	3.346	3.788	3.949	4.196	4.404	4.116	3.569	3.496	2.689	1.888	1.484	1.472	1.182	0.978	1.011	1.165	1.513	1.956	2.668	3.258	4.556	5.826	7.096	8.734	9.866	10.38	10.58	11.12	10.33	8.258	5.260	3.085	1.614	1.183	1.191	1.476	2.675
315.0	1598	1290	834.7	439.4	264.3	238.2	344.4	614.2	1046	1580	1943	1963	1506	991.8	271.4	123.9	265.2	623.8	1730	3216	450.6	13.81	2.616	1.730	1.375	1.089	0.893	0.903	0.689	0.790	0.661	1.128	2.468	3.904	4.934	4.957	4.369	3.635	2.740	2.867	2.938	3.051	3.594	3.573	3.584	3.391	2.937	2.883	2.181	1.659	1.227	1.164	1.108	0.896	0.878	1.036	1.336	1.595	2.068	2.662	3.528	4.863	5.864	6.584	7.744	8.072	8.133	8.217	7.181	6.250	6.245	5.080	2.742	1.462	0.820	0.928	1.059
320.0	1396	1120	742.2	392.5	234.5	205.0	292.0	512.0	852.1	1278	1604	1573	1136	901.9	498.5	114.7	98.45	163.5	461.5	2259	2853	66.89	5.942	2.008	1.578	1.190	1.071	0.940	0.685	0.777	0.659	0.962	2.082	3.594	4.100	4.268	3.923	3.290	2.509	2.378	2.272	2.625	2.964	3.122	2.860	3.335	2.515	2.633	2.027	1.486	1.155	1.016	1.058	0.813	0.866	0.845	1.203	1.285	1.814	2.278	2.971	3.885	4.416	5.258	6.260	6.611	6.763	6.722	5.770	4.598	4.210	4.366	4.378	2.936	1.344	0.756	0.720
325.0	1249	999.6	648.2	348.1	213.3	193.4	266.1	432.5	718.9	1050	1319	1299	919.3	626.0	612.7	245.5	70.76	64.01	124.0	659.1	2608	2313	54.65	3.351	1.961	1.669	1.227	1.033	0.940	0.674	0.575	1.036	1.943	3.297	3.239	3.774	3.191	2.877	2.161	1.985	1.938	2.275	2.371	2.505	2.745	2.684	2.222	2.329	1.916	1.275	1.029	1.018	0.874	0.750	0.769	0.827	1.115	1.180	1.490	1.961	2.453	3.178	3.808	4.384	5.314	5.576	5.571	5.656	4.840	3.910	3.043	2.764	3.224	3.815	2.824	1.478	0.753
330.0	988.0	864.7	566.6	325.6	214.6	192.5	236.0	360.9	563.3	820.2	1024	1023	745.7	448.1	383.2	414.3	191.3	58.60	53.39	167.6	743.6	2010	2050	242.6	12.53	2.037	1.279	1.269	0.951	0.821	0.631	0.902	1.626	2.308	2.975	2.985	2.503	2.155	1.818	1.644	1.684	1.864	2.025	2.043	2.319	2.210	2.103	1.919	1.597	1.157	0.920	1.016	0.916	0.802	0.822	0.837	1.005	1.086	1.301	1.672	2.010	2.557	3.097	3.673	4.187	4.363	4.453	4.406	3.701	3.305	2.489	1.935	1.957	2.043	2.372	2.750	2.302
335.0	810.7	734.7	502.6	312.9	223.6	196.4	225.7	310.7	452.3	648.8	792.7	806.6	612.7	383.3	253.9	266.7	373.0	166.5	49.70	60.66	183.1	480.9	1336	2485	362.2	9.435	1.956	1.562	1.130	0.863	0.893	0.795	1.425	1.901	2.394	2.340	2.110	1.820	1.492	1.391	1.425	1.573	1.718	1.680	1.729	2.079	1.806	1.825	1.381	1.165	0.797	1.026	0.880	0.875	0.911	0.812	0.896	1.079	1.292	1.322	1.655	2.041	2.449	2.837	3.407	3.255	3.345	3.270	3.130	2.578	2.127	1.798	1.593	1.399	1.353	1.575	2.133
340.0	702.4	653.3	473.4	325.9	240.1	217.6	221.3	284.7	390.5	548.0	666.2	680.3	528.3	348.8	222.0	176.9	290.7	319.9	79.14	40.45	60.10	122.6	360.5	1808	2165	56.04	3.998	1.799	1.291	0.932	0.909	0.803	1.411	1.636	1.956	2.101	1.995	1.522	1.195	1.239	1.268	1.367	1.391	1.513	1.537	1.661	1.466	1.569	1.273	1.027	0.907	1.051	0.955	0.914	0.825	0.838	0.919	1.025	1.153	1.195	1.513	1.647	2.051	2.529	2.833	2.692	2.955	2.824	2.571	2.314	1.891	1.643	1.538	1.232	1.072	1.108	1.306
345.0	589.7	578.3	440.7	319.5	253.5	219.2	220.1	268.5	350.0	467.5	569.5	585.2	472.1	326.5	209.7	155.2	170.6	321.0	205.0	49.16	34.44	43.93	94.45	534.3	2078	1716	45.56	2.551	1.371	1.149	0.983	0.796	1.209	1.500	1.752	1.798	1.690	1.369	1.211	0.996	1.179	1.153	1.145	1.212	1.271	1.371	1.424	1.262	1.223	1.030	0.897	1.056	0.934	0.857	0.941	0.983	0.901	1.161	1.028	1.162	1.388	1.625	1.748	2.015	2.424	2.387	2.554	2.314	2.120	2.312	1.803	1.464	1.388	1.271	1.027	1.032	1.019
350.0	522.9	502.3	405.6	312.9	253.7	228.4	222.7	246.7	296.7	384.0	464.5	483.4	403.7	293.9	206.5	148.9	125.5	170.9	251.1	142.5	45.44	29.23	36.64	132.1	606.8	1553	1506	205.0	9.722	1.475	1.111	0.925	1.126	1.378	1.530	1.445	1.435	1.202	1.049	0.920	0.975	1.053	1.009	1.179	1.166	1.217	1.141	1.153	1.055	0.913	0.831	0.972	0.940	0.933	0.882	0.972	0.943	0.940	1.004	1.113	1.194	1.356	1.476	1.765	2.064	1.997	2.025	2.134	1.965	1.983	1.609	1.364	1.277	1.172	0.955	0.937	0.905
355.0	444.3	446.2	367.1	294.4	251.8	226.7	221.4	228.5	260.5	324.0	388.9	398.9	340.6	262.1	191.8	143.2	114.5	104.8	136.4	227.3	135.7	35.39	27.79	44.56	146.6	372.3	1059	1834	300.7	6.103	1.423	1.209	1.252	1.111	1.341	1.190	1.218	1.134	1.057	0.890	0.762	0.873	0.966	0.952	1.003	0.953	0.933	1.197	0.935	0.813	0.736	0.994	0.936	0.857	0.856	0.795	0.819	0.843	0.979	0.984	1.005	1.180	1.293	1.428	1.750	1.682	1.602	1.586	1.557	1.541	1.370	1.191	1.239	1.101	0.906	0.982	0.741
360.0	388.2	402.6	348.1	280.6	248.3	216.2	215.2	210.4	243.4	283.0	331.3	344.0	298.7	238.6	179.8	138.6	110.3	93.10	90.40	156.8	218.1	66.75	28.92	27.59	46.18	93.80	293.0	1443	1634	49.98	2.663	1.433	1.263	1.160	1.246	1.115	1.111	1.144	0.998	0.896	0.688	0.659	0.820	0.808	0.944	1.040	0.846	1.078	0.873	0.836	0.699	0.910	0.897	0.910	1.023	0.827	0.827	0.884	0.904	0.974	1.056	1.129	1.400	1.357	1.428	1.552	1.544	1.493	1.403	1.238	1.162	1.135	1.073	0.978	0.974	0.892	0.729
365.0	345.0	369.5	324.5	266.7	235.2	217.6	199.8	197.8	222.0	251.4	296.3	305.7	268.1	215.7	170.6	136.3	110.5	90.50	78.16	93.76	191.2	163.1	46.74	27.10	26.30	33.62	76.81	442.8	1692	1266	38.77	2.048	1.526	1.242	1.100	1.114	1.186	0.966	0.893	0.702	0.800	0.743	0.739	0.895	0.896	0.934	0.860	1.007	0.828	0.742	0.694	0.907	0.755	0.863	0.825	0.836	0.771	0.822	0.916	0.970	0.901	0.962	1.280	1.252	1.255	1.386	1.437	1.253	1.238	1.261	1.168	1.117	0.929	0.974	0.839	0.839	0.719
370.0	295.6	333.8	298.1	251.1	223.4	205.3	188.5	179.5	192.4	230.4	255.7	258.5	234.2	195.1	159.1	130.7	108.3	92.13	80.41	74.73	105.7	172.8	136.4	44.44	26.20	23.60	29.56	108.9	510.8	1268	979.9	173.6	8.553	1.486	1.224	1.087	1.103	0.934	0.856	0.754	0.682	0.748	0.652	0.729	0.825	0.763	0.714	0.805	0.800	0.638	0.692	0.902	0.763	0.786	0.793	0.802	0.930	0.796	0.838	0.775	0.727	0.854	0.999	1.135	1.170	1.136	1.157	1.122	1.176	1.108	1.002	1.057	0.910	0.820	0.810	0.723	0.796
375.0	264.9	282.1	269.4	234.2	205.6	198.4	184.5	164.0	180.6	198.0	221.7	225.9	205.2	173.4	145.8	125.8	106.9	96.33	85.60	74.54	75.23	99.39	169.7	126.8	38.74	25.09	21.76	35.60	121.9	307.2	885.4	1560	268.3	4.913	1.330	1.244	1.209	1.011	0.916	0.746	0.632	0.616	0.614	0.690	0.700	0.857	0.699	0.716	0.736	0.661	0.645	0.806	0.830	0.866	0.748	0.835	0.727	0.780	0.850	0.690	0.753	0.880	0.856	0.939	1.037	1.082	1.077	0.883	1.028	0.899	0.887	1.004	0.815	0.801	0.764	0.692	0.695
380.0	256.9	268.7	241.5	225.8	189.2	192.1	171.1	156.1	170.6	186.5	199.4	204.2	182.3	160.1	137.3	119.9	108.0	95.52	88.09	79.90	72.62	73.42	118.7	173.6	63.30	30.52	22.95	20.84	36.66	76.65	251.1	1298	1779	41.15	2.393	1.291	1.092	1.035	0.866	0.685	0.687	0.606	0.646	0.717	0.673	0.657	0.647	0.760	0.707	0.588	0.694	0.727	0.692	0.862	0.720	0.771	0.816	0.700	0.709	0.734	0.746	0.731	0.791	0.827	0.983	0.925	0.905	0.911	0.923	0.848	0.829	0.910	0.739	0.852	0.659	0.700	0.732
385.0	243.9	253.1	236.1	209.2	199.8	177.8	158.3	156.0	163.7	174.7	180.6	186.2	168.3	149.8	130.3	116.8	107.8	98.83	93.04	85.50	76.24	70.52	80.30	143.3	139.0	50.23	26.58	19.89	19.59	26.24	64.52	403.8	1991	1013	31.25	1.615	1.381	1.250	0.890	0.726	0.622	0.648	0.612	0.721	0.644	0.648	0.700	0.751	0.705	0.573	0.641	0.710	0.762	0.764	0.691	0.797	0.767	0.731	0.699	0.728	0.831	0.768	0.859	0.840	0.850	0.775	0.849	0.879	0.885	0.857	0.746	0.827	0.716	0.801	0.675	0.631	0.682
390.0	235.5	243.5	233.9	214.8	198.2	173.0	159.4	156.7	157.2	164.2	170.5	167.2	156.5	142.1	126.2	114.8	107.3	101.7	96.63	91.68	82.23	75.96	73.44	88.82	134.1	117.1	45.71	26.03	20.63	19.43	24.93	99.20	609.7	1033	748.6	132.0	6.849	1.611	1.055	0.777	0.705	0.642	0.596	0.709	0.665	0.717	0.601	0.619	0.663	0.654	0.646	0.728	0.788	0.782	0.669	0.671	0.729	0.733	0.687	0.675	0.732	0.699	0.831	0.802	0.769	0.794	0.780	0.718	0.778	0.747	0.747	0.790	0.704	0.699	0.767	0.655	0.698
395.0	224.5	235.8	226.6	226.1	199.5	178.0	160.7	157.3	154.1	156.0	160.0	152.9	148.6	133.1	121.6	112.5	105.6	103.8	102.3	96.12	87.46	81.21	77.96	72.62	84.24	129.5	110.0	42.67	25.95	21.50	19.53	33.19	144.2	251.1	676.6	995.4	200.6	11.41	1.454	0.915	0.714	0.736	0.664	0.619	0.607	0.665	0.646	0.648	0.671	0.692	0.652	0.755	0.791	0.844	0.813	0.593	0.793	0.799	0.727	0.677	0.730	0.754	0.796	0.716	0.816	0.737	0.802	0.666	0.761	0.720	0.660	0.769	0.640	0.581	0.685	0.793	0.758
400.0	220.3	226.7	232.9	225.6	205.5	168.0	156.3	151.5	158.2	153.9	154.4	147.3	139.2	132.0	116.6	111.1	104.5	103.2	101.3	97.68	92.75	86.45	81.77	72.85	69.95	93.45	136.9	78.69	34.06	25.48	20.76	20.32	41.09	62.47	192.5	824.8	888.9	219.7	2.458	0.981	0.775	0.809	0.729	0.566	0.555	0.637	0.647	0.671	0.623	0.643	0.639	0.745	0.806	0.739	0.712	0.638	0.799	0.748	0.645	0.670	0.763	0.756	0.818	0.768	0.703	0.788	0.756	0.599	0.720	0.631	0.745	0.832	0.701	0.624	0.706	0.699	0.800
405.0	211.5	224.7	250.9	238.6	211.7	166.8	165.0	149.0	151.9	152.0	151.1	143.4	134.6	125.2	113.7	108.2	104.3	102.6	103.2	100.1	95.44	89.87	85.12	76.44	69.35	71.51	113.3	122.4	52.57	30.63	24.38	19.58	19.94	21.00	48.64	257.2	899.5	1339	26.43	1.101	0.825	0.712	0.698	0.613	0.607	0.614	0.639	0.666	0.659	0.659	0.664	0.796	0.799	0.759	0.671	0.745	0.797	0.721	0.650	0.667	0.640	0.704	0.668	0.699	0.709	0.679	0.644	0.639	0.609	0.704	0.733	0.793	0.651	0.715	0.748	0.624	0.648
410.0	220.7	233.8	247.4	243.6	209.1	167.7	159.2	152.1	147.7	145.6	144.5	136.7	127.9	118.8	112.9	104.8	104.0	103.1	101.9	99.43	95.49	91.62	86.83	79.86	72.45	67.87	77.78	108.9	101.3	47.63	28.66	21.30	16.89	13.08	16.18	61.87	268.8	1130	859.3	117.5	4.189	0.895	0.763	0.684	0.637	0.661	0.702	0.710	0.745	0.667	0.675	0.878	0.883	0.849	0.715	0.684	0.760	0.705	0.702	0.724	0.638	0.672	0.685	0.675	0.692	0.628	0.669	0.708	0.635	0.627	0.690	0.746	0.624	0.767	0.687	0.674	0.593
