Sample:	'1
File name:	T2025041710 颜家村东北桥.FD3
Run date:	'10:59:46, 04/21/2025
Operator:	Administrator
Comment:	'

Instrument
Model:	F-2700 FL Spectrophotometer
Serial number:	23B8-004
ROM Version:	4J14000 07

Instrument parameters
Measurement type:	3-D scan
Data mode:	Fluorescence
EX  Start WL:	220.0 nm
EX  End WL:	600.0 nm
EX Sampling interval:	5.0 nm
EM  Start WL:	230.0 nm
EM  End WL:	650.0 nm
EM Sampling interval:	5.0 nm
Scan speed:	12000 nm/min
EX Slit:	5.0 nm
EM Slit:	5.0 nm
PMT Voltage:	700 V
Response:	Auto 
Corrected spectra:	Off
Contour interval:	50.000

Peak integration
Integration method:	Rectangular
Sensitivity:	1
Threshold:	1.000

Peaks
No.	ApexEX/EM(nm)	Height(Data)
1	225.0/600.0	46.48
2	225.0/625.0	36.87
3	230.0/345.0	857.6
4	230.0/500.0	292.3
5	235.0/380.0	644.3
6	235.0/405.0	609.7
7	235.0/510.0	248.7
8	240.0/265.0	352.7
9	240.0/525.0	220.1
10	245.0/270.0	358.4
11	245.0/535.0	193.0
12	250.0/275.0	423.8
13	250.0/550.0	152.9
14	255.0/280.0	568.7
15	255.0/560.0	132.3
16	260.0/285.0	559.0
17	260.0/575.0	104.5
18	265.0/290.0	575.5
19	265.0/585.0	101.9
20	270.0/300.0	857.9
21	270.0/390.0	508.0
22	270.0/595.0	83.56
23	275.0/305.0	997.2
24	275.0/335.0	614.5
25	275.0/610.0	74.09
26	280.0/310.0	866.0
27	280.0/340.0	614.2
28	280.0/625.0	61.21
29	285.0/315.0	807.6
30	285.0/635.0	46.94
31	290.0/325.0	730.7
32	300.0/335.0	518.1
33	305.0/345.0	449.3
34	315.0/355.0	365.2
35	315.0/395.0	364.4
36	320.0/360.0	330.0
37	325.0/370.0	317.7
38	330.0/375.0	312.1
39	335.0/380.0	310.5
40	340.0/390.0	281.6
41	345.0/395.0	267.1
42	350.0/400.0	267.6
43	360.0/415.0	226.8
44	365.0/420.0	218.3
45	415.0/485.0	46.02
46	430.0/505.0	27.81
47	445.0/525.0	16.49
48	460.0/345.0	2.483
49	500.0/270.0	2.020
50	505.0/275.0	3.034
51	515.0/280.0	3.273
52	520.0/285.0	3.650
53	530.0/290.0	3.323
54	540.0/295.0	4.813
55	545.0/300.0	4.792
56	555.0/305.0	5.093
57	560.0/310.0	4.576
58	575.0/315.0	4.705
59	580.0/320.0	4.598
60	585.0/325.0	4.648

Data points
	220.0	225.0	230.0	235.0	240.0	245.0	250.0	255.0	260.0	265.0	270.0	275.0	280.0	285.0	290.0	295.0	300.0	305.0	310.0	315.0	320.0	325.0	330.0	335.0	340.0	345.0	350.0	355.0	360.0	365.0	370.0	375.0	380.0	385.0	390.0	395.0	400.0	405.0	410.0	415.0	420.0	425.0	430.0	435.0	440.0	445.0	450.0	455.0	460.0	465.0	470.0	475.0	480.0	485.0	490.0	495.0	500.0	505.0	510.0	515.0	520.0	525.0	530.0	535.0	540.0	545.0	550.0	555.0	560.0	565.0	570.0	575.0	580.0	585.0	590.0	595.0	600.0
230.0	44.47	533.4	1739	682.5	36.85	5.932	4.409	3.721	3.444	2.923	2.606	2.529	2.130	1.903	1.605	1.338	1.141	1.084	0.981	0.877	0.804	0.763	0.657	0.655	0.617	0.627	0.539	0.543	0.471	0.482	0.449	0.470	0.418	0.420	0.342	0.369	0.365	0.349	0.311	0.307	0.371	0.416	0.480	0.365	0.289	0.300	0.601	2.937	5.944	5.082	2.092	0.499	0.268	0.237	0.239	0.216	0.229	0.238	0.244	0.225	0.210	0.224	0.202	0.221	0.225	0.213	0.220	0.203	0.238	0.239	0.231	0.229	0.200	0.217	0.219	0.240	0.247
235.0	104.1	164.4	962.1	1960	557.1	56.27	5.278	4.143	4.244	3.123	2.886	2.845	2.568	1.925	1.627	1.526	1.130	1.044	0.913	0.999	0.848	0.791	0.639	0.669	0.586	0.602	0.552	0.502	0.589	0.463	0.479	0.518	0.408	0.399	0.363	0.353	0.357	0.376	0.325	0.360	0.301	0.297	0.392	0.446	0.493	0.323	0.344	0.920	2.157	3.902	6.236	7.627	3.863	1.054	0.288	0.262	0.276	0.227	0.212	0.244	0.196	0.197	0.210	0.226	0.235	0.238	0.225	0.189	0.213	0.220	0.214	0.199	0.206	0.212	0.206	0.281	0.231
240.0	159.4	144.5	280.9	1464	2207	446.5	30.24	4.306	3.978	3.351	3.164	3.123	2.545	2.018	1.802	1.352	1.077	1.026	1.047	0.998	0.755	0.879	0.736	0.760	0.697	0.621	0.676	0.487	0.662	0.532	0.463	0.425	0.417	0.410	0.385	0.399	0.350	0.341	0.365	0.325	0.330	0.382	0.401	0.386	0.586	0.536	0.450	0.478	0.683	1.157	2.888	8.003	11.08	8.499	3.492	0.721	0.290	0.231	0.235	0.244	0.195	0.242	0.194	0.250	0.204	0.218	0.239	0.215	0.203	0.265	0.222	0.233	0.215	0.245	0.228	0.268	0.264
245.0	108.0	223.4	141.2	457.8	2045	2451	342.0	17.41	4.787	3.566	3.794	3.326	2.372	2.140	1.935	1.600	1.272	1.032	1.061	0.977	0.801	0.915	0.656	0.684	0.673	0.603	0.581	0.494	0.530	0.534	0.382	0.431	0.477	0.455	0.350	0.352	0.279	0.309	0.364	0.359	0.293	0.340	0.350	0.343	0.397	0.542	0.781	0.683	0.461	0.493	0.835	2.494	6.438	11.93	13.93	8.056	2.736	0.400	0.228	0.271	0.217	0.240	0.237	0.230	0.202	0.229	0.216	0.239	0.199	0.220	0.176	0.270	0.222	0.224	0.243	0.299	0.221
250.0	47.79	149.2	233.8	212.1	613.3	1952	2843	1193	84.71	6.522	4.445	4.274	2.801	2.584	2.136	1.748	1.621	1.233	1.305	1.039	0.908	0.878	0.759	0.732	0.800	0.710	0.514	0.597	0.544	0.514	0.493	0.457	0.447	0.437	0.400	0.352	0.383	0.338	0.339	0.324	0.345	0.367	0.337	0.309	0.329	0.363	0.474	0.788	0.904	0.905	0.692	0.853	1.718	3.677	7.092	10.87	14.99	14.83	8.947	2.757	0.522	0.244	0.227	0.223	0.221	0.256	0.217	0.258	0.218	0.258	0.245	0.252	0.215	0.273	0.290	0.256	0.235
255.0	31.94	49.25	161.3	317.5	253.3	482.5	1714	4236	1734	101.3	6.673	5.023	3.429	2.767	2.279	1.982	1.514	1.341	1.305	1.066	0.980	0.959	0.845	0.848	0.742	0.604	0.585	0.722	0.577	0.479	0.530	0.498	0.478	0.462	0.459	0.393	0.399	0.357	0.325	0.311	0.385	0.380	0.346	0.342	0.335	0.300	0.336	0.435	0.517	0.801	1.189	1.247	0.987	1.094	1.806	2.727	4.856	11.70	22.44	25.00	14.19	3.219	0.446	0.251	0.255	0.323	0.308	0.243	0.231	0.245	0.258	0.217	0.238	0.296	0.241	0.270	0.256
260.0	28.89	29.03	60.62	260.1	338.2	181.9	485.2	2768	5059	1360	52.18	6.711	4.473	3.706	2.651	2.335	1.681	1.510	1.471	1.221	0.951	0.920	0.855	0.825	0.660	0.723	0.750	0.686	0.679	0.601	0.509	0.467	0.491	0.495	0.473	0.433	0.410	0.372	0.379	0.342	0.307	0.418	0.369	0.342	0.348	0.312	0.286	0.359	0.310	0.399	0.675	1.495	1.864	1.114	0.841	0.834	1.366	3.156	8.317	19.33	30.07	25.20	11.72	1.979	0.289	0.285	0.296	0.212	0.320	0.267	0.242	0.249	0.240	0.340	0.252	0.278	0.242
265.0	32.20	28.55	30.93	109.4	352.7	277.3	151.0	841.5	4113	5484	232.0	21.85	6.092	4.143	2.938	2.241	1.988	1.760	1.279	1.518	0.947	1.063	0.871	0.816	0.621	0.748	0.749	0.721	0.708	0.574	0.541	0.447	0.559	0.421	0.427	0.389	0.396	0.417	0.375	0.308	0.310	0.374	0.383	0.331	0.319	0.383	0.305	0.341	0.273	0.298	0.374	0.693	1.471	2.079	1.638	0.795	0.654	0.995	2.253	5.380	13.72	27.80	32.87	22.96	8.019	0.945	0.302	0.253	0.279	0.272	0.233	0.283	0.256	0.290	0.261	0.279	0.281
270.0	42.08	39.78	34.59	44.93	148.8	358.4	301.8	246.7	1176	3924	5792	2305	63.75	6.651	4.772	3.250	2.341	2.087	1.610	1.665	1.218	1.106	0.970	0.901	0.752	0.872	0.823	0.711	0.738	0.624	0.662	0.583	0.523	0.526	0.491	0.429	0.423	0.424	0.436	0.324	0.356	0.338	0.396	0.372	0.389	0.399	0.337	0.360	0.274	0.353	0.298	0.397	0.582	1.030	1.665	1.953	2.020	1.168	0.945	1.537	3.425	7.573	14.42	24.85	28.61	31.23	16.23	6.570	0.940	0.336	0.286	0.355	0.267	0.305	0.257	0.323	0.267
275.0	85.15	79.01	75.58	49.60	56.43	144.4	423.8	346.9	313.9	947.9	2964	8333	1263	72.76	7.495	4.721	3.290	2.676	1.934	1.662	1.473	1.225	1.103	0.913	0.866	0.874	0.810	0.666	0.734	0.665	0.616	0.568	0.642	0.515	0.586	0.508	0.466	0.527	0.485	0.393	0.375	0.354	0.373	0.359	0.481	0.505	0.393	0.441	0.396	0.352	0.330	0.349	0.385	0.482	0.651	0.915	1.851	3.034	2.509	1.273	1.223	2.065	3.645	6.047	8.013	17.39	37.19	50.45	25.78	7.524	0.690	0.344	0.375	0.303	0.291	0.352	0.325
280.0	121.7	139.0	125.1	70.75	41.61	66.07	234.9	568.7	272.6	270.4	809.9	4823	8426	962.0	35.76	6.000	4.382	2.887	2.411	2.115	1.728	1.347	1.116	1.049	0.912	0.824	0.801	0.681	0.726	0.839	0.748	0.648	0.588	0.666	0.623	0.557	0.465	0.527	0.398	0.395	0.422	0.427	0.463	0.464	0.556	0.628	0.479	0.575	0.524	0.502	0.389	0.406	0.398	0.421	0.398	0.545	0.846	1.669	3.020	3.273	1.666	0.960	1.247	1.891	2.288	4.478	11.74	30.12	50.14	33.43	20.37	3.804	0.521	0.362	0.306	0.322	0.360
285.0	170.2	209.7	179.3	101.4	53.32	50.90	103.3	404.3	559.0	198.6	268.7	1394	6409	7639	625.8	13.97	5.514	3.861	2.700	2.324	1.886	1.523	1.398	1.056	1.047	0.849	0.851	0.790	0.712	0.766	0.740	0.638	0.649	0.657	0.676	0.708	0.569	0.645	0.542	0.504	0.458	0.452	0.504	0.547	0.508	0.612	0.611	0.671	0.743	0.640	0.526	0.483	0.482	0.472	0.410	0.462	0.497	0.723	1.512	2.700	3.650	2.471	1.102	0.984	1.097	1.613	3.228	7.945	18.04	37.67	59.23	30.93	13.92	1.628	0.427	0.374	0.348
290.0	231.4	278.7	245.6	159.5	82.41	64.96	75.36	179.6	474.3	575.5	235.2	451.1	1790	5214	6558	1992	35.86	5.468	3.650	2.641	2.196	1.777	1.557	1.265	1.241	0.984	0.893	0.860	0.772	0.772	0.726	0.714	0.675	0.685	0.780	0.649	0.618	0.655	0.592	0.591	0.584	0.492	0.619	0.641	0.612	0.767	0.819	0.969	0.907	0.830	0.621	0.664	0.560	0.504	0.479	0.492	0.549	0.622	0.732	1.251	2.013	3.091	3.323	2.996	1.693	1.274	1.515	2.613	4.723	9.934	20.92	31.05	44.22	41.09	20.51	10.43	1.921
295.0	276.4	353.3	322.3	215.7	114.3	90.06	95.00	139.5	239.9	544.4	734.3	364.5	560.4	1309	3179	7810	714.4	38.38	5.315	3.502	2.662	2.152	1.879	1.462	1.243	1.242	1.051	0.923	0.851	0.761	0.851	0.773	0.776	0.769	0.792	0.693	0.836	0.680	0.624	0.624	0.631	0.578	0.633	0.638	0.735	0.937	0.946	1.020	1.099	0.984	0.757	0.808	0.654	0.608	0.528	0.606	0.636	0.703	0.740	0.943	1.099	1.515	1.965	3.496	4.813	3.329	1.796	1.773	2.134	3.188	5.384	7.722	11.44	18.76	40.53	63.46	32.17
300.0	292.1	383.7	359.6	242.3	144.2	121.4	128.9	165.4	216.8	377.6	857.9	676.1	370.8	455.8	889.4	4522	5858	561.9	19.04	5.201	3.380	2.627	2.166	1.709	1.323	1.286	0.980	0.925	0.932	0.977	0.954	0.833	0.733	0.788	0.704	0.755	0.814	0.818	0.702	0.655	0.631	0.538	0.649	0.749	0.783	0.884	1.073	1.051	1.047	1.024	0.919	0.909	0.865	0.715	0.733	0.709	0.851	0.794	0.921	1.018	1.178	1.250	1.434	2.158	3.482	4.792	4.249	2.559	1.944	2.053	2.235	2.749	3.435	5.017	11.94	31.37	56.53
305.0	310.7	403.9	387.9	267.9	173.9	151.0	172.4	203.9	257.6	355.4	631.9	997.2	525.0	320.5	338.9	1269	5326	5029	79.42	8.091	4.208	2.991	2.250	1.886	1.700	1.416	1.161	1.105	1.049	0.862	0.970	0.918	0.775	0.741	0.830	0.847	0.831	0.826	0.671	0.814	0.695	0.676	0.638	0.758	0.979	1.039	1.036	1.334	1.255	1.118	0.887	0.918	0.886	0.751	0.832	0.772	0.904	0.952	0.989	1.207	1.355	1.427	1.671	1.825	2.265	3.316	4.757	5.093	3.411	2.186	1.835	1.714	1.785	2.133	3.487	8.134	18.31
310.0	321.0	413.0	410.4	290.5	196.5	171.8	195.9	244.3	299.1	373.7	505.1	765.5	866.0	481.9	265.6	393.1	1481	4180	4383	1299	21.68	4.426	3.093	2.435	1.871	1.711	1.299	1.230	1.177	0.952	1.028	0.871	0.881	0.779	0.833	0.869	0.951	0.806	0.677	0.783	0.763	0.653	0.691	0.742	0.845	1.038	1.126	1.294	1.228	1.164	0.884	1.034	0.911	0.877	0.899	0.913	0.971	1.174	1.138	1.317	1.420	1.700	1.906	1.919	2.111	2.525	3.172	3.976	4.576	4.390	3.295	2.240	1.637	1.636	1.760	2.513	4.841
315.0	345.4	421.0	436.9	304.2	220.7	203.2	221.4	276.9	335.0	409.7	491.1	591.0	711.6	807.6	380.2	230.0	418.8	1015	2343	6063	495.8	21.30	4.203	3.069	2.322	1.992	1.434	1.290	1.302	1.035	1.042	0.934	0.869	0.929	0.927	0.883	0.946	0.769	0.755	0.658	0.783	0.733	0.637	0.821	0.916	0.969	1.232	1.315	1.285	1.229	0.976	1.077	1.111	1.018	0.909	1.114	1.099	1.325	1.318	1.349	1.476	1.766	1.917	2.189	2.249	2.394	2.688	3.140	3.201	3.838	4.477	4.705	2.839	1.844	1.540	1.596	1.977
320.0	379.0	465.4	498.0	344.8	252.0	221.7	239.7	302.5	352.3	434.4	506.8	566.4	591.2	761.0	634.6	248.0	213.6	304.1	624.8	3995	4126	389.0	9.553	4.032	2.901	1.888	1.701	1.546	1.479	1.142	1.086	0.990	0.914	0.922	0.967	0.824	0.856	0.784	0.647	0.719	0.735	0.749	0.704	0.939	0.922	1.074	1.333	1.357	1.483	1.341	1.153	1.097	1.268	1.080	0.976	1.084	1.197	1.328	1.431	1.520	1.620	1.754	1.942	2.264	2.196	2.483	2.559	2.921	2.672	2.944	3.125	4.552	4.598	3.580	2.020	1.537	1.416
325.0	423.9	554.7	582.1	415.6	276.1	244.6	254.4	315.9	367.3	442.2	523.8	581.1	569.3	603.5	730.7	408.7	198.5	165.4	193.2	1136	4383	3581	57.05	6.003	3.437	2.239	1.819	1.665	1.435	1.183	1.085	0.989	0.929	1.151	0.934	0.916	0.844	0.890	0.838	0.752	0.730	0.789	0.830	0.866	1.060	1.267	1.395	1.721	1.832	1.494	1.296	1.334	1.410	1.159	1.233	1.199	1.351	1.306	1.549	1.536	1.640	1.755	1.926	2.106	2.303	2.374	2.620	2.950	2.822	2.885	2.781	3.176	4.033	4.648	3.543	2.221	1.552
330.0	455.8	653.9	712.9	531.4	350.4	278.6	284.3	324.7	380.9	460.4	544.5	595.0	588.9	554.5	564.5	562.9	344.6	168.5	112.3	309.6	1259	3337	3678	948.5	16.09	3.657	2.460	1.999	1.715	1.234	1.207	1.138	1.003	0.991	1.035	0.980	0.818	0.824	0.862	0.752	0.679	0.825	0.791	0.959	1.093	1.290	1.622	1.975	2.151	1.885	1.618	1.599	1.529	1.293	1.286	1.276	1.352	1.408	1.594	1.647	1.810	1.886	2.016	2.279	2.536	2.549	2.601	2.999	2.805	2.902	2.884	2.920	2.990	3.264	3.417	3.524	3.202
335.0	489.1	713.3	796.7	627.5	417.5	317.3	311.7	338.8	395.4	473.6	559.8	614.5	614.2	567.5	500.0	456.9	518.1	290.6	128.0	147.1	329.7	802.9	2405	4729	398.0	14.94	3.510	2.570	1.679	1.618	1.369	1.341	1.086	1.051	0.993	0.944	0.840	0.770	0.750	0.797	0.736	0.769	0.826	1.007	1.090	1.587	1.817	2.125	2.254	2.280	1.819	1.946	1.753	1.488	1.476	1.379	1.378	1.460	1.593	1.723	1.874	2.023	2.167	2.336	2.649	2.752	2.642	2.760	3.045	2.902	3.191	2.944	2.953	2.716	2.840	2.927	3.226
340.0	465.7	740.5	857.0	669.2	458.7	355.2	327.4	346.1	415.3	479.5	559.2	613.4	614.2	566.8	495.9	406.3	458.2	444.8	181.3	126.6	134.5	222.0	647.3	3420	3347	315.3	6.981	2.995	2.016	1.940	1.551	1.368	1.154	1.037	0.939	0.953	0.974	0.741	0.806	0.734	0.782	0.755	0.979	1.045	1.249	1.549	1.702	2.449	2.462	2.159	2.069	2.141	1.955	1.728	1.524	1.404	1.443	1.615	1.570	1.645	1.921	2.070	2.308	2.464	2.779	2.801	2.890	3.002	3.012	2.758	3.139	2.976	2.875	2.686	2.535	2.382	2.559
345.0	489.7	714.5	857.6	720.8	487.3	378.7	345.4	352.5	409.5	473.6	551.1	603.1	599.9	570.5	495.8	403.2	368.2	449.3	293.8	147.1	105.0	103.8	183.8	1009	3815	2899	47.48	4.608	2.616	2.316	1.617	1.416	1.273	1.197	1.094	0.989	0.735	0.802	0.689	0.788	0.861	0.713	0.856	0.958	1.157	1.449	1.677	2.290	2.483	2.230	2.045	2.253	1.993	1.735	1.547	1.400	1.548	1.619	1.699	1.798	1.904	2.041	2.252	2.414	2.516	2.798	2.739	2.768	2.814	2.925	3.193	2.841	2.924	2.807	2.547	2.394	2.687
350.0	455.1	681.7	833.9	712.8	519.4	405.3	368.7	365.9	414.4	469.3	530.6	578.4	581.6	556.8	490.5	409.8	349.7	348.3	334.5	270.2	132.8	99.49	96.98	265.2	1129	2856	2887	215.0	13.13	2.889	1.930	1.521	1.311	1.190	1.151	0.901	0.872	0.789	0.766	0.827	0.715	0.715	0.797	0.916	1.120	1.348	1.576	2.169	2.205	2.156	2.021	2.298	2.060	1.833	1.613	1.603	1.683	1.728	1.711	1.892	1.865	2.002	2.157	2.223	2.441	2.565	2.824	2.592	2.982	2.935	2.979	2.852	2.760	2.688	2.663	2.354	2.465
355.0	431.2	640.7	780.7	698.9	539.0	435.8	387.4	390.4	427.7	471.3	527.0	555.9	558.1	544.9	490.8	420.3	365.6	321.0	271.5	365.2	236.4	129.7	100.2	113.6	291.4	691.6	2050	3169	348.6	12.57	2.526	2.058	1.457	1.483	1.119	0.924	0.905	0.858	0.765	0.777	0.784	0.762	0.816	0.882	1.168	1.413	1.569	1.955	2.010	2.132	2.009	2.108	2.190	1.844	1.793	1.754	1.695	1.955	1.747	1.855	1.942	2.013	2.112	2.176	2.557	2.470	2.569	2.707	2.735	2.937	3.065	2.807	2.667	2.845	2.739	2.627	2.504
360.0	415.1	612.3	729.4	667.9	553.5	467.6	423.1	420.4	433.9	467.9	514.3	540.4	546.2	533.8	492.8	427.6	377.6	328.0	256.3	325.3	330.0	189.7	118.8	99.27	115.9	191.2	563.0	2729	2945	276.7	5.553	2.492	1.777	1.548	1.243	0.978	0.829	0.897	0.844	0.769	0.739	0.748	0.925	0.914	1.126	1.299	1.507	1.761	1.952	2.039	1.876	2.340	2.205	1.850	1.898	1.722	1.765	1.949	1.862	1.983	2.003	2.151	2.089	2.335	2.420	2.383	2.380	2.659	2.601	2.671	2.844	2.736	2.735	2.744	2.688	2.555	2.655
365.0	386.3	597.8	680.9	664.6	564.4	489.7	449.8	430.0	442.9	472.6	511.3	540.7	536.1	524.4	487.4	434.2	387.5	339.7	266.2	289.7	329.1	289.0	156.6	111.6	90.71	89.53	158.7	844.4	3303	2556	43.76	3.917	2.377	1.844	1.191	1.144	1.005	0.936	0.796	0.755	0.751	0.735	0.820	0.867	1.090	1.313	1.292	1.665	1.914	1.902	1.740	2.371	2.216	1.918	1.980	1.698	1.886	1.902	1.922	2.097	2.110	2.151	2.044	2.248	2.444	2.443	2.542	2.569	2.580	2.693	2.716	2.616	2.781	2.725	2.851	2.725	2.597
370.0	378.9	556.4	674.0	646.5	575.6	510.7	465.5	456.6	459.0	484.9	513.9	530.8	528.2	510.5	483.2	436.8	399.0	360.4	288.8	297.6	279.1	317.7	262.4	154.3	108.8	86.25	83.13	221.6	997.8	2577	2582	195.3	12.02	2.409	1.642	1.384	1.047	1.000	0.889	0.776	0.790	0.755	0.889	0.871	1.014	1.283	1.380	1.709	1.960	1.801	1.843	2.184	2.223	2.017	2.006	1.860	2.086	1.938	1.968	2.136	2.127	2.183	2.248	2.414	2.383	2.386	2.481	2.508	2.608	2.636	2.773	2.722	2.740	2.758	2.652	2.595	2.603
375.0	372.9	533.1	641.4	631.6	585.2	538.1	488.7	469.3	482.8	489.9	516.0	522.5	515.6	503.8	475.6	438.6	408.6	379.7	311.3	319.4	273.8	276.4	312.1	250.2	144.7	106.7	84.80	96.07	254.7	630.5	1914	2860	303.6	11.11	2.325	1.666	1.384	0.988	0.890	0.869	0.864	0.820	0.865	0.927	0.992	1.194	1.240	1.725	1.903	1.667	1.876	2.064	1.965	2.085	2.094	1.985	2.184	2.183	2.101	2.397	2.250	2.308	2.241	2.511	2.469	2.413	2.476	2.232	2.258	2.587	2.847	2.676	2.707	2.846	2.817	2.718	2.694
380.0	344.7	511.3	633.0	644.3	591.9	540.5	504.2	486.3	485.6	502.3	509.9	515.0	516.7	495.5	473.5	439.2	412.3	391.1	323.5	334.9	285.8	272.3	285.7	310.5	201.7	128.9	96.44	80.59	99.70	171.2	532.6	2394	2520	231.8	4.809	2.119	1.596	1.294	0.924	0.981	0.844	0.855	0.799	0.889	1.017	1.145	1.336	1.699	1.682	1.592	1.723	2.157	2.239	2.283	2.174	2.027	2.114	2.106	2.245	2.238	2.213	2.291	2.264	2.348	2.448	2.332	2.494	2.192	2.318	2.572	2.420	2.544	2.712	2.709	2.715	2.568	2.544
385.0	355.2	511.0	614.4	635.2	588.1	559.1	524.2	492.2	485.7	504.7	504.7	510.5	500.1	487.0	464.8	435.0	412.8	391.2	331.5	345.8	299.3	282.3	266.3	297.0	271.7	162.9	114.7	90.46	76.76	75.85	146.3	730.5	2689	2068	36.33	3.329	2.030	1.503	1.134	1.017	0.907	0.843	0.781	0.956	0.914	1.144	1.289	1.514	1.788	1.709	1.668	2.141	2.192	2.389	2.384	2.094	2.198	2.165	2.217	2.288	2.353	2.150	2.162	2.366	2.691	2.370	2.475	2.265	2.544	2.621	2.474	2.490	2.668	2.611	2.684	2.637	2.677
390.0	347.5	498.2	609.9	627.5	600.9	565.9	532.9	506.8	501.4	504.0	508.0	506.2	494.0	479.1	456.1	430.6	412.0	393.9	338.3	356.5	311.6	300.0	275.2	267.4	281.6	242.1	157.1	113.2	89.06	71.95	71.63	189.9	790.0	1916	1895	494.5	10.94	2.025	1.477	1.189	0.986	0.866	0.912	0.981	1.052	1.156	1.269	1.563	1.689	1.637	1.699	2.048	2.298	2.129	2.312	2.038	2.234	2.188	2.271	2.400	2.257	2.352	2.197	2.340	2.423	2.355	2.358	2.319	2.496	2.458	2.482	2.688	2.619	2.592	2.627	2.586	2.604
395.0	370.3	489.0	581.9	616.6	600.3	572.9	539.4	525.2	517.5	503.6	507.5	503.2	489.0	469.8	443.1	425.0	406.2	390.7	338.7	364.4	320.5	309.9	290.9	268.4	253.2	267.1	233.7	150.1	110.7	86.76	69.56	79.82	200.9	462.7	1303	2278	258.7	11.25	2.003	1.351	1.277	0.996	1.078	0.974	1.081	1.200	1.396	1.554	1.617	1.720	1.695	1.894	2.273	2.090	2.300	2.168	2.461	2.392	2.303	2.406	2.289	2.536	2.429	2.439	2.158	2.383	2.412	2.294	2.509	2.494	2.617	2.470	2.530	2.522	2.632	2.357	2.610
400.0	359.3	482.7	571.5	606.7	604.0	581.4	558.7	528.9	518.9	507.9	504.1	504.7	485.6	464.5	437.5	420.6	400.7	386.7	333.4	362.2	322.7	319.2	299.0	277.4	252.5	245.5	267.6	197.8	131.7	103.1	80.33	63.78	76.26	124.7	352.5	1641	1994	212.7	5.197	1.724	1.429	1.096	1.268	1.018	1.081	1.072	1.272	1.463	1.727	1.694	1.801	1.935	2.376	2.002	2.362	2.284	2.274	2.382	2.348	2.386	2.562	2.504	2.312	2.398	2.261	2.356	2.442	2.349	2.225	2.479	2.335	2.459	2.587	2.660	2.489	2.397	2.560
405.0	346.9	475.3	581.3	609.7	588.2	582.3	562.0	531.8	526.9	514.0	503.8	500.7	479.5	464.5	437.2	414.1	393.3	383.6	337.0	362.4	323.8	321.4	306.4	281.0	260.8	240.1	252.6	244.5	165.2	119.8	92.58	69.16	55.45	54.35	96.62	472.7	1810	1688	34.24	3.114	1.500	1.208	1.291	1.028	1.133	1.160	1.350	1.556	1.637	1.743	1.641	2.133	2.304	2.313	2.313	2.235	2.382	2.336	2.377	2.274	2.455	2.353	2.329	2.362	2.327	2.577	2.256	2.421	2.498	2.596	2.277	2.392	2.404	2.614	2.607	2.441	2.615
410.0	355.5	471.8	565.2	609.6	590.0	576.2	561.0	544.2	531.6	517.6	504.9	492.6	473.2	455.6	426.1	401.0	380.3	370.7	323.1	354.3	319.3	319.8	304.9	286.9	269.1	245.0	233.7	241.8	219.8	153.1	110.3	82.14	61.63	46.98	45.72	123.2	507.0	1356	1491	464.1	11.04	1.625	1.428	1.139	1.071	1.355	1.319	1.581	1.659	1.685	1.715	2.081	2.184	2.197	2.250	2.278	2.363	2.450	2.443	2.369	2.411	2.427	2.427	2.430	2.330	2.353	2.281	2.358	2.443	2.416	2.476	2.346	2.247	2.624	2.537	2.413	2.486
