Sample:	'1
File name:	L2025080903¶«¶þÂ·ÇÅ.FD3
Run date:	'12:47:25, 08/10/2025
Operator:	Administrator
Comment:	'

Instrument
Model:	F-2700 FL Spectrophotometer
Serial number:	3064-004
ROM Version:	4J14000 07

Instrument parameters
Measurement type:	3-D scan
Data mode:	Fluorescence
EX  Start WL:	220.0 nm
EX  End WL:	600.0 nm
EX Sampling interval:	5.0 nm
EM  Start WL:	230.0 nm
EM  End WL:	650.0 nm
EM Sampling interval:	5.0 nm
Scan speed:	12000 nm/min
EX Slit:	5.0 nm
EM Slit:	5.0 nm
PMT Voltage:	700 V
Response:	Auto 
Corrected spectra:	Off
Contour interval:	50.000

Peak integration
Integration method:	Rectangular
Sensitivity:	1
Threshold:	1.000

Peaks
No.	ApexEX/EM(nm)	Height(Data)
1	225.0/635.0	31.43
2	230.0/340.0	 1307
3	230.0/590.0	63.75
4	230.0/605.0	57.67
5	235.0/355.0	 1357
6	235.0/570.0	62.84
7	235.0/580.0	64.99
8	235.0/600.0	56.94
9	235.0/615.0	49.10
10	245.0/530.0	263.8
11	250.0/545.0	249.7
12	255.0/280.0	705.5
13	255.0/555.0	224.3
14	260.0/285.0	 1009
15	260.0/565.0	205.8
16	265.0/290.0	 1227
17	265.0/580.0	203.1
18	270.0/295.0	 1761
19	270.0/590.0	189.4
20	275.0/305.0	 2219
21	275.0/375.0	 1978
22	275.0/605.0	189.4
23	280.0/235.0	7.888
24	280.0/310.0	 2129
25	280.0/340.0	 1902
26	280.0/615.0	156.8
27	285.0/315.0	 1981
28	285.0/360.0	 1930
29	285.0/630.0	117.6
30	290.0/645.0	91.84
31	320.0/360.0	 1088
32	335.0/380.0	 1109
33	445.0/525.0	62.88
34	460.0/340.0	6.041
35	505.0/275.0	3.120
36	515.0/280.0	3.949
37	520.0/285.0	4.621
38	530.0/290.0	5.732
39	540.0/295.0	8.005
40	545.0/300.0	9.025
41	550.0/305.0	9.662
42	560.0/310.0	9.685
43	560.0/335.0	8.587
44	565.0/340.0	8.791
45	570.0/315.0	9.856
46	575.0/320.0	10.04
47	580.0/365.0	9.089
48	585.0/325.0	8.093

Data points
	220.0	225.0	230.0	235.0	240.0	245.0	250.0	255.0	260.0	265.0	270.0	275.0	280.0	285.0	290.0	295.0	300.0	305.0	310.0	315.0	320.0	325.0	330.0	335.0	340.0	345.0	350.0	355.0	360.0	365.0	370.0	375.0	380.0	385.0	390.0	395.0	400.0	405.0	410.0	415.0	420.0	425.0	430.0	435.0	440.0	445.0	450.0	455.0	460.0	465.0	470.0	475.0	480.0	485.0	490.0	495.0	500.0	505.0	510.0	515.0	520.0	525.0	530.0	535.0	540.0	545.0	550.0	555.0	560.0	565.0	570.0	575.0	580.0	585.0	590.0	595.0	600.0
230.0	22.37	788.0	 5196	 3088	203.2	9.819	10.53	6.747	7.307	5.788	8.643	5.131	5.641	5.487	4.827	4.178	4.637	3.454	3.413	3.095	3.767	2.916	2.627	2.644	2.669	2.564	2.173	1.925	1.908	1.805	1.420	1.710	1.669	1.505	1.500	1.477	1.086	1.062	0.870	0.883	0.963	0.804	0.927	0.673	0.663	0.719	1.639	7.643	14.75	11.86	5.118	1.137	0.523	0.438	0.320	0.346	0.286	0.297	0.272	0.192	0.226	0.183	0.176	0.215	0.100	0.081	0.093	0.081	0.099	0.017	0.024	-0.009	0.045	-0.004	0.004	0.021	-0.019
235.0	53.45	207.1	 2084	 5470	 4264	385.1	15.58	7.184	7.751	6.919	9.546	6.608	7.888	6.589	4.551	4.977	4.592	3.884	4.189	3.747	3.448	3.089	2.481	2.676	2.495	2.322	1.962	2.362	1.918	2.064	1.581	1.467	1.667	1.539	1.764	1.577	1.140	1.144	0.837	0.743	1.049	0.747	0.836	0.733	0.956	0.656	0.801	2.446	5.291	9.327	13.98	14.29	7.107	1.885	0.375	0.323	0.328	0.247	0.211	0.243	0.260	0.109	0.183	0.263	0.107	0.145	0.072	0.110	0.042	-0.006	-0.046	-0.003	0.048	-0.045	-0.056	0.036	0.020
240.0	51.44	103.1	514.7	 2867	 9373	 4126	246.2	12.20	14.84	7.730	9.886	5.648	7.133	6.560	3.986	4.982	3.324	3.828	3.748	3.296	3.343	3.366	2.485	3.118	2.210	2.748	1.822	2.210	1.828	1.774	1.956	1.788	1.485	1.527	1.334	1.368	1.229	1.297	0.853	0.978	1.111	0.907	0.768	0.731	0.977	0.993	0.894	1.072	1.693	2.905	6.877	17.04	22.34	15.44	5.996	0.727	0.338	0.293	0.243	0.183	0.299	0.183	0.115	0.145	0.165	0.107	0.165	0.006	0.024	0.022	0.003	0.134	-0.033	-0.085	-0.091	0.092	-0.050
245.0	33.91	100.0	172.1	751.2	 6166	 9833	 4223	83.98	18.12	8.631	12.02	5.315	6.745	7.417	5.645	5.889	4.206	4.130	3.743	4.310	4.257	3.163	3.024	3.525	2.399	3.209	2.229	2.038	2.217	2.002	1.497	1.767	1.386	1.462	1.319	1.190	1.380	1.095	0.965	0.754	1.005	1.179	0.731	0.658	0.842	0.891	1.264	1.273	0.886	1.078	1.915	5.311	13.99	25.39	25.71	14.57	4.646	0.623	0.349	0.148	0.272	0.244	0.113	0.163	0.340	0.115	0.189	0.064	0.080	0.106	0.075	0.083	0.021	-0.017	-0.065	0.039	0.012
250.0	24.43	56.55	150.2	255.9	 1592	 5129	9999.9	 5325	283.7	17.88	18.59	10.25	8.398	9.061	7.641	4.852	4.842	5.030	3.750	4.175	4.158	3.401	3.371	2.967	2.854	2.996	2.384	2.396	2.196	2.244	1.768	1.875	1.717	1.612	1.461	1.535	1.160	0.785	1.152	1.042	1.050	0.960	0.821	0.801	0.917	0.891	0.940	1.124	1.126	1.091	0.985	1.617	3.642	7.892	13.97	21.43	32.30	25.38	14.77	4.348	0.798	0.290	0.337	0.136	0.263	0.071	0.166	0.021	0.022	0.081	0.114	0.022	0.033	-0.006	0.002	-0.017	0.059
255.0	33.92	27.85	75.76	246.7	490.5	 1187	 4562	9999.9	9999.9	381.6	29.49	14.00	11.17	10.53	8.999	6.943	5.395	5.873	4.341	4.670	3.784	3.764	3.607	3.359	3.184	3.030	2.800	2.345	2.332	2.536	2.412	2.074	2.011	1.733	1.303	1.128	1.108	1.022	0.960	1.115	0.938	0.807	0.976	0.721	0.880	0.808	0.695	0.701	0.974	0.978	1.631	1.342	1.492	2.155	3.672	5.379	11.05	23.73	44.30	46.28	26.28	5.829	0.686	0.132	0.262	0.115	0.173	-0.001	0.076	0.046	0.056	-0.005	-0.053	0.060	-0.040	0.048	0.006
260.0	26.67	17.92	32.50	137.7	366.2	371.9	 1112	 4993	9999.9	 4391	307.9	22.44	15.40	14.09	11.76	7.976	6.088	5.251	4.299	4.900	4.209	3.886	3.470	3.882	3.050	3.306	2.781	2.807	2.565	3.001	2.282	1.926	2.212	1.926	1.495	1.228	1.063	1.167	0.968	1.032	1.185	0.918	0.883	0.761	0.798	0.729	0.917	0.689	0.645	0.831	0.941	1.548	1.616	1.574	1.212	1.516	2.680	6.448	18.74	43.14	64.03	44.67	20.59	2.218	0.319	0.237	0.179	0.082	0.113	0.205	0.248	0.106	0.031	0.007	0.042	-0.007	0.024
265.0	31.91	27.33	25.03	53.70	264.6	352.1	313.2	 1269	9999.9	9999.9	 3884	144.5	22.01	17.06	12.35	8.831	7.867	5.880	5.615	5.223	4.944	3.901	4.556	3.307	3.264	3.326	2.776	2.605	3.046	2.687	2.342	2.454	2.127	1.861	1.635	1.579	1.253	1.269	1.173	1.380	1.096	0.940	1.050	0.768	0.731	0.847	1.003	0.681	0.653	0.633	0.689	1.026	1.445	1.932	1.586	0.947	1.015	1.817	4.640	12.27	31.91	65.60	84.03	41.25	11.19	0.655	0.215	0.202	0.207	0.115	0.266	0.089	0.084	0.054	0.016	0.041	0.058
270.0	74.48	66.52	54.12	39.72	110.0	302.5	419.2	413.5	 2591	 7112	9999.9	9999.9	216.1	29.87	17.53	11.26	9.409	7.004	6.716	5.789	5.339	4.742	4.618	3.702	3.487	3.872	3.370	3.156	2.932	3.098	2.528	2.531	1.898	2.259	1.690	1.613	1.288	1.375	1.255	1.271	1.269	1.066	1.171	1.126	1.123	1.004	0.992	0.759	0.877	0.722	0.753	0.709	0.760	1.228	1.685	2.006	1.818	1.661	1.687	3.347	7.876	18.38	37.99	62.32	63.14	72.64	26.11	11.45	1.040	0.190	0.230	0.148	0.163	0.098	0.144	0.121	0.052
275.0	166.8	151.0	115.6	84.73	67.64	128.8	399.7	608.0	802.2	 1797	 4787	9999.9	9999.9	285.1	31.75	18.16	11.92	9.557	8.766	6.371	5.968	4.857	4.746	3.814	4.391	4.051	3.809	3.662	3.266	3.489	2.571	2.566	2.231	2.191	1.719	1.972	2.005	1.594	1.426	1.481	1.592	1.395	1.383	1.492	1.474	1.519	1.341	1.052	1.026	1.037	0.821	0.929	0.736	0.685	0.745	1.339	2.211	3.120	2.866	2.082	2.612	4.879	9.386	15.20	20.80	54.18	111.1	128.5	41.11	10.14	0.659	0.436	0.225	0.182	0.239	0.268	0.350
280.0	276.0	225.2	207.3	139.6	95.81	92.70	242.0	705.5	702.7	698.4	 1436	 6257	9999.9	9999.9	187.3	27.36	17.60	11.08	10.27	8.056	7.132	5.291	5.643	4.200	4.949	3.944	3.773	3.756	2.906	3.759	3.101	2.552	2.553	2.327	2.333	1.792	2.235	1.759	2.159	1.777	1.920	1.923	2.266	2.030	2.125	2.068	1.895	1.563	1.363	1.246	0.891	0.954	0.823	0.659	0.848	1.183	1.702	2.429	3.702	3.949	2.531	2.773	3.383	5.060	6.234	14.35	39.52	97.77	146.9	56.85	30.88	3.219	0.383	0.319	0.368	0.239	0.279
285.0	312.5	335.5	320.5	212.6	135.7	110.1	177.0	469.6	 1009	661.3	768.7	 1873	 8956	9999.9	 2227	113.8	25.15	16.11	13.43	9.366	7.791	6.927	5.178	5.086	4.625	4.631	4.107	4.425	3.788	3.788	2.903	2.812	2.731	2.450	1.902	2.496	2.693	2.363	2.580	2.276	2.262	2.337	2.371	2.825	2.426	2.458	2.232	2.178	1.835	1.575	1.159	1.396	0.915	0.766	0.807	1.042	1.369	1.576	2.273	3.699	4.621	3.674	2.686	3.139	3.251	4.988	10.67	25.95	64.94	126.0	177.0	49.61	17.27	1.116	0.314	0.246	0.216
290.0	384.5	467.5	474.8	375.1	237.4	177.6	216.0	355.2	775.7	 1227	 1043	 1075	 2669	 9014	9999.9	9999.9	626.3	28.16	17.51	12.71	9.306	8.684	6.563	5.723	5.742	5.587	4.660	4.276	4.169	3.779	3.104	3.140	2.704	2.372	2.291	2.533	2.858	2.876	2.723	2.529	2.638	2.703	2.899	2.890	2.899	2.904	2.784	2.725	2.408	2.167	1.659	1.636	1.341	1.078	1.167	1.340	1.428	1.648	1.969	2.498	3.913	5.052	5.732	5.549	4.246	3.898	5.151	8.692	16.74	34.40	73.27	102.5	139.7	114.3	30.60	13.40	1.157
295.0	422.8	524.6	631.9	522.6	315.9	245.8	265.1	387.0	621.9	 1053	 1761	 1331	 1411	 2551	 3989	9999.9	9999.9	172.9	28.67	18.53	12.76	10.53	7.972	7.268	6.278	7.130	4.833	4.589	4.318	4.335	3.284	3.362	2.766	2.962	2.600	2.669	2.932	3.256	2.756	3.000	2.746	2.460	2.971	2.853	3.421	3.263	3.518	3.404	2.791	2.797	2.325	2.334	1.686	1.572	1.400	1.501	1.762	1.779	2.228	2.069	2.867	3.966	4.691	7.057	8.005	6.108	4.985	5.681	7.267	10.53	18.71	24.88	38.61	78.67	172.1	201.8	48.66
300.0	454.0	567.8	683.4	592.6	367.1	297.2	321.2	444.7	660.8	954.5	 1695	 1987	 1344	 1259	 1285	 5271	9999.9	9999.9	132.3	25.50	18.08	14.24	9.163	8.228	7.528	6.810	5.281	4.563	4.281	4.694	3.498	3.911	3.298	3.293	2.788	3.267	3.467	3.273	3.223	2.772	2.998	2.897	2.778	3.005	2.847	3.139	3.111	3.404	3.030	3.218	2.486	2.408	1.910	1.770	1.571	1.789	1.814	1.869	2.321	2.121	2.635	3.934	4.547	4.891	7.651	9.025	7.837	5.967	5.972	5.998	7.181	7.766	10.37	19.98	56.68	148.6	225.5
305.0	459.7	591.5	744.3	635.0	432.0	345.4	371.1	491.5	700.5	999.8	 1471	 2219	 1784	 1109	786.1	 1489	 8539	9999.9	 7714	93.22	24.00	16.01	11.84	9.676	8.347	7.452	5.668	5.753	5.261	5.251	4.434	3.254	3.823	3.557	3.156	3.146	3.437	2.920	2.927	2.997	3.225	2.803	2.658	2.996	3.351	3.754	3.094	3.677	3.804	3.107	2.479	2.680	2.453	1.722	1.864	2.028	1.958	2.581	2.665	2.582	3.386	3.883	4.212	4.875	6.355	7.747	9.662	9.320	7.647	5.478	4.909	4.685	4.235	6.404	14.35	38.58	97.70
310.0	447.1	616.0	736.1	638.6	471.9	395.3	434.6	561.3	768.1	 1028	 1408	 1823	 2129	 1579	843.1	694.2	 2212	 8293	9999.9	9999.9	492.2	29.05	17.91	13.54	10.01	9.091	7.061	7.028	5.505	5.389	4.897	4.130	3.737	3.167	3.087	3.146	3.191	3.176	3.081	3.214	2.907	3.065	3.048	2.959	3.201	3.703	3.482	3.843	3.588	3.172	2.672	2.712	2.345	2.179	2.150	2.185	2.357	2.637	2.741	3.049	3.467	4.224	4.462	5.338	6.180	6.641	8.070	8.702	9.685	8.897	6.232	4.642	3.988	3.698	4.990	10.20	23.45
315.0	434.5	634.8	789.8	660.2	495.9	442.2	492.4	624.2	798.8	 1054	 1403	 1676	 1805	 1981	 1276	645.6	803.0	 2061	 3887	9999.9	9999.9	128.6	28.78	19.08	13.56	10.96	8.597	7.457	6.774	6.867	4.788	4.511	3.952	3.893	3.288	3.190	3.019	3.568	3.575	3.164	2.714	3.079	3.226	3.124	3.078	3.291	3.773	3.823	3.680	3.178	2.525	3.042	2.585	2.245	2.037	2.342	2.351	2.754	3.108	3.566	4.160	4.156	4.630	5.737	6.356	6.688	7.264	7.441	7.602	8.190	9.856	8.291	4.961	4.231	3.416	4.494	7.275
320.0	443.5	689.0	881.1	736.7	539.2	457.3	503.0	642.9	840.7	 1120	 1435	 1685	 1758	 1806	 1730	861.9	570.0	727.6	 1071	 5828	9999.9	 7815	101.0	24.24	17.45	13.83	9.698	7.959	7.069	6.836	5.195	4.473	4.427	3.984	3.269	3.364	3.028	3.953	3.480	3.170	2.885	2.832	3.535	3.199	3.211	3.743	4.268	3.890	3.828	3.472	2.611	2.976	2.506	2.370	2.629	2.664	2.783	2.961	3.232	3.665	3.912	4.781	4.943	5.828	6.546	6.611	6.866	7.563	7.186	7.306	8.520	10.04	7.714	5.557	3.843	3.427	3.731
325.0	432.3	766.6	 1024	899.9	634.9	496.0	558.8	684.0	855.6	 1150	 1487	 1738	 1776	 1715	 1716	 1295	642.9	495.5	473.3	 1523	 9907	9999.9	 6285	74.02	23.48	18.32	12.19	9.339	8.266	6.963	6.517	4.750	5.191	4.382	3.610	3.514	3.448	3.568	3.516	3.125	2.691	3.305	3.411	3.147	3.730	3.854	3.768	4.491	4.492	3.891	3.293	3.066	3.161	2.684	3.016	2.428	2.710	3.239	3.453	3.718	4.226	4.488	4.886	5.701	6.426	6.888	6.895	7.324	7.160	7.920	7.811	8.058	7.749	8.093	5.922	4.093	3.405
330.0	463.4	812.4	 1171	 1095	779.1	597.5	604.1	727.9	899.0	 1167	 1476	 1732	 1842	 1743	 1536	 1407	 1049	591.9	419.3	568.8	 2490	 9245	9999.9	9999.9	399.9	29.47	17.69	13.17	10.01	8.630	6.820	6.004	5.386	4.325	4.211	3.775	3.680	3.847	3.601	3.663	2.897	3.158	3.418	3.482	3.559	4.357	4.491	5.100	4.912	4.152	3.773	3.918	3.373	3.235	2.860	2.669	2.837	3.580	3.627	3.665	4.243	4.732	5.143	5.649	6.081	7.016	7.123	7.155	7.900	7.867	7.620	7.507	7.161	7.508	7.376	6.215	5.503
335.0	496.1	849.9	 1209	 1219	915.5	728.4	670.2	758.4	960.0	 1195	 1500	 1734	 1878	 1805	 1554	 1264	 1207	945.3	517.7	428.5	788.9	 2244	 4452	9999.9	9999.9	105.1	26.94	17.64	13.86	10.22	8.568	7.599	6.435	5.144	4.235	4.101	4.008	4.052	3.755	3.251	3.412	3.342	3.393	3.656	3.906	4.522	4.804	5.298	5.568	4.711	4.261	4.342	3.725	3.533	3.191	3.482	3.517	3.637	3.885	4.083	5.039	5.031	5.529	5.807	6.422	6.865	7.525	7.415	8.587	8.185	7.452	7.834	7.990	6.691	6.515	6.013	7.014
340.0	494.8	902.8	 1307	 1302	 1025	850.7	766.2	853.6	 1033	 1250	 1535	 1768	 1902	 1844	 1615	 1288	 1108	 1145	746.9	475.0	471.2	734.6	 1198	 7163	9999.9	 6387	85.85	25.06	16.97	13.01	10.08	8.266	6.609	5.649	4.290	4.410	3.670	3.931	3.478	3.264	3.409	3.145	3.484	3.551	3.750	4.363	5.099	5.429	6.041	4.961	4.476	4.737	4.477	3.857	3.776	3.994	3.998	4.095	3.911	4.213	4.949	5.390	5.394	6.413	6.737	7.130	7.516	7.957	8.281	8.791	8.100	8.011	7.984	6.920	6.371	6.016	5.737
345.0	447.0	834.1	 1261	 1316	 1148	938.7	901.0	949.6	 1066	 1296	 1533	 1756	 1892	 1880	 1650	 1340	 1076	 1061	 1024	606.1	463.6	454.2	487.2	 1867	9999.9	9999.9	 5316	67.69	24.09	16.93	12.21	9.379	7.007	5.994	4.701	4.533	4.187	3.893	3.378	3.377	3.196	3.588	3.621	3.653	3.836	4.666	4.531	5.482	5.821	5.281	4.713	5.454	4.751	4.210	4.121	4.122	4.052	4.413	4.373	4.416	4.822	5.398	5.744	6.602	7.226	6.856	7.407	7.616	8.419	8.757	8.606	8.203	7.848	7.427	6.703	6.061	6.394
350.0	444.8	815.5	 1240	 1338	 1235	 1125	 1054	 1092	 1203	 1391	 1601	 1780	 1894	 1892	 1697	 1419	 1151	 1007	 1041	926.1	633.4	491.1	425.2	659.7	 2592	9999.9	9999.9	9999.9	349.0	26.51	17.72	12.54	8.657	7.728	5.605	5.113	4.433	4.403	3.631	3.503	3.704	3.432	3.544	3.525	3.871	4.504	4.598	5.556	5.705	5.235	4.874	5.457	5.039	4.594	4.701	4.508	4.674	4.747	4.913	4.908	5.569	6.006	6.310	6.397	6.736	7.034	7.477	7.634	8.224	8.728	8.268	8.291	8.032	7.656	7.165	6.715	6.572
355.0	435.9	780.8	 1186	 1357	 1343	 1294	 1292	 1276	 1377	 1577	 1703	 1843	 1926	 1900	 1734	 1499	 1250	 1079	 1007	 1009	959.6	647.4	500.0	478.9	828.3	 2425	 5369	9999.9	9999.9	93.05	26.20	17.62	12.15	9.292	6.681	5.914	4.957	4.646	4.115	3.538	3.799	3.170	3.529	3.571	3.461	4.151	4.906	4.988	5.329	5.011	5.109	5.331	5.842	5.458	5.260	5.349	5.692	5.767	5.781	5.430	5.997	6.535	7.152	6.997	7.241	7.028	7.369	7.904	7.636	8.683	8.906	8.545	8.378	8.318	7.863	7.265	6.653
360.0	453.9	751.4	 1090	 1315	 1400	 1394	 1396	 1412	 1543	 1663	 1780	 1884	 1928	 1930	 1777	 1551	 1311	 1154	 1045	983.6	 1088	875.9	604.8	500.5	494.0	764.3	 1406	 8880	9999.9	 5686	75.21	23.60	15.37	10.67	7.866	6.755	5.290	4.609	4.186	4.098	3.563	3.580	3.896	3.426	3.826	4.167	4.395	4.972	5.501	5.443	5.335	5.872	6.057	5.720	5.412	5.613	5.725	6.101	6.032	5.864	6.756	6.972	7.407	7.594	7.544	7.231	7.776	8.042	8.326	8.336	8.982	8.806	8.992	8.596	8.037	7.597	7.231
365.0	432.3	695.6	 1088	 1316	 1440	 1461	 1469	 1492	 1594	 1750	 1844	 1932	 1952	 1909	 1788	 1585	 1392	 1224	 1122	 1019	 1053	 1068	753.4	574.9	473.9	445.7	507.7	 2290	9999.9	9999.9	 4692	56.40	21.17	14.30	9.481	6.982	5.687	5.510	5.046	4.402	3.908	4.084	3.770	3.779	3.991	4.600	4.349	5.397	5.363	5.275	4.759	5.961	5.896	5.919	5.767	5.496	6.171	5.993	6.188	6.332	7.049	6.791	7.572	7.898	7.827	7.890	8.086	7.827	8.115	8.361	8.234	8.993	9.089	8.536	8.320	7.665	7.648
370.0	419.6	663.5	 1034	 1319	 1463	 1529	 1544	 1570	 1687	 1814	 1890	 1944	 1948	 1894	 1795	 1609	 1436	 1298	 1208	 1110	 1058	 1073	 1024	756.8	576.2	463.5	382.3	705.1	 2684	9999.9	9999.9	9999.9	281.7	21.65	14.05	9.871	7.186	5.993	5.264	4.759	4.314	3.887	3.908	4.041	4.089	4.161	4.072	4.990	5.203	4.929	4.828	5.483	5.979	6.387	6.328	6.311	6.749	6.421	6.768	6.896	7.599	7.134	7.814	7.893	8.029	7.733	8.123	8.622	8.474	8.297	8.595	8.888	8.580	8.803	8.272	7.884	8.202
375.0	407.6	659.9	981.4	 1269	 1429	 1562	 1596	 1613	 1746	 1839	 1911	 1978	 1965	 1860	 1778	 1614	 1472	 1378	 1284	 1201	 1133	 1083	 1080	 1030	754.0	579.5	457.0	427.1	783.6	 2383	 6649	9999.9	9999.9	72.76	21.88	13.26	9.932	7.450	5.846	5.108	4.593	4.351	3.975	4.162	3.745	4.254	3.966	4.747	5.152	4.567	4.897	5.779	5.945	6.458	6.551	6.574	7.012	7.158	7.474	7.547	7.650	7.967	7.699	8.046	8.422	8.252	7.877	8.411	8.344	8.501	8.269	8.716	8.542	8.615	8.652	8.074	7.907
380.0	421.5	604.7	969.8	 1260	 1469	 1628	 1610	 1675	 1773	 1883	 1904	 1963	 1921	 1862	 1746	 1610	 1477	 1392	 1330	 1266	 1199	 1128	 1076	 1109	956.3	690.3	536.5	425.2	409.9	695.5	 1685	9999.9	9999.9	 4558	57.67	18.80	12.87	9.756	7.345	5.433	4.492	5.070	4.162	4.556	4.166	3.797	4.144	4.582	4.794	4.760	4.917	6.131	5.980	6.683	6.337	6.673	7.409	7.606	7.318	7.138	7.475	7.882	7.446	7.425	7.845	8.298	8.146	8.396	8.358	8.192	8.487	8.219	7.850	8.377	7.867	7.841	8.136
385.0	424.5	562.1	954.7	 1213	 1469	 1587	 1614	 1676	 1748	 1853	 1899	 1911	 1911	 1830	 1723	 1594	 1494	 1403	 1359	 1295	 1243	 1175	 1102	 1085	 1096	832.0	611.3	479.9	375.6	357.2	523.1	 2606	9999.9	9999.9	 3581	42.09	16.90	12.29	8.067	6.365	5.334	5.403	4.422	4.825	3.914	4.251	3.841	4.980	4.632	4.461	5.141	5.954	6.289	6.614	6.459	7.339	6.658	7.308	6.550	6.829	7.177	7.904	7.861	7.496	7.673	8.206	8.230	8.262	8.047	8.698	8.554	8.411	7.831	8.540	8.044	7.885	8.224
390.0	411.5	578.0	868.0	 1167	 1398	 1561	 1591	 1659	 1705	 1813	 1867	 1852	 1851	 1768	 1674	 1558	 1465	 1403	 1365	 1313	 1277	 1221	 1145	 1080	 1068	992.0	759.0	563.6	432.6	344.6	307.2	719.9	 2759	9999.9	9999.9	9999.9	212.8	18.07	11.27	8.723	6.944	5.575	4.840	4.689	4.250	4.303	3.916	4.537	5.045	4.439	4.551	6.057	6.158	6.201	6.444	6.519	7.044	7.475	7.107	7.138	7.317	6.987	7.532	8.021	7.873	7.382	8.221	8.048	8.086	8.121	7.972	8.607	8.522	8.139	8.072	8.024	8.665
395.0	397.1	563.9	843.3	 1061	 1344	 1505	 1580	 1618	 1688	 1750	 1791	 1827	 1808	 1716	 1624	 1529	 1458	 1401	 1358	 1325	 1288	 1235	 1173	 1112	 1049	 1006	941.9	693.5	515.5	401.0	315.9	338.9	741.7	 2346	 6620	9999.9	9999.9	59.94	16.28	12.11	8.780	7.034	5.804	4.936	5.177	4.634	3.891	4.099	5.145	4.410	4.873	6.025	6.053	6.330	6.310	6.542	7.017	7.275	7.269	6.860	6.747	7.006	7.978	7.602	7.364	8.107	7.667	8.094	7.902	8.266	7.727	7.841	7.973	8.628	8.264	8.107	8.872
400.0	400.9	566.0	795.5	 1060	 1333	 1531	 1560	 1610	 1652	 1695	 1753	 1750	 1729	 1661	 1585	 1499	 1433	 1371	 1346	 1318	 1276	 1245	 1188	 1130	 1064	982.3	976.5	831.5	592.8	457.5	358.6	288.9	318.4	634.9	 1658	9999.9	9999.9	 3734	45.98	15.18	10.41	8.228	6.514	5.837	5.073	4.349	4.328	4.784	5.050	4.599	4.728	5.766	5.857	6.125	6.524	6.274	6.817	6.864	6.960	6.810	6.982	7.183	6.815	7.269	7.047	7.735	7.500	7.468	7.394	8.316	7.689	7.705	7.813	7.744	8.453	8.183	8.224
405.0	388.1	536.4	773.5	 1048	 1243	 1469	 1550	 1604	 1653	 1654	 1706	 1696	 1669	 1597	 1539	 1445	 1389	 1351	 1323	 1298	 1270	 1231	 1185	 1131	 1081	985.7	935.3	911.2	702.5	523.9	405.1	310.1	253.8	273.3	469.8	 2621	9999.9	9999.9	 2860	34.25	13.09	9.362	7.724	6.389	5.511	4.670	4.562	4.481	4.559	4.802	5.055	5.720	5.595	6.298	6.248	5.915	6.786	6.787	6.523	6.525	7.165	7.169	6.316	6.750	7.160	7.321	6.683	7.176	7.417	7.353	7.482	7.171	7.296	7.466	8.264	7.738	8.569
410.0	356.2	517.1	731.6	963.6	 1178	 1373	 1496	 1561	 1612	 1616	 1648	 1629	 1592	 1534	 1463	 1376	 1323	 1302	 1278	 1262	 1234	 1209	 1168	 1114	 1078	992.6	923.5	876.0	815.8	636.4	470.2	365.0	278.1	227.3	227.3	676.2	 2709	9999.9	9999.9	 7999	40.75	13.96	9.510	7.203	6.063	5.326	4.618	4.743	4.848	4.404	4.833	5.406	5.444	5.488	5.805	5.745	6.397	6.795	6.365	6.593	7.262	7.058	6.673	6.997	7.156	6.706	6.972	6.656	6.904	7.312	6.959	7.118	7.116	7.627	7.358	7.165	8.089
