Sample:	'1
File name:	t2025022706¶þ²ã³Ø6  2000±¶.FD3
Run date:	'13:14:21, 02/28/2025
Operator:	Administrator
Comment:	'

Instrument
Model:	F-2700 FL Spectrophotometer
Serial number:	23B8-004
ROM Version:	4J14000 07

Instrument parameters
Measurement type:	3-D scan
Data mode:	Fluorescence
EX  Start WL:	220.0 nm
EX  End WL:	600.0 nm
EX Sampling interval:	5.0 nm
EM  Start WL:	230.0 nm
EM  End WL:	650.0 nm
EM Sampling interval:	5.0 nm
Scan speed:	12000 nm/min
EX Slit:	5.0 nm
EM Slit:	5.0 nm
PMT Voltage:	700 V
Response:	Auto 
Corrected spectra:	Off
Contour interval:	50.000

Peak integration
Integration method:	Rectangular
Sensitivity:	1
Threshold:	1.000

Peaks
No.	ApexEX/EM(nm)	Height(Data)
1	225.0/490.0	215.2
2	230.0/250.0	262.9
3	230.0/425.0	303.7
4	230.0/500.0	195.8
5	235.0/255.0	317.8
6	235.0/415.0	305.0
7	235.0/515.0	151.7
8	240.0/265.0	399.2
9	240.0/525.0	140.0
10	245.0/270.0	451.9
11	245.0/540.0	126.8
12	250.0/550.0	121.3
13	265.0/585.0	481.2
14	270.0/300.0	6415
15	270.0/405.0	133.5
16	270.0/595.0	483.8
17	300.0/335.0	337.7
18	305.0/345.0	274.0
19	310.0/350.0	206.5
20	315.0/355.0	189.3
21	315.0/410.0	101.4
22	320.0/360.0	170.7
23	325.0/370.0	145.2
24	330.0/375.0	141.7
25	335.0/380.0	150.1
26	340.0/385.0	126.6
27	345.0/395.0	120.7
28	350.0/400.0	131.0
29	355.0/405.0	123.4
30	365.0/420.0	103.5
31	370.0/425.0	93.16
32	380.0/440.0	58.28
33	385.0/445.0	48.08
34	390.0/305.0	14.87
35	390.0/450.0	37.23
36	395.0/460.0	34.26
37	400.0/465.0	30.77
38	405.0/470.0	23.79
39	410.0/480.0	21.45
40	415.0/485.0	21.08
41	420.0/490.0	17.44
42	425.0/500.0	15.30
43	430.0/505.0	12.69
44	435.0/300.0	10.94
45	440.0/520.0	9.863
46	445.0/525.0	8.591
47	455.0/540.0	5.505
48	465.0/555.0	3.204
49	470.0/560.0	2.991
50	480.0/575.0	1.892
51	485.0/580.0	1.993
52	535.0/270.0	20.54
53	540.0/300.0	31.43
54	540.0/590.0	3.094
55	550.0/305.0	28.52

Data points
	220.0	225.0	230.0	235.0	240.0	245.0	250.0	255.0	260.0	265.0	270.0	275.0	280.0	285.0	290.0	295.0	300.0	305.0	310.0	315.0	320.0	325.0	330.0	335.0	340.0	345.0	350.0	355.0	360.0	365.0	370.0	375.0	380.0	385.0	390.0	395.0	400.0	405.0	410.0	415.0	420.0	425.0	430.0	435.0	440.0	445.0	450.0	455.0	460.0	465.0	470.0	475.0	480.0	485.0	490.0	495.0	500.0	505.0	510.0	515.0	520.0	525.0	530.0	535.0	540.0	545.0	550.0	555.0	560.0	565.0	570.0	575.0	580.0	585.0	590.0	595.0	600.0
230.0	88.19	682.2	1535	501.0	28.34	9.505	8.338	6.889	6.165	5.907	5.759	4.871	3.752	2.847	2.366	2.058	1.699	1.576	1.462	1.465	1.228	1.162	1.088	1.064	0.974	0.964	0.883	0.966	0.888	0.962	0.834	0.813	0.731	0.697	0.718	0.685	0.624	0.676	0.642	0.622	0.757	1.018	0.955	0.757	0.584	0.571	1.114	3.603	5.793	3.796	1.508	0.619	0.431	0.479	0.455	0.464	0.466	0.503	0.479	0.477	0.524	0.491	0.525	0.510	0.492	0.532	0.484	0.486	0.501	0.553	0.539	0.515	0.538	0.515	0.564	0.560	0.557
235.0	184.5	220.8	901.9	1510	436.7	30.51	8.909	7.314	6.060	5.797	5.471	4.718	4.090	2.826	2.366	1.942	1.819	1.528	1.452	1.510	1.442	1.140	1.057	1.138	0.889	1.061	0.914	0.858	0.913	0.890	0.879	0.776	0.766	0.688	0.709	0.658	0.627	0.695	0.578	0.558	0.630	0.735	0.880	1.052	0.871	0.666	0.622	1.240	2.412	3.704	5.159	5.894	2.367	0.892	0.513	0.463	0.476	0.485	0.460	0.516	0.494	0.459	0.557	0.452	0.462	0.499	0.529	0.526	0.531	0.486	0.540	0.531	0.502	0.557	0.545	0.508	0.543
240.0	255.0	174.3	286.5	1282	1586	312.1	17.83	7.257	6.484	6.189	5.920	4.960	3.914	2.796	2.392	2.148	1.762	1.766	1.406	1.390	1.238	1.207	1.205	0.967	0.891	0.974	1.034	0.930	0.947	0.896	0.817	0.853	0.752	0.714	0.732	0.617	0.634	0.647	0.584	0.621	0.545	0.647	0.644	0.835	1.046	1.094	0.757	0.691	0.917	1.359	2.977	8.145	7.637	5.361	2.136	0.552	0.475	0.474	0.502	0.541	0.529	0.449	0.546	0.518	0.494	0.518	0.530	0.470	0.540	0.474	0.542	0.510	0.601	0.590	0.540	0.607	0.527
245.0	188.4	272.4	144.4	456.4	1732	1397	228.9	9.306	7.568	6.823	6.497	5.518	4.327	2.921	2.322	2.254	1.976	1.690	1.390	1.466	1.216	1.243	1.148	1.047	1.078	1.034	1.021	1.069	0.926	0.952	0.745	0.848	0.824	0.704	0.736	0.633	0.610	0.658	0.592	0.641	0.552	0.617	0.569	0.698	0.716	1.110	1.007	0.967	0.765	0.670	1.068	3.072	5.746	10.01	9.937	4.698	1.140	0.501	0.472	0.499	0.498	0.514	0.546	0.509	0.561	0.550	0.526	0.511	0.513	0.511	0.512	0.541	0.558	0.553	0.516	0.593	0.587
250.0	89.16	205.3	262.9	197.7	585.0	1503	2025	555.9	33.92	7.788	7.466	5.523	4.867	2.918	2.694	2.293	1.931	1.647	1.509	1.513	1.321	1.281	1.193	1.079	1.098	0.988	0.952	0.952	0.951	0.925	0.881	0.847	0.801	0.761	0.761	0.661	0.640	0.689	0.606	0.604	0.617	0.594	0.569	0.605	0.579	0.681	0.746	1.122	1.285	0.971	0.775	1.147	1.744	3.773	6.732	9.826	10.07	9.861	4.420	1.268	0.578	0.553	0.538	0.528	0.528	0.573	0.545	0.547	0.552	0.551	0.570	0.547	0.532	0.554	0.559	0.592	0.629
255.0	62.14	79.09	201.2	317.8	220.0	417.3	1788	2541	274.4	24.75	8.890	6.667	5.277	3.380	2.766	2.397	2.104	1.649	1.721	1.526	1.410	1.327	1.122	1.029	1.061	0.933	0.953	0.936	0.912	0.870	0.939	0.836	0.771	0.844	0.769	0.628	0.665	0.612	0.571	0.624	0.574	0.559	0.572	0.559	0.547	0.549	0.520	0.750	0.828	1.047	1.370	1.532	0.948	1.354	1.942	2.835	4.689	11.83	17.12	13.90	7.614	1.226	0.601	0.567	0.564	0.560	0.594	0.523	0.548	0.519	0.582	0.564	0.532	0.557	0.505	0.571	0.587
260.0	55.58	46.40	83.96	305.9	304.2	158.9	594.2	2435	2192	207.6	16.12	7.664	5.804	3.356	2.863	2.420	2.032	1.565	1.718	1.798	1.199	1.387	1.110	1.218	1.103	1.058	0.942	0.967	0.901	0.965	0.968	0.840	0.778	0.902	0.740	0.691	0.596	0.760	0.634	0.614	0.595	0.662	0.591	0.600	0.570	0.570	0.567	0.552	0.610	0.679	1.001	1.926	1.838	1.318	0.950	1.110	1.559	3.761	8.783	15.96	26.10	13.01	5.535	0.962	0.569	0.528	0.557	0.532	0.665	0.564	0.596	0.634	0.483	0.579	0.557	0.540	0.556
265.0	55.15	40.80	42.45	159.5	399.2	246.6	197.9	922.5	3913	1800	155.2	9.559	7.305	4.190	3.280	2.811	2.380	1.946	1.630	1.798	1.384	1.364	1.322	1.199	1.097	1.089	0.911	0.980	0.923	1.043	0.844	0.855	0.752	0.845	0.780	0.706	0.624	0.674	0.737	0.701	0.567	0.668	0.621	0.624	0.529	0.618	0.479	0.507	0.522	0.501	0.580	1.182	2.071	2.249	1.511	0.953	0.888	1.482	2.577	5.644	17.25	22.40	27.48	11.82	2.499	0.699	0.580	0.513	0.656	0.574	0.592	0.534	0.526	0.548	0.594	0.541	0.540
270.0	86.47	58.27	39.32	71.21	239.0	451.9	296.2	289.4	1426	2773	3535	555.9	31.82	5.488	3.771	3.135	2.294	2.100	1.979	1.825	1.570	1.341	1.343	1.301	1.117	1.064	1.112	1.042	1.007	1.081	0.944	0.915	0.935	0.774	0.863	0.829	0.682	0.664	0.731	0.756	0.640	0.687	0.644	0.654	0.661	0.619	0.509	0.555	0.523	0.482	0.464	0.723	1.098	1.705	2.259	2.510	2.084	1.358	1.300	1.934	4.733	7.408	15.62	20.54	20.32	16.78	8.736	2.251	0.771	0.595	0.562	0.569	0.527	0.677	0.565	0.580	0.585
275.0	319.9	203.7	107.3	93.51	153.2	317.3	621.7	353.1	525.0	996.5	3684	4215	851.9	22.52	6.171	4.073	2.720	2.576	2.377	1.934	1.655	1.468	1.523	1.470	1.206	1.160	1.146	1.084	1.062	1.173	0.988	1.167	1.255	1.465	1.438	1.245	1.082	1.072	1.042	1.080	1.086	1.136	1.123	1.100	1.242	0.901	0.828	0.868	0.677	0.603	0.585	0.684	0.886	1.046	1.333	1.904	3.254	3.848	2.605	1.680	2.283	3.064	4.921	6.579	8.486	16.49	27.42	24.55	12.89	2.464	0.766	0.644	0.638	0.653	0.568	0.577	0.621
280.0	1012	629.7	366.9	252.0	227.4	302.7	648.8	973.2	887.7	1181	2114	4511	6322	126.5	12.12	5.111	3.532	3.243	2.507	2.464	1.946	1.688	1.764	1.460	1.281	1.333	1.141	1.178	1.074	1.120	1.032	1.506	2.392	3.215	3.361	2.509	2.387	2.074	1.923	2.058	2.179	2.286	2.549	2.484	2.630	2.064	1.728	1.679	1.261	1.063	0.954	1.100	1.295	1.206	1.337	1.634	2.617	4.224	5.350	5.040	4.065	4.300	5.445	6.267	7.250	8.932	15.12	24.93	32.92	22.73	8.282	1.585	0.803	0.668	0.662	0.738	0.639
285.0	2086	1309	807.2	563.7	412.7	411.9	699.2	1439	1910	2030	2605	3106	8168	2588	83.23	7.270	4.778	3.815	3.404	2.778	1.941	1.886	1.677	1.658	1.427	1.262	1.319	1.151	1.254	1.165	1.163	2.200	4.254	6.117	6.189	4.631	4.384	3.800	3.507	3.725	3.890	4.436	4.387	4.630	4.739	4.239	3.349	3.187	2.370	2.150	1.892	2.019	1.892	1.843	1.906	2.048	2.873	3.968	5.708	8.154	9.098	8.895	9.779	11.59	12.50	11.98	13.04	14.89	22.20	29.66	30.50	20.48	4.634	1.047	0.773	0.804	0.802
290.0	3581	2316	1490	1017	709.2	616.1	954.2	1780	3110	4081	4256	3618	3671	3327	2599	323.6	13.03	4.820	4.052	3.518	2.537	2.329	1.874	1.748	1.466	1.400	1.330	1.283	1.248	1.254	1.540	3.270	7.037	10.13	10.30	8.262	7.133	6.399	5.919	6.128	6.560	7.061	7.520	7.674	7.613	6.939	5.760	5.336	4.387	3.675	3.442	3.633	2.875	2.694	2.658	2.937	3.947	5.039	6.914	9.221	12.46	15.88	18.68	20.11	21.10	19.81	19.22	17.91	15.81	13.62	15.95	23.33	23.69	19.75	11.20	4.988	1.257
295.0	4802	3303	2134	1482	950.9	774.0	1146	2083	3548	5379	5850	4578	2454	1231	2732	3401	89.79	8.890	5.217	4.524	2.742	2.602	1.952	1.850	1.557	1.566	1.429	1.569	1.470	1.371	1.614	3.948	8.853	13.32	13.33	10.65	9.575	8.744	8.240	7.836	8.429	9.195	9.753	9.813	9.873	9.311	7.853	7.262	6.139	4.922	4.708	4.649	3.954	3.508	3.154	3.609	4.690	5.966	8.257	10.73	13.97	17.90	22.13	26.90	30.04	26.75	23.98	22.40	17.17	10.60	7.969	8.169	8.215	12.47	23.17	32.55	16.27
300.0	5075	3584	2343	1660	1031	822.4	1183	2143	3641	5372	6415	5032	2307	783.3	944.6	3142	3106	69.47	7.036	5.532	3.279	2.795	2.305	2.016	1.758	1.732	1.497	1.485	1.454	1.719	1.845	4.313	9.334	14.14	14.72	12.24	10.84	9.403	8.566	8.700	8.639	10.07	10.65	10.94	10.22	9.906	8.494	8.124	6.542	5.603	5.156	5.183	4.478	3.428	3.365	3.687	5.019	6.140	8.815	11.35	14.81	18.59	22.11	26.65	31.43	31.21	28.11	24.22	18.08	10.97	6.832	5.233	3.992	4.612	8.520	20.16	28.13
305.0	4979	3549	2348	1641	1020	789.7	1143	2043	3438	4968	6005	5276	2333	743.9	398.0	1083	3951	2059	51.64	6.909	3.405	3.168	2.616	2.200	1.665	1.735	1.586	1.637	1.531	1.514	1.803	4.021	9.078	14.04	14.87	12.24	10.48	9.417	8.185	8.082	8.623	9.746	10.08	10.75	10.56	9.817	8.574	7.845	6.616	5.668	5.412	5.171	4.418	3.629	3.196	3.658	4.453	6.111	8.242	10.67	13.69	17.72	20.82	24.45	28.52	28.51	28.52	25.22	18.71	11.20	6.864	4.538	3.380	2.795	3.280	6.104	11.28
310.0	4319	3084	2097	1451	908.1	682.2	967.1	1722	2897	4146	4867	4488	2453	828.0	307.6	326.4	1252	2559	2353	263.7	9.446	3.870	2.930	2.358	1.927	1.706	1.604	1.620	1.532	1.427	1.686	3.695	8.007	12.24	12.97	11.22	9.826	8.798	7.495	7.405	7.630	8.290	8.616	9.166	9.117	8.565	7.421	6.991	6.153	4.964	4.783	4.703	3.920	3.303	2.908	3.131	3.904	5.215	6.898	8.835	11.62	14.91	17.31	20.62	23.68	23.01	22.87	22.01	17.94	12.14	7.856	4.879	3.467	2.646	2.181	2.604	3.627
315.0	3335	2501	1737	1163	725.2	553.5	771.0	1325	2249	3188	3719	3338	2047	1086	337.7	168.4	323.8	646.6	2482	4097	64.82	7.473	3.578	2.926	1.931	1.903	1.671	1.724	1.480	1.640	1.521	3.402	6.677	9.886	10.47	9.666	8.023	7.478	6.153	6.067	6.312	6.740	7.012	7.547	7.269	7.052	6.420	5.772	5.009	4.223	3.687	4.044	3.327	2.706	2.401	2.825	3.208	4.464	5.555	6.957	9.261	11.71	13.62	15.92	18.02	17.75	17.00	16.38	13.51	9.722	8.531	6.671	4.240	2.800	1.922	1.825	1.978
320.0	2729	2042	1403	976.0	606.9	447.2	626.8	1058	1779	2503	2914	2643	1571	1040	513.9	149.6	121.3	170.5	715.9	3763	2643	56.67	5.650	3.307	2.225	1.855	1.709	1.779	1.502	1.793	1.480	2.837	5.462	8.299	8.889	8.258	6.764	6.244	5.449	5.227	5.345	5.541	5.755	6.192	6.086	5.737	5.201	4.788	4.144	3.627	3.245	3.345	2.764	2.409	2.198	2.392	2.850	3.508	4.500	5.520	7.419	9.058	10.87	12.47	14.03	13.82	13.49	12.83	10.63	7.595	6.203	6.043	5.593	4.100	2.404	1.629	1.491
325.0	2222	1643	1194	810.8	522.9	377.6	497.0	850.9	1397	1973	2316	2096	1245	763.3	650.3	232.4	81.10	66.51	179.6	1176	3175	2227	44.20	4.637	2.603	2.145	1.838	1.879	1.460	1.735	1.545	2.680	4.375	6.684	7.384	6.905	6.188	5.322	4.836	4.169	4.633	4.522	4.736	5.023	5.120	4.802	4.250	4.107	3.533	2.921	2.606	2.800	2.327	2.129	1.949	2.065	2.505	2.999	3.518	4.470	5.872	7.190	8.482	10.22	11.27	10.97	11.00	10.34	8.218	6.577	4.846	4.287	4.705	4.765	3.679	2.328	1.625
330.0	1685	1293	922.6	624.3	397.7	301.4	387.3	632.8	1030	1436	1690	1554	966.4	556.5	447.2	398.4	159.9	51.09	60.81	281.2	977.5	2465	2532	224.6	8.594	2.589	2.184	2.092	1.713	1.711	1.488	2.156	3.542	5.181	5.761	5.317	4.798	4.249	3.664	3.391	3.513	3.473	3.719	3.909	3.843	3.786	3.370	3.242	2.878	2.285	2.121	2.445	1.970	1.737	1.690	1.651	2.095	2.349	2.845	3.546	4.575	5.539	6.108	7.611	8.289	8.558	8.090	7.985	6.482	4.958	3.909	3.259	3.044	3.081	3.478	3.195	2.776
335.0	1226	1010	717.3	484.1	318.6	228.8	300.3	470.0	743.3	1021	1203	1132	753.0	443.6	294.4	279.2	337.7	88.38	39.61	80.59	231.6	595.2	2057	3283	283.4	7.065	2.645	2.592	2.013	1.798	1.597	1.772	2.812	4.064	4.655	4.146	3.824	3.241	2.849	2.820	2.679	2.581	2.745	3.006	2.972	2.869	2.629	2.496	2.230	1.980	1.693	1.795	1.729	1.396	1.387	1.347	1.725	2.076	2.250	2.747	3.639	4.192	4.607	5.424	6.106	6.264	5.900	5.969	5.223	3.986	3.496	2.942	2.554	2.310	2.108	2.075	2.582
340.0	977.8	794.6	591.2	398.8	263.7	197.1	247.5	370.2	573.0	781.6	928.7	887.2	614.9	390.8	247.3	182.4	282.5	243.7	58.88	37.87	66.30	145.8	562.4	2773	1846	49.32	4.379	2.878	2.335	2.072	1.544	1.646	2.463	3.411	3.829	3.421	3.061	2.960	2.469	2.316	2.181	2.242	2.242	2.410	2.262	2.378	2.228	2.161	2.125	1.773	1.466	1.596	1.408	1.348	1.336	1.298	1.568	1.662	2.012	2.317	2.910	3.120	3.839	4.363	4.865	4.851	4.643	4.659	4.354	3.433	3.014	2.429	2.057	2.009	1.709	1.709	1.814
345.0	845.3	698.9	471.7	337.6	222.9	175.2	211.2	311.4	458.6	622.0	736.1	704.6	518.4	341.9	221.2	145.9	161.3	274.0	147.4	33.66	29.56	45.32	137.4	860.2	1956	1657	41.12	3.691	2.542	2.417	1.639	1.599	2.179	2.912	3.235	2.856	2.918	2.573	2.035	2.056	1.866	1.983	2.022	2.018	2.099	2.145	1.913	1.974	1.910	1.591	1.357	1.467	1.228	1.119	1.151	1.125	1.275	1.419	1.777	1.997	2.228	2.648	3.182	3.542	4.054	3.989	3.922	3.930	3.661	3.030	2.682	2.252	1.833	1.860	1.606	1.502	1.604
350.0	685.2	550.1	388.1	278.3	184.7	152.9	174.4	244.2	351.9	461.2	547.2	542.1	417.2	294.4	195.8	128.6	102.2	145.9	206.5	111.3	31.32	24.36	42.55	203.4	578.5	1565	1776	201.8	13.46	2.949	1.867	1.606	2.003	2.466	2.697	2.427	2.400	2.064	1.766	1.652	1.551	1.712	1.676	1.638	1.679	1.791	1.538	1.579	1.582	1.259	1.129	1.260	1.098	1.066	1.019	1.023	1.103	1.289	1.492	1.628	1.910	2.219	2.546	2.706	3.036	3.135	3.032	3.239	2.809	2.598	2.272	2.114	1.752	1.632	1.484	1.423	1.346
355.0	546.9	453.6	320.1	233.9	162.1	130.4	140.1	190.7	270.1	343.5	400.1	404.4	328.2	242.8	170.2	116.2	86.56	80.09	108.1	189.3	69.30	26.99	23.72	57.22	138.2	371.5	1143	2725	346.1	14.81	2.154	1.874	2.089	2.013	2.279	2.054	2.005	1.873	1.486	1.476	1.296	1.487	1.585	1.452	1.456	1.394	1.358	1.407	1.251	1.070	1.095	1.150	0.983	0.966	0.938	0.959	0.997	1.136	1.255	1.349	1.572	1.813	1.900	2.117	2.344	2.592	2.490	2.590	2.331	2.235	2.057	1.833	1.642	1.615	1.328	1.408	1.477
360.0	459.2	379.9	287.5	216.0	145.9	119.6	125.1	165.0	220.2	272.9	325.8	335.3	276.9	213.3	155.3	112.2	81.79	67.35	65.64	130.3	170.7	56.98	23.23	26.93	41.88	92.85	300.1	1955	2390	290.3	4.814	2.039	2.033	1.890	2.210	1.914	1.791	1.802	1.616	1.358	1.249	1.403	1.374	1.316	1.418	1.307	1.263	1.206	1.174	0.983	0.970	1.055	1.006	0.856	0.836	0.911	0.929	1.101	1.154	1.237	1.459	1.503	1.699	1.989	2.152	2.102	1.956	2.166	2.145	1.857	1.811	1.675	1.527	1.640	1.256	1.343	1.289
365.0	422.9	340.6	259.2	190.3	133.6	117.0	121.4	144.9	186.9	229.6	275.1	283.7	240.1	193.5	140.2	106.2	81.49	66.21	57.00	73.88	157.5	135.8	38.59	22.58	22.33	32.71	77.65	547.5	1995	2532	43.09	2.813	2.105	2.183	2.170	1.885	1.773	1.757	1.486	1.269	1.234	1.343	1.219	1.205	1.085	1.244	1.209	1.117	1.099	0.947	0.964	1.028	0.944	0.920	0.860	0.816	1.023	1.039	1.033	1.125	1.475	1.340	1.576	1.808	1.745	1.686	1.882	1.933	1.839	1.655	1.593	1.597	1.352	1.468	1.245	1.357	1.247
370.0	370.5	299.9	233.6	173.4	133.3	109.3	111.9	125.8	156.4	187.7	220.6	230.7	201.3	168.3	129.1	102.4	82.80	70.88	61.11	58.96	85.76	145.2	103.8	38.36	22.06	21.42	28.53	131.5	542.4	2131	1489	188.2	12.67	2.254	2.171	1.917	1.766	1.682	1.354	1.299	1.181	1.346	1.169	1.195	1.071	1.216	1.141	1.106	1.065	0.839	0.819	1.004	0.947	0.839	0.874	0.816	0.982	1.052	1.029	1.070	1.160	1.321	1.379	1.427	1.512	1.594	1.684	1.603	1.668	1.508	1.450	1.440	1.396	1.301	1.175	1.231	1.187
375.0	331.3	279.2	216.1	163.3	142.6	112.9	110.2	118.4	136.8	155.9	178.9	189.0	172.2	147.3	119.9	100.1	86.91	78.25	68.81	63.71	63.10	83.78	141.7	109.5	34.73	23.18	21.19	40.44	129.3	497.0	818.3	1626	304.3	13.52	2.448	1.993	1.786	1.745	1.279	1.317	1.191	1.311	1.172	1.326	1.066	1.105	1.019	1.053	1.089	0.857	0.856	1.023	0.876	0.896	0.952	0.919	0.900	0.984	1.147	1.124	1.048	1.242	1.174	1.368	1.409	1.324	1.454	1.501	1.524	1.403	1.418	1.335	1.325	1.281	1.160	1.158	1.228
380.0	335.4	270.2	221.6	169.6	144.7	125.4	113.0	118.4	124.8	141.6	158.6	166.1	153.6	135.6	115.7	100.5	89.21	82.12	75.69	68.97	64.32	65.93	100.3	150.1	58.77	29.63	23.09	22.92	40.15	120.4	209.1	1009	1787	235.5	7.149	2.141	1.786	1.836	1.400	1.277	1.165	1.293	1.087	1.221	1.129	1.045	1.077	1.010	1.035	0.833	0.806	1.006	0.968	0.988	0.974	0.920	0.969	0.960	1.051	1.046	1.019	1.153	1.107	1.263	1.232	1.270	1.375	1.324	1.371	1.307	1.302	1.281	1.252	1.249	1.245	1.112	1.162
385.0	324.5	287.5	217.2	183.6	152.1	133.7	118.4	119.3	124.5	131.5	144.2	151.7	144.5	130.6	114.1	99.27	93.89	89.57	81.73	76.77	70.31	65.32	72.97	122.4	126.6	50.47	28.92	22.91	22.90	38.80	56.75	273.1	1386	1400	38.54	3.159	1.902	1.790	1.472	1.258	1.151	1.328	1.175	1.094	1.112	1.103	1.043	1.096	1.067	0.864	0.858	1.016	0.985	1.068	0.968	1.024	1.007	0.902	1.101	0.951	1.003	1.086	1.146	1.142	1.092	1.142	1.151	1.264	1.260	1.240	1.259	1.344	1.265	1.270	1.218	1.133	1.234
390.0	316.7	274.5	236.3	209.6	181.1	154.5	133.9	122.7	124.7	125.7	135.7	142.3	135.1	121.5	109.8	103.2	96.70	93.54	87.88	85.54	78.35	73.67	70.97	81.62	119.5	113.0	54.90	30.34	25.45	25.85	26.30	71.61	367.6	967.2	1308	386.0	11.40	2.178	1.597	1.380	1.270	1.364	1.117	1.169	1.076	1.126	1.009	1.153	1.047	0.866	0.971	1.147	1.085	1.149	1.024	1.093	1.060	1.070	1.110	0.993	1.114	1.051	1.092	1.119	1.158	1.200	1.177	1.242	1.236	1.227	1.218	1.152	1.275	1.248	1.278	1.176	1.318
395.0	307.5	269.8	261.1	242.9	208.6	172.1	151.1	136.2	130.6	128.3	132.6	133.2	128.8	121.1	107.4	103.7	100.2	98.08	94.60	93.09	86.90	82.31	79.17	73.24	82.22	120.7	113.8	48.85	32.95	28.97	24.34	30.03	91.39	226.4	643.6	1371	257.2	12.68	1.909	1.500	1.398	1.396	1.268	1.155	1.117	1.121	1.221	1.181	1.130	1.029	0.952	1.252	1.152	1.227	1.127	1.048	1.067	1.049	1.079	1.148	1.170	1.091	1.135	1.115	1.099	1.224	1.155	1.214	1.112	1.180	1.141	1.157	1.210	1.235	1.277	1.348	1.445
400.0	316.9	284.0	273.4	256.4	232.1	184.8	161.9	141.9	130.4	130.4	132.3	128.7	127.3	121.1	112.1	103.7	102.3	99.73	97.20	97.39	91.53	89.24	84.12	76.77	72.76	90.55	131.0	87.10	42.59	33.93	27.19	23.48	31.22	57.70	160.3	806.7	1370	218.2	4.579	1.721	1.527	1.601	1.258	1.278	1.139	1.151	1.195	1.129	1.225	1.102	1.068	1.357	1.215	1.243	1.185	1.116	1.205	1.123	1.069	1.150	1.166	1.207	1.143	1.143	1.178	1.083	1.101	1.187	1.184	1.150	1.255	1.240	1.189	1.256	1.242	1.281	1.406
405.0	317.8	310.4	281.4	283.8	237.9	197.5	172.1	149.8	134.8	129.3	133.5	129.9	127.8	116.0	109.9	103.5	103.3	101.8	100.0	99.20	95.70	92.12	87.56	80.98	73.81	79.12	108.3	123.4	56.88	39.32	30.32	23.66	19.10	20.50	41.53	212.9	1043	1391	32.51	2.338	1.664	1.607	1.306	1.411	1.185	1.193	1.140	1.306	1.110	1.083	1.158	1.397	1.380	1.244	1.168	1.217	1.172	1.127	1.151	1.244	1.174	1.122	1.189	1.130	0.989	1.020	1.215	1.201	1.120	1.149	1.229	1.191	1.189	1.327	1.245	1.272	1.388
410.0	310.5	305.0	296.5	300.9	253.6	207.2	178.2	157.1	140.0	128.8	128.2	129.2	122.6	115.1	108.0	102.3	100.8	101.6	100.1	101.4	97.34	95.07	91.16	84.35	78.69	76.99	81.84	106.5	102.6	59.96	35.09	26.20	18.00	13.39	14.56	51.58	273.1	955.1	689.2	139.8	10.24	1.756	1.314	1.327	1.135	1.247	1.154	1.298	1.241	1.125	1.171	1.399	1.433	1.343	1.233	1.295	1.284	1.226	1.309	1.222	1.166	1.140	1.169	1.122	1.026	1.048	1.133	1.137	1.146	1.128	1.143	1.206	1.180	1.233	1.140	1.277	1.306
