Sample:	'1
File name:	¹ÌÊ¼ 8.5 11.52 ½øË® 10±¶.FD3
Run date:	'10:33:06, 08/11/2025
Operator:	Administrator
Comment:	'

Instrument
Model:	F-2700 FL Spectrophotometer
Serial number:	23B8-004
ROM Version:	4J14000 07

Instrument parameters
Measurement type:	3-D scan
Data mode:	Fluorescence
EX  Start WL:	220.0 nm
EX  End WL:	600.0 nm
EX Sampling interval:	5.0 nm
EM  Start WL:	230.0 nm
EM  End WL:	650.0 nm
EM Sampling interval:	5.0 nm
Scan speed:	12000 nm/min
EX Slit:	5.0 nm
EM Slit:	5.0 nm
PMT Voltage:	700 V
Response:	Auto 
Corrected spectra:	Off
Contour interval:	50.000

Peak integration
Integration method:	Rectangular
Sensitivity:	1
Threshold:	1.000

Peaks
No.	ApexEX/EM(nm)	Height(Data)
1	230.0/500.0	263.8
2	235.0/510.0	216.1
3	240.0/525.0	193.0
4	245.0/535.0	164.4
5	250.0/550.0	175.1
6	255.0/565.0	229.9
7	260.0/575.0	273.1
8	265.0/295.0	2710
9	265.0/585.0	277.0
10	270.0/300.0	2851
11	270.0/325.0	2040
12	270.0/595.0	229.6
13	275.0/335.0	2012
14	280.0/625.0	94.35
15	305.0/345.0	613.5
16	310.0/350.0	478.2
17	315.0/355.0	424.3
18	320.0/360.0	377.8
19	325.0/370.0	325.2
20	330.0/375.0	311.9
21	335.0/380.0	308.1
22	345.0/395.0	252.2
23	350.0/400.0	254.6
24	355.0/405.0	237.2
25	365.0/420.0	206.6
26	370.0/425.0	185.1
27	380.0/440.0	133.3
28	385.0/445.0	116.8
29	390.0/290.0	17.57
30	400.0/465.0	68.20
31	405.0/470.0	53.99
32	410.0/475.0	46.50
33	415.0/485.0	41.41
34	420.0/490.0	33.61
35	425.0/500.0	28.93
36	430.0/505.0	25.70
37	435.0/290.0	11.22
38	440.0/335.0	10.65
39	440.0/520.0	17.45
40	445.0/525.0	15.11
41	455.0/540.0	10.50
42	470.0/560.0	5.097
43	480.0/575.0	3.119
44	485.0/580.0	2.689
45	520.0/285.0	8.648
46	530.0/290.0	10.56
47	540.0/295.0	11.39
48	545.0/300.0	11.47
49	550.0/305.0	10.13
50	555.0/335.0	7.695
51	580.0/320.0	6.846

Data points
	220.0	225.0	230.0	235.0	240.0	245.0	250.0	255.0	260.0	265.0	270.0	275.0	280.0	285.0	290.0	295.0	300.0	305.0	310.0	315.0	320.0	325.0	330.0	335.0	340.0	345.0	350.0	355.0	360.0	365.0	370.0	375.0	380.0	385.0	390.0	395.0	400.0	405.0	410.0	415.0	420.0	425.0	430.0	435.0	440.0	445.0	450.0	455.0	460.0	465.0	470.0	475.0	480.0	485.0	490.0	495.0	500.0	505.0	510.0	515.0	520.0	525.0	530.0	535.0	540.0	545.0	550.0	555.0	560.0	565.0	570.0	575.0	580.0	585.0	590.0	595.0	600.0
230.0	87.75	2079	6039	2277	101.6	9.874	7.508	6.070	5.487	4.776	4.690	4.314	3.428	2.900	2.556	2.073	1.698	1.685	1.514	1.295	1.241	1.051	1.008	0.979	0.901	0.741	0.768	0.709	0.609	0.605	0.560	0.536	0.526	0.507	0.494	0.471	0.401	0.371	0.401	0.359	0.435	0.666	0.732	0.520	0.369	0.295	1.796	9.823	18.39	14.43	6.076	1.112	0.291	0.225	0.221	0.205	0.216	0.195	0.231	0.243	0.162	0.205	0.189	0.188	0.155	0.179	0.194	0.148	0.181	0.185	0.143	0.179	0.153	0.159	0.149	0.165	0.205
235.0	190.8	561.8	3244	5979	2515	162.8	10.93	7.878	6.599	6.125	4.906	5.200	3.955	3.705	2.916	2.221	1.778	1.989	1.541	1.311	1.159	0.995	1.009	1.013	0.921	0.707	0.704	0.797	0.583	0.717	0.556	0.556	0.460	0.546	0.527	0.513	0.425	0.433	0.450	0.390	0.395	0.377	0.581	0.818	0.762	0.533	0.700	2.531	6.168	10.98	17.79	19.77	9.732	2.435	0.333	0.227	0.215	0.236	0.198	0.216	0.233	0.190	0.192	0.146	0.183	0.169	0.181	0.171	0.196	0.192	0.178	0.151	0.117	0.112	0.193	0.178	0.187
240.0	246.6	281.0	909.7	4317	6174	643.3	81.47	10.59	8.456	6.380	4.743	6.055	3.960	3.809	2.630	2.519	1.977	1.948	1.470	1.510	1.247	1.209	0.973	1.025	0.832	0.886	0.781	0.854	0.653	0.554	0.604	0.684	0.428	0.567	0.526	0.473	0.422	0.387	0.370	0.344	0.359	0.318	0.397	0.536	0.832	0.882	0.675	0.878	1.643	3.005	8.155	20.15	27.10	21.31	8.301	1.521	0.284	0.248	0.233	0.237	0.223	0.204	0.171	0.201	0.184	0.180	0.160	0.186	0.212	0.206	0.150	0.187	0.132	0.164	0.217	0.181	0.184
245.0	159.4	311.2	319.8	1354	5965	4911	508.5	36.42	10.99	7.564	6.257	5.695	4.736	3.888	3.218	2.264	2.141	1.765	1.641	1.456	1.372	1.268	1.246	1.281	1.037	0.744	0.776	0.835	0.699	0.564	0.741	0.608	0.488	0.526	0.484	0.562	0.421	0.409	0.411	0.459	0.375	0.334	0.401	0.424	0.533	0.835	0.955	1.014	0.794	0.913	2.112	5.980	15.09	29.30	29.47	19.23	6.490	0.854	0.282	0.297	0.236	0.218	0.235	0.252	0.190	0.223	0.184	0.186	0.237	0.193	0.190	0.161	0.217	0.158	0.164	0.170	0.182
250.0	76.36	192.9	344.9	439.3	1794	5207	6530	1853	140.8	12.91	8.929	7.356	5.260	4.796	3.635	2.656	2.495	2.102	1.840	1.548	1.546	1.267	1.154	1.243	1.037	0.918	0.785	0.830	0.787	0.702	0.705	0.674	0.592	0.652	0.530	0.507	0.457	0.398	0.490	0.442	0.380	0.428	0.431	0.359	0.431	0.457	0.645	0.960	1.105	1.079	1.043	1.706	3.723	8.602	15.66	25.29	31.00	32.74	16.17	6.734	0.994	0.284	0.290	0.253	0.238	0.210	0.238	0.195	0.202	0.213	0.206	0.224	0.194	0.175	0.162	0.173	0.224
255.0	66.32	77.91	195.9	450.5	545.4	1277	4728	9999.9	2725	179.2	15.33	9.786	8.242	6.930	4.766	3.432	2.763	2.414	1.992	2.023	1.745	1.257	1.297	1.188	1.057	0.886	0.970	0.927	0.828	0.729	0.715	0.687	0.631	0.575	0.443	0.522	0.489	0.475	0.510	0.483	0.460	0.397	0.384	0.339	0.461	0.352	0.319	0.458	0.565	0.812	1.556	1.899	1.450	2.293	3.772	6.060	9.538	24.03	48.51	57.45	26.08	9.032	0.725	0.292	0.323	0.234	0.265	0.220	0.249	0.254	0.203	0.185	0.242	0.217	0.225	0.288	0.287
260.0	55.49	43.02	80.63	330.3	470.9	381.0	1337	7883	9999.9	2209	108.5	14.30	10.96	7.595	5.050	3.585	3.177	2.933	2.662	2.128	1.838	1.500	1.447	1.250	0.974	1.088	0.870	1.007	0.982	0.773	0.821	0.875	0.601	0.582	0.486	0.552	0.473	0.535	0.564	0.468	0.395	0.466	0.418	0.402	0.384	0.390	0.308	0.359	0.369	0.448	0.940	1.850	1.979	1.727	1.254	1.600	2.483	6.150	17.25	42.17	64.20	62.25	22.14	5.180	0.525	0.303	0.342	0.321	0.248	0.252	0.173	0.222	0.220	0.272	0.181	0.259	0.225
265.0	78.25	60.28	54.38	149.9	447.9	384.7	369.9	2448	9999.9	9999.9	1649	47.42	13.86	9.106	6.483	3.881	3.977	3.056	2.786	2.035	1.933	1.578	1.613	1.383	1.078	1.150	1.048	1.042	1.004	0.899	0.783	0.820	0.702	0.883	0.828	0.663	0.648	0.540	0.707	0.635	0.523	0.576	0.663	0.476	0.488	0.425	0.357	0.341	0.361	0.353	0.436	0.866	1.670	2.502	1.993	1.128	0.932	1.695	4.256	11.11	27.87	60.80	79.57	32.38	17.34	2.320	0.390	0.366	0.321	0.244	0.283	0.338	0.304	0.224	0.198	0.245	0.248
270.0	742.3	500.2	292.6	157.2	239.3	520.5	458.5	781.6	3266	9999.9	9999.9	4954	104.0	15.54	9.065	6.458	5.043	3.497	3.325	2.493	2.017	1.953	1.747	1.545	1.258	1.232	1.104	1.020	1.169	0.936	0.924	1.288	2.140	3.022	2.861	2.709	2.255	1.937	1.994	1.813	2.055	1.956	2.075	1.770	1.585	1.492	1.188	1.123	1.010	0.719	0.528	0.637	0.810	1.300	2.034	2.436	2.357	1.978	1.913	3.496	7.403	16.45	32.54	47.87	69.64	60.01	45.88	11.72	2.377	0.433	0.334	0.412	0.404	0.308	0.344	0.333	0.356
275.0	2422	1749	909.7	342.5	198.1	379.2	891.5	1014	1458	3142	8581	9999.9	6399	121.8	16.18	9.170	6.816	5.173	4.313	3.190	2.901	2.329	2.163	1.918	1.516	1.470	1.326	1.143	1.119	0.956	1.235	2.180	4.749	7.773	8.341	7.815	6.082	5.236	4.957	4.673	4.872	5.289	5.256	5.184	4.973	4.308	3.767	2.944	2.493	1.626	1.044	0.845	0.767	1.013	1.233	1.731	3.014	4.389	4.310	3.678	4.361	6.503	10.23	13.89	20.40	35.42	78.78	105.3	33.15	16.25	1.697	0.537	0.546	0.499	0.579	0.690	0.538
280.0	4178	2923	1471	533.5	256.7	384.3	837.1	1527	1532	1903	3334	9999.9	9999.9	1365	71.97	13.49	9.327	6.291	4.960	3.818	2.853	2.831	2.626	1.949	1.792	1.666	1.442	1.337	1.292	1.180	1.341	2.849	6.720	11.44	13.20	11.82	9.260	7.829	7.217	7.267	7.221	7.610	8.474	8.093	7.801	7.159	5.800	5.106	4.258	2.445	1.542	1.212	0.982	1.314	1.295	1.663	2.450	3.780	5.741	6.258	5.735	5.857	6.662	7.596	8.877	12.36	26.09	59.97	97.33	106.8	29.23	8.992	1.006	0.756	0.804	0.751	0.709
285.0	5338	3781	1939	730.2	342.5	453.0	786.8	1589	2122	1998	2173	3919	9999.9	9999.9	956.7	34.92	11.50	8.292	5.747	4.023	3.533	3.049	2.827	2.126	1.807	1.845	1.687	1.443	1.432	1.330	1.554	3.643	8.410	13.30	16.52	14.75	12.16	9.650	8.941	8.879	8.858	9.739	10.35	10.39	9.910	8.911	7.541	6.845	5.048	3.367	1.969	1.405	1.128	1.511	1.521	2.012	2.563	3.469	4.670	6.882	8.648	8.032	7.228	7.493	7.212	8.141	10.31	17.26	35.14	80.27	110.0	92.85	22.88	4.182	1.147	0.945	1.017
290.0	5805	4186	2275	951.8	577.4	708.1	1013	1527	2329	2635	2224	1977	3575	9999.9	9999.9	3273	59.67	12.81	8.312	5.724	4.647	3.770	2.980	2.602	2.253	1.979	1.781	1.607	1.409	1.282	1.629	3.696	8.562	14.47	17.57	16.62	13.63	11.01	9.581	9.386	9.699	10.38	11.00	11.22	11.06	10.39	8.754	7.837	5.789	4.003	2.478	1.945	1.930	2.190	2.353	2.909	3.316	4.113	4.908	6.085	7.878	9.135	10.56	10.16	8.396	8.342	7.819	7.671	10.59	20.93	37.24	63.88	82.13	67.95	60.72	15.43	4.660
295.0	5454	4088	2354	1128	808.9	963.6	1253	1604	2085	2710	2675	1695	1375	2581	8073	9999.9	4378	68.92	13.07	8.728	6.295	4.613	3.790	3.190	2.373	2.313	2.085	1.777	1.430	1.662	1.666	3.851	8.194	13.23	16.75	15.55	12.74	10.31	9.028	9.064	8.906	10.20	10.90	10.46	10.75	9.794	8.541	7.452	5.856	3.936	2.973	2.576	2.750	3.005	3.021	3.731	4.676	5.256	5.501	6.083	7.152	8.087	9.201	10.91	11.39	10.45	7.588	6.378	5.909	7.112	9.982	15.55	20.48	29.14	76.60	118.6	37.67
300.0	4899	3821	2206	1198	946.3	1152	1402	1688	2008	2346	2851	1926	970.7	885.4	2228	9999.9	9999.9	784.4	43.60	11.78	7.982	5.548	4.750	3.635	2.685	2.531	2.228	1.945	1.764	1.648	1.838	3.465	7.130	12.41	14.80	14.01	11.72	9.644	8.330	8.151	7.822	8.761	9.020	9.541	9.380	8.719	7.765	7.228	5.564	4.073	3.230	3.067	3.358	3.419	3.644	4.315	5.256	5.541	5.971	6.666	6.759	7.449	8.520	8.841	10.11	11.47	9.943	6.982	4.972	4.103	4.267	5.028	6.094	7.708	21.01	53.54	94.16
305.0	4265	3417	2001	1205	1056	1240	1471	1687	1913	2063	2381	2270	1040	562.2	683.4	3027	9999.9	9999.9	586.0	23.41	10.07	6.862	5.690	3.814	3.543	2.593	2.461	2.283	2.034	1.528	1.959	3.067	6.044	10.57	12.72	11.70	10.40	8.472	7.474	7.229	6.922	7.447	7.950	8.216	8.522	7.974	6.901	6.500	5.041	3.824	3.116	3.326	3.490	3.887	4.003	4.694	5.633	5.810	6.292	6.328	7.025	7.571	7.389	8.032	8.109	9.118	10.13	8.783	6.000	3.909	3.254	2.955	2.844	3.096	5.913	13.43	29.27
310.0	3640	2810	1739	1130	1043	1233	1436	1633	1763	1829	1919	1941	1481	713.0	401.2	818.3	3158	9999.9	9999.9	2276	39.39	10.67	7.051	5.110	4.060	3.327	2.849	2.584	2.141	1.976	2.047	2.579	4.783	8.063	9.613	9.090	8.332	7.060	6.024	5.985	6.095	6.415	6.830	7.119	7.300	6.748	5.891	5.402	4.396	3.503	3.006	3.379	3.441	3.641	4.091	4.752	5.372	5.712	5.900	6.333	6.537	6.637	7.073	7.221	6.935	7.351	7.471	7.019	7.085	6.060	4.633	3.143	2.451	2.156	2.427	4.131	7.565
315.0	3921	2877	1623	1064	1026	1213	1412	1597	1719	1793	1883	1756	1534	1305	555.8	387.5	831.8	2402	7671	9999.9	3071	43.50	10.12	7.202	5.696	4.036	3.309	2.690	2.685	2.199	1.995	2.351	4.036	6.187	7.175	6.907	6.514	5.633	5.597	5.273	5.837	6.150	7.269	7.869	8.105	7.312	6.121	5.145	4.174	3.306	2.816	3.139	3.479	3.601	4.167	4.537	5.066	5.698	5.839	6.110	6.595	6.414	6.726	6.912	6.638	7.021	7.197	6.527	5.898	5.902	6.389	6.020	4.423	2.642	2.127	2.236	2.722
320.0	4887	3425	1826	1090	985.2	1170	1376	1597	1760	1913	2010	1921	1581	1513	954.5	390.4	360.2	653.6	2063	9999.9	9999.9	546.4	27.63	9.340	6.785	4.850	3.658	3.190	2.763	2.396	2.205	2.485	3.773	4.944	5.848	6.014	5.770	4.965	5.014	5.245	5.326	6.746	8.013	9.351	9.763	8.884	7.344	6.046	4.408	3.302	2.829	3.081	3.362	3.722	4.108	4.034	5.116	5.587	5.830	6.009	6.774	6.744	7.390	7.492	7.431	7.198	7.306	7.032	6.481	5.957	5.778	6.669	6.846	4.949	2.833	2.218	2.004
325.0	5126	3773	2012	1108	983.5	1085	1308	1539	1725	1895	2040	1984	1620	1400	1206	574.2	295.5	290.5	561.9	2995	9999.9	9999.9	416.4	15.94	8.487	5.965	4.760	3.454	3.005	2.392	2.309	2.397	3.218	4.456	5.041	4.830	4.769	4.742	4.783	4.952	5.215	7.059	8.075	9.366	10.64	9.592	7.872	6.668	5.019	3.829	3.123	3.191	3.305	3.368	3.903	3.988	4.933	5.066	5.447	5.914	6.201	6.799	7.205	7.536	7.581	7.825	7.384	7.403	6.931	6.226	5.708	5.785	5.767	6.091	4.829	2.781	2.174
330.0	5160	3882	2165	1287	1033	1063	1216	1428	1651	1845	2007	1989	1697	1383	1064	845.0	477.8	264.7	260.6	768.1	3075	9899	9027	1768	30.69	8.793	6.220	4.560	3.563	2.805	2.585	2.474	3.040	3.680	4.101	4.068	3.889	4.144	4.204	4.410	5.041	6.275	7.519	9.219	10.56	9.850	8.168	7.347	5.442	4.197	3.522	3.829	3.475	3.471	3.844	3.929	4.496	4.872	5.274	5.714	5.945	6.507	7.059	7.396	7.262	7.395	7.519	7.427	7.178	6.446	6.084	5.689	5.243	4.864	4.710	4.405	3.753
335.0	5088	4000	2351	1414	1106	1057	1128	1322	1545	1791	1980	2012	1757	1439	1009	762.6	749.2	409.3	231.4	295.5	769.7	2353	6994	9999.9	2544	34.69	8.730	5.957	4.744	3.710	3.226	2.876	3.062	3.369	3.842	3.529	3.867	3.583	3.928	4.204	4.824	5.837	7.452	9.003	10.65	10.00	8.435	7.845	6.053	4.679	3.936	4.115	3.876	3.822	3.776	4.000	4.278	4.717	4.671	5.270	5.689	5.960	6.341	6.749	7.091	7.160	7.308	7.695	7.100	6.654	6.399	6.171	5.306	4.602	4.006	3.682	3.820
340.0	4548	3663	2295	1406	1098	1024	1056	1213	1427	1639	1840	1887	1676	1409	977.1	666.6	682.0	590.2	274.0	201.8	266.3	590.4	1880	9405	9999.9	456.3	20.83	8.074	5.877	4.103	3.540	3.087	3.137	3.051	3.575	3.411	3.419	3.311	3.522	3.986	4.378	5.153	6.700	8.199	9.733	9.261	7.945	7.467	5.929	4.505	3.933	4.180	3.895	3.642	3.400	3.569	4.066	4.275	4.350	4.864	5.261	5.499	5.704	6.239	6.671	6.606	7.052	7.204	6.959	6.710	6.319	5.969	5.146	4.603	3.827	3.157	3.311
345.0	4013	3299	2166	1375	1074	948.4	948.5	1088	1299	1501	1659	1725	1556	1319	942.6	625.9	530.7	613.5	405.2	195.4	159.9	208.1	475.8	2810	9999.9	9419	350.5	12.87	6.814	5.319	4.040	3.436	2.965	3.172	3.276	2.930	2.991	3.156	3.306	3.647	3.937	4.462	5.616	7.186	8.357	8.406	6.993	6.702	5.606	4.346	3.659	4.013	3.762	3.547	3.553	3.409	3.742	3.882	3.968	4.495	4.541	5.158	5.587	5.702	6.178	6.147	6.328	6.399	6.434	6.021	5.832	5.528	4.840	4.356	3.412	3.067	2.977
350.0	3228	2863	1931	1310	1032	888.1	863.5	969.1	1131	1308	1472	1526	1407	1203	876.8	602.2	462.4	448.6	478.2	322.9	162.9	132.8	170.9	674.6	2997	8608	7380	1503	25.54	7.508	5.024	3.815	3.205	3.025	3.073	2.777	2.715	2.715	2.932	3.167	3.516	3.932	4.854	5.861	6.852	6.935	6.208	5.660	4.724	4.050	3.583	3.863	3.719	3.486	3.409	2.997	3.320	3.452	3.592	3.839	4.152	4.562	4.808	5.071	5.311	5.473	5.975	5.787	5.572	5.423	5.213	4.984	4.743	4.089	3.376	2.924	2.795
355.0	2610	2363	1667	1189	949.4	797.3	774.9	836.9	969.7	1133	1265	1313	1222	1072	802.6	571.1	430.2	362.0	354.0	424.3	266.7	135.9	115.8	207.5	708.2	2029	5701	9999.9	2221	29.76	7.308	5.216	4.136	3.365	3.185	2.619	2.489	2.711	2.520	2.631	2.964	3.530	3.969	4.940	5.282	5.497	5.450	4.891	4.333	3.433	3.258	3.698	3.504	3.341	3.012	2.994	3.144	2.941	3.050	3.545	3.558	3.878	4.009	4.463	4.642	4.498	4.976	5.023	4.913	4.720	4.742	4.503	4.418	3.600	3.069	3.015	2.895
360.0	2103	1982	1470	1094	871.8	735.9	698.5	749.1	879.4	1011	1117	1163	1107	968.3	749.1	540.5	410.1	342.3	294.0	348.2	377.8	188.5	116.3	111.7	206.9	488.6	1524	8027	9999.9	412.7	18.42	6.367	4.831	3.785	3.311	2.574	2.420	2.533	2.401	2.351	2.647	3.026	3.611	4.038	4.415	4.850	4.575	4.570	3.874	3.290	3.070	3.449	2.917	3.203	2.709	2.596	2.850	2.616	2.899	3.213	3.402	3.418	3.671	3.827	4.402	4.094	4.361	4.188	4.793	4.470	4.323	4.047	4.104	3.286	2.814	2.906	2.569
365.0	1836	1682	1322	1011	817.3	697.4	653.5	697.0	798.4	925.6	1018	1059	1008	891.8	706.6	515.8	403.2	337.5	278.2	271.8	364.4	294.1	142.5	101.8	102.3	151.8	376.1	2377	9999.9	8258	320.2	11.12	5.799	4.398	3.784	2.900	2.660	2.704	2.178	2.327	2.373	2.466	3.134	3.280	4.106	4.315	4.052	3.821	3.572	3.007	2.726	3.133	3.091	2.870	2.749	2.566	2.474	2.572	2.739	2.991	3.117	2.928	3.386	3.450	3.771	3.876	4.067	4.066	4.150	4.206	4.113	3.671	3.664	3.136	2.990	2.749	2.547
370.0	1528	1437	1164	911.1	759.3	654.9	592.2	627.8	718.3	819.6	896.4	932.6	888.8	800.4	637.9	483.0	390.4	331.1	282.6	254.4	269.6	325.2	256.2	134.8	95.97	89.23	126.1	565.3	2880	7720	6714	1353	22.28	5.939	4.517	3.212	2.883	2.639	2.370	2.273	2.308	2.368	2.731	2.865	3.355	3.613	3.344	3.346	3.077	2.695	2.514	2.972	2.932	2.757	2.562	2.262	2.331	2.413	2.344	2.766	2.724	3.017	3.186	3.160	3.435	3.395	3.562	3.691	3.567	3.509	3.678	3.443	3.270	2.893	2.654	2.666	2.356
375.0	1273	1217	1001	828.6	707.2	601.5	549.8	570.3	637.3	718.1	774.0	823.2	781.9	702.3	583.0	453.2	375.6	327.1	287.0	260.6	239.0	247.9	311.9	238.0	123.1	89.22	82.56	166.3	672.1	1827	5255	9812	1941	23.98	6.375	4.203	3.496	2.794	2.457	2.417	2.108	2.305	2.517	2.555	2.976	3.163	2.927	2.959	2.708	2.423	2.337	2.669	2.509	2.624	2.317	2.183	2.200	2.321	2.260	2.370	2.471	2.755	2.643	3.180	3.048	3.020	3.075	3.431	3.351	3.252	3.077	3.195	3.037	2.797	2.503	2.438	2.309
380.0	1066	1072	926.4	776.8	661.5	564.3	507.3	529.6	586.0	659.8	713.8	747.2	714.7	651.5	540.2	432.9	369.3	329.8	290.0	268.5	234.3	224.5	263.0	308.1	181.7	102.8	81.27	86.06	185.8	437.2	1418	7454	8625	332.6	14.88	5.262	4.105	3.125	2.642	2.571	2.207	2.104	2.281	2.403	2.628	2.669	2.669	2.801	2.415	2.357	2.147	2.571	2.567	2.469	2.124	1.985	2.195	2.092	2.207	2.019	2.366	2.445	2.431	2.940	2.725	2.697	2.738	2.898	2.810	3.056	2.742	2.731	2.454	2.628	2.411	2.133	2.208
385.0	945.0	960.1	844.9	718.3	642.3	551.4	493.0	495.6	541.9	609.5	660.2	693.4	663.2	604.2	518.4	415.0	362.2	326.5	297.0	268.9	244.3	224.9	221.3	281.2	263.1	136.8	92.01	76.19	86.11	131.2	346.1	2179	8332	6378	250.2	8.907	5.040	3.528	3.198	2.666	2.149	2.150	2.096	2.488	2.392	2.607	2.382	2.611	2.345	2.276	1.942	2.419	2.381	2.273	2.115	2.055	1.882	2.076	2.198	2.161	2.116	2.288	2.399	2.462	2.507	2.766	2.507	2.623	2.630	2.676	2.629	2.618	2.467	2.710	2.233	1.995	2.120
390.0	836.4	872.1	772.0	688.0	607.8	529.3	480.4	470.1	505.7	547.0	591.0	618.0	599.8	550.1	480.0	404.6	352.7	325.8	297.3	272.7	251.3	233.8	219.2	223.0	262.0	228.6	129.1	89.38	76.40	73.68	111.2	514.7	2360	5796	5025	1073	18.50	4.974	3.724	2.930	2.462	2.295	2.355	2.245	2.335	2.412	2.366	2.499	2.298	2.064	1.930	2.209	2.288	2.127	2.081	1.938	1.865	2.024	2.068	2.064	1.935	2.137	2.308	2.259	2.272	2.293	2.189	2.382	2.319	2.515	2.421	2.479	2.440	2.441	2.067	1.962	2.129
395.0	723.6	805.6	738.0	649.4	596.8	518.7	454.9	453.9	472.3	504.8	540.6	560.9	545.1	510.8	445.3	389.8	343.6	323.2	295.7	278.0	257.2	243.1	227.2	212.8	212.5	252.2	216.0	122.4	90.28	73.37	71.12	148.2	551.8	1367	3731	7182	1616	22.39	5.309	3.467	2.896	2.408	2.378	2.177	2.287	2.239	2.132	2.364	2.188	2.081	1.889	2.247	2.253	2.130	2.026	1.854	1.905	2.090	1.848	1.876	1.897	2.102	2.047	2.201	2.177	2.199	1.972	2.254	2.236	2.182	2.269	2.094	2.239	2.037	2.097	2.136	2.091
400.0	660.3	709.8	692.9	628.2	571.4	488.5	458.5	440.4	457.2	482.9	503.7	530.8	511.8	473.5	426.3	375.8	335.1	317.0	296.2	280.1	262.9	248.9	236.7	217.9	202.6	216.9	254.6	177.4	109.2	85.61	72.05	75.65	154.7	328.8	989.0	5078	6398	291.1	14.08	4.356	3.253	2.745	2.292	2.237	2.272	1.942	2.002	2.257	2.061	1.812	1.832	2.144	2.063	2.039	1.905	1.847	1.740	2.000	1.745	1.724	2.034	1.938	2.078	2.059	1.965	2.034	2.011	2.123	2.098	2.251	2.134	2.141	2.239	1.944	1.938	2.015	1.977
405.0	617.0	671.1	676.8	621.9	542.8	487.5	442.0	429.6	437.7	461.8	488.7	503.1	482.6	449.5	410.8	362.1	330.7	311.1	291.5	279.8	263.7	254.4	240.6	224.4	205.3	200.3	231.2	237.2	142.9	100.4	79.66	66.11	72.48	101.6	243.6	1440	5708	5022	232.3	7.705	3.961	3.149	2.368	2.415	2.152	1.900	2.016	2.035	1.961	1.887	1.860	2.304	2.173	2.037	1.939	1.889	1.804	1.751	1.786	1.747	1.824	1.844	1.946	1.861	1.988	1.880	1.903	2.081	2.115	2.028	2.060	2.007	1.950	2.037	1.871	1.763	1.923
410.0	576.1	628.2	645.1	600.1	529.6	485.1	432.0	417.0	425.9	437.5	460.8	462.9	454.2	427.3	383.7	348.0	319.5	301.4	283.9	273.4	259.7	252.2	243.4	229.9	211.6	198.6	196.6	224.2	210.7	135.5	94.65	74.98	61.63	56.94	80.31	342.3	1571	4179	3889	995.9	16.63	3.994	3.033	2.489	2.233	2.026	1.965	2.085	1.870	1.815	1.884	2.154	2.067	2.038	1.890	1.772	1.888	1.864	1.790	1.794	1.905	1.795	1.801	1.759	1.813	1.827	1.935	1.848	2.008	1.851	1.977	1.780	1.981	1.849	1.757	1.965	1.844
415.0	542.8	596.9	597.6	563.6	523.9	462.7	425.0	396.7	398.5	402.7	427.0	431.4	414.9	391.0	358.9	323.6	302.5	287.6	276.9	258.6	252.3	243.9	238.2	228.1	213.7	199.5	183.1	182.9	208.3	194.3	117.5	82.06	63.48	49.88	47.12	98.11	366.8	973.2	2513	5356	1461	21.47	3.575	2.747	2.271	2.310	2.161	2.052	1.975	1.799	1.851	1.960	1.989	1.963	1.827	1.825	1.788	1.858	1.698	1.644	1.847	1.776	1.832	1.684	1.809	1.666	1.730	1.697	1.813	1.849	1.655	1.650	1.862	1.676	1.831	1.696	1.719
