Sample:	'1
File name:	W101013’≈πŸ¥Â±±«≈.FD3
Run date:	'10:01:21, 10/11/2024
Operator:	horiz
Comment:	'

Instrument
Model:	F-2700 FL Spectrophotometer
Serial number:	23B8-004
ROM Version:	4J14000 07

Instrument parameters
Measurement type:	3-D scan
Data mode:	Fluorescence
EX  Start WL:	220.0 nm
EX  End WL:	600.0 nm
EX Sampling interval:	5.0 nm
EM  Start WL:	230.0 nm
EM  End WL:	650.0 nm
EM Sampling interval:	5.0 nm
Scan speed:	12000 nm/min
EX Slit:	5.0 nm
EM Slit:	5.0 nm
PMT Voltage:	700 V
Response:	Auto 
Corrected spectra:	Off
Contour interval:	50.000

Peak integration
Integration method:	Rectangular
Sensitivity:	1
Threshold:	1.000

Peaks
No.	ApexEX/EM(nm)	Height(Data)
1	225.0/565.0	76.13
2	225.0/580.0	78.02
3	225.0/600.0	66.28
4	225.0/615.0	63.01
5	225.0/645.0	57.32
6	230.0/345.0	2081
7	240.0/265.0	431.9
8	240.0/520.0	367.9
9	245.0/270.0	440.8
10	245.0/535.0	291.2
11	250.0/275.0	557.8
12	250.0/545.0	226.3
13	255.0/285.0	625.8
14	255.0/560.0	178.4
15	260.0/290.0	670.3
16	260.0/575.0	136.2
17	265.0/295.0	980.4
18	265.0/585.0	127.3
19	270.0/300.0	1423
20	270.0/600.0	128.3
21	275.0/310.0	1655
22	275.0/330.0	1354
23	275.0/415.0	3681
24	275.0/435.0	3486
25	275.0/610.0	119.3
26	280.0/315.0	1556
27	280.0/625.0	104.7
28	285.0/320.0	1446
29	285.0/640.0	74.08
30	315.0/355.0	673.5
31	320.0/365.0	680.4
32	325.0/370.0	664.9
33	350.0/415.0	2220
34	350.0/435.0	2162
35	460.0/345.0	5.971
36	485.0/265.0	2.342
37	495.0/270.0	2.250
38	505.0/275.0	3.268
39	510.0/280.0	4.070
40	515.0/285.0	4.125
41	525.0/290.0	4.112
42	545.0/300.0	7.445
43	550.0/305.0	8.671
44	560.0/310.0	8.510
45	565.0/415.0	13.20
46	570.0/315.0	8.519
47	575.0/320.0	8.006
48	585.0/325.0	7.510

Wavelength data
No.	EX/EM(nm)	Height(Data)	

Data points
	220.0	225.0	230.0	235.0	240.0	245.0	250.0	255.0	260.0	265.0	270.0	275.0	280.0	285.0	290.0	295.0	300.0	305.0	310.0	315.0	320.0	325.0	330.0	335.0	340.0	345.0	350.0	355.0	360.0	365.0	370.0	375.0	380.0	385.0	390.0	395.0	400.0	405.0	410.0	415.0	420.0	425.0	430.0	435.0	440.0	445.0	450.0	455.0	460.0	465.0	470.0	475.0	480.0	485.0	490.0	495.0	500.0	505.0	510.0	515.0	520.0	525.0	530.0	535.0	540.0	545.0	550.0	555.0	560.0	565.0	570.0	575.0	580.0	585.0	590.0	595.0	600.0
230.0	45.06	851.4	2910	1077	54.08	5.406	4.127	3.139	2.664	2.987	2.795	2.701	2.523	1.839	1.853	1.513	1.191	1.015	0.981	0.843	0.926	0.858	0.775	0.810	0.749	0.717	0.846	0.681	0.642	0.650	0.586	0.521	0.426	0.424	0.346	0.333	0.282	0.264	0.241	0.221	0.288	0.382	0.436	0.272	0.197	0.176	0.860	4.354	8.631	6.852	2.749	0.468	0.144	0.123	0.125	0.134	0.123	0.126	0.137	0.108	0.119	0.103	0.102	0.121	0.107	0.113	0.116	0.099	0.099	0.108	0.118	0.108	0.102	0.114	0.128	0.112	0.101
235.0	103.3	243.4	1557	3122	708.6	81.13	6.253	4.136	3.824	3.817	3.378	2.996	2.110	2.122	1.819	1.580	1.253	1.335	0.877	0.920	0.936	1.012	0.904	0.801	0.820	0.681	0.739	0.739	0.815	0.656	0.603	0.570	0.413	0.411	0.305	0.285	0.401	0.265	0.261	0.260	0.180	0.279	0.435	0.435	0.445	0.285	0.370	1.164	3.327	6.185	9.031	10.28	4.447	0.741	0.169	0.133	0.210	0.086	0.134	0.120	0.145	0.114	0.134	0.079	0.097	0.113	0.095	0.109	0.080	0.108	0.102	0.133	0.079	0.143	0.119	0.141	0.102
240.0	179.6	165.5	444.1	2340	3530	555.3	29.48	5.711	3.481	3.718	3.302	2.834	2.808	2.523	1.820	1.558	1.413	1.213	1.105	0.833	0.848	0.848	1.029	0.759	0.875	0.767	0.788	0.742	0.814	0.692	0.718	0.678	0.410	0.368	0.329	0.236	0.297	0.331	0.278	0.245	0.231	0.220	0.233	0.291	0.537	0.761	0.509	0.453	0.920	1.826	5.078	11.92	13.19	9.161	2.833	0.395	0.166	0.134	0.173	0.098	0.218	0.135	0.102	0.156	0.113	0.107	0.123	0.094	0.076	0.080	0.121	0.120	0.148	0.128	0.098	0.119	0.132
245.0	137.3	243.8	184.0	729.1	3366	3683	389.8	12.54	4.835	4.113	3.777	3.119	2.857	2.517	2.032	1.374	1.445	1.311	1.207	0.950	0.806	0.831	0.989	0.751	0.877	0.806	0.851	0.648	0.714	0.620	0.712	0.609	0.481	0.299	0.401	0.261	0.310	0.325	0.247	0.290	0.179	0.219	0.213	0.243	0.333	0.716	0.787	0.744	0.444	0.551	1.346	3.953	9.689	16.15	15.28	7.060	1.639	0.239	0.165	0.128	0.143	0.133	0.112	0.129	0.087	0.094	0.097	0.116	0.083	0.071	0.097	0.128	0.112	0.102	0.142	0.136	0.130
250.0	54.21	164.2	278.0	273.4	1030	3257	3774	1234	65.80	5.999	4.484	4.638	3.265	2.504	2.132	1.763	1.434	1.573	1.184	1.100	1.116	0.962	0.982	0.828	0.955	0.906	0.899	0.653	0.706	0.675	0.604	0.663	0.464	0.351	0.371	0.332	0.303	0.265	0.245	0.255	0.242	0.263	0.188	0.186	0.245	0.344	0.468	0.823	1.046	0.873	0.726	1.118	2.512	5.443	9.712	14.47	16.76	13.79	6.600	1.547	0.259	0.174	0.151	0.133	0.117	0.112	0.184	0.137	0.152	0.104	0.134	0.115	0.131	0.126	0.157	0.115	0.132
255.0	31.35	53.74	189.7	359.1	336.4	811.2	2797	5195	1572	48.21	6.950	5.222	4.097	3.319	2.535	2.110	1.909	1.479	1.356	1.236	1.129	0.932	1.098	0.871	0.854	0.815	0.982	0.780	0.826	0.842	0.822	0.639	0.587	0.424	0.420	0.364	0.264	0.286	0.234	0.205	0.229	0.304	0.267	0.240	0.225	0.201	0.219	0.311	0.604	1.045	1.424	1.465	1.015	1.422	2.414	3.620	6.994	15.84	26.27	22.21	10.03	1.540	0.220	0.154	0.194	0.113	0.146	0.139	0.166	0.110	0.134	0.121	0.177	0.091	0.115	0.161	0.103
260.0	26.14	21.79	69.16	321.1	358.0	243.4	829.0	4262	5375	309.8	22.06	6.886	4.856	3.465	2.948	2.386	1.984	1.582	1.698	1.331	1.129	1.087	1.228	0.820	0.892	0.986	0.946	0.861	0.707	0.744	0.614	0.712	0.577	0.557	0.449	0.394	0.284	0.270	0.246	0.206	0.244	0.240	0.276	0.240	0.193	0.198	0.224	0.218	0.271	0.467	1.047	2.082	1.763	1.096	0.841	1.000	1.848	4.530	12.98	25.40	32.18	21.32	6.323	0.838	0.179	0.138	0.150	0.150	0.211	0.154	0.130	0.119	0.149	0.125	0.151	0.159	0.111
265.0	24.23	20.33	29.56	146.1	431.9	265.3	227.6	1436	5861	4823	231.9	11.87	6.625	4.684	3.027	2.901	2.198	1.891	1.713	1.387	1.227	1.312	1.257	1.010	0.911	0.885	1.012	0.839	0.720	0.813	0.654	0.648	0.515	0.500	0.438	0.389	0.357	0.325	0.289	0.252	0.179	0.327	0.210	0.317	0.238	0.232	0.249	0.193	0.211	0.221	0.429	1.175	2.240	2.342	1.324	0.636	0.689	1.305	3.303	7.892	20.25	34.79	33.86	16.55	3.247	0.339	0.167	0.216	0.191	0.168	0.206	0.173	0.106	0.127	0.147	0.118	0.119
270.0	35.41	33.56	30.55	53.36	209.9	440.8	304.7	381.7	1910	5383	5039	890.0	40.59	6.708	4.329	3.734	2.507	2.226	2.010	1.539	1.517	1.261	1.248	1.121	1.137	0.992	0.926	0.940	0.901	0.776	0.764	0.639	0.563	0.584	0.466	0.459	0.391	0.311	0.303	0.267	0.240	0.317	0.309	0.338	0.326	0.277	0.239	0.235	0.227	0.181	0.241	0.421	0.867	1.512	2.000	2.250	1.821	1.016	1.068	2.019	5.003	10.67	19.36	29.04	31.97	24.89	13.24	3.172	0.432	0.196	0.177	0.151	0.146	0.170	0.170	0.149	0.174
275.0	95.57	84.21	70.91	55.25	80.76	227.4	557.8	333.2	480.5	1386	5055	8071	1122	30.22	7.063	4.591	3.772	2.427	2.208	1.995	1.689	1.445	1.288	1.253	1.260	1.089	1.017	0.957	1.088	0.762	0.813	0.785	0.663	0.666	0.612	0.539	0.454	0.391	0.386	0.301	0.297	0.411	0.346	0.386	0.458	0.400	0.325	0.448	0.382	0.278	0.298	0.270	0.442	0.626	0.744	1.411	2.749	3.268	2.064	1.074	1.455	2.720	4.738	7.020	11.08	26.04	45.56	37.91	19.26	3.310	0.350	0.238	0.213	0.207	0.180	0.211	0.163
280.0	171.9	165.6	146.9	86.84	67.38	108.4	390.1	609.6	261.4	385.2	1579	7793	6942	173.0	14.79	6.819	4.360	3.447	2.292	2.257	1.807	1.313	1.278	1.522	1.191	1.069	1.103	0.974	0.978	0.946	0.768	0.889	0.727	0.822	0.765	0.619	0.689	0.487	0.467	0.419	0.410	0.482	0.395	0.623	0.570	0.645	0.547	0.566	0.615	0.509	0.370	0.485	0.297	0.406	0.516	0.634	1.373	2.705	4.070	2.719	1.218	1.118	1.487	1.987	3.048	7.104	18.46	38.75	55.35	34.42	12.18	1.311	0.258	0.167	0.273	0.249	0.163
285.0	251.3	286.5	235.3	153.4	93.42	87.52	185.0	625.8	403.6	227.3	488.9	2773	9167	4980	121.4	9.525	5.866	3.854	2.883	2.130	2.033	1.649	1.367	1.341	1.252	1.199	1.130	1.046	0.791	1.065	0.875	0.799	0.727	0.770	0.903	0.816	0.682	0.678	0.620	0.532	0.544	0.562	0.569	0.520	0.655	0.906	0.828	0.895	0.970	0.651	0.621	0.636	0.494	0.537	0.481	0.464	0.715	1.173	2.501	4.125	3.799	2.195	1.085	1.155	1.474	2.456	4.850	11.12	27.86	49.36	44.43	27.71	7.113	0.643	0.281	0.221	0.272
290.0	439.0	481.0	402.4	260.7	142.8	110.8	134.9	315.2	670.3	601.9	414.3	898.4	3195	6897	4632	478.4	22.86	5.234	3.879	2.924	2.424	2.010	1.723	1.524	1.506	1.256	1.255	1.100	1.041	1.021	0.877	0.826	0.940	0.975	1.105	1.097	1.011	0.792	0.729	0.807	0.714	0.687	0.807	0.719	0.979	1.295	1.226	1.480	1.376	0.966	0.837	0.778	0.674	0.703	0.631	0.584	0.678	0.773	1.242	1.987	3.068	4.112	4.012	3.092	1.862	1.921	2.522	3.827	7.675	14.41	23.04	36.92	39.13	40.47	18.94	5.868	0.714
295.0	590.9	676.4	585.6	361.0	198.4	151.9	167.7	241.8	430.0	980.4	909.6	669.7	1070	1904	5584	6923	619.7	16.75	5.555	3.589	2.902	2.727	2.105	1.983	1.555	1.401	1.330	1.141	1.042	1.099	1.020	0.917	0.909	1.075	1.339	1.441	1.388	1.065	0.994	0.999	0.927	0.871	0.968	1.075	1.242	1.654	1.527	1.995	1.713	1.404	1.199	1.129	0.950	0.870	0.787	0.838	0.852	0.944	1.080	1.335	1.886	2.392	3.696	6.043	6.051	3.825	2.692	2.920	3.703	5.191	6.639	9.266	11.82	26.78	49.64	45.55	27.95
300.0	730.5	805.2	689.3	425.1	245.1	193.7	212.9	282.8	409.6	788.1	1423	940.0	737.4	707.9	1800	7454	5534	98.68	10.38	5.259	3.778	2.874	2.295	2.218	1.752	1.572	1.517	1.494	1.212	1.091	1.169	0.892	0.900	1.209	1.365	1.464	1.469	1.226	1.204	1.140	0.915	1.021	1.213	1.196	1.401	1.762	1.854	2.064	1.993	1.726	1.333	1.380	1.191	0.980	0.975	1.140	1.031	1.258	1.414	1.441	1.939	2.112	2.632	4.272	6.427	7.445	5.790	3.868	3.499	3.637	3.339	3.701	3.763	7.247	16.90	36.45	60.12
305.0	767.5	856.6	770.6	493.1	298.5	257.2	296.2	371.7	511.0	775.2	1393	1561	901.1	579.7	656.3	2717	8221	4092	74.65	7.282	4.384	3.447	2.723	2.223	2.192	1.742	1.598	1.363	1.308	1.518	0.995	1.082	1.071	1.117	1.572	1.553	1.466	1.284	1.328	1.073	0.988	1.030	1.255	1.371	1.606	1.821	2.247	2.495	2.350	2.044	1.673	1.603	1.305	1.117	1.194	1.359	1.525	1.764	2.106	2.033	2.317	2.600	3.151	4.035	5.051	6.946	8.671	7.681	5.643	4.395	3.455	3.199	2.910	3.108	5.117	10.16	24.29
310.0	804.8	912.0	847.2	539.8	356.4	326.6	371.4	474.7	625.2	857.9	1210	1655	1491	776.2	509.6	847.4	2867	5882	4828	334.4	17.63	5.041	3.657	2.604	2.424	2.077	1.872	1.780	1.460	1.594	1.136	1.224	1.118	1.247	1.472	1.531	1.411	1.254	1.194	1.205	1.153	1.195	1.398	1.438	1.705	2.033	2.258	2.609	2.433	1.952	1.777	1.818	1.456	1.331	1.383	1.581	1.665	1.972	2.276	2.378	3.004	3.182	3.763	4.426	5.038	5.954	6.883	8.019	8.510	7.637	5.859	3.946	3.276	2.970	3.024	3.725	6.833
315.0	819.9	999.6	865.2	605.4	402.8	371.9	421.8	530.7	681.0	909.8	1168	1388	1556	1270	619.5	487.1	874.9	1561	4717	5188	474.1	14.57	4.564	3.591	2.872	2.455	2.280	1.754	1.901	1.533	1.278	1.357	1.116	1.365	1.625	1.654	1.537	1.490	1.264	1.118	1.167	1.205	1.381	1.567	2.022	2.317	2.477	2.743	2.551	2.096	1.841	1.812	1.539	1.566	1.484	1.607	1.948	2.527	2.523	2.854	3.214	3.527	3.785	4.703	4.898	5.502	5.736	6.405	6.772	7.729	8.519	7.354	4.818	3.425	3.103	2.726	3.190
320.0	922.9	1113	988.1	664.5	451.9	410.5	471.4	577.0	729.8	947.0	1197	1343	1379	1446	916.8	491.5	485.2	511.6	1410	5640	4456	75.01	9.091	4.641	3.399	2.756	2.673	2.011	2.164	1.743	1.518	1.262	1.336	1.345	1.494	1.339	1.502	1.394	1.236	1.127	1.195	1.134	1.614	1.613	2.124	2.756	2.812	2.979	2.997	2.394	1.820	2.202	1.862	1.634	1.793	1.732	2.171	2.473	2.850	2.864	3.118	3.667	3.989	4.537	5.048	5.372	5.788	6.332	6.257	6.182	7.235	8.006	7.378	5.438	3.956	3.094	2.602
325.0	1069	1406	1272	802.5	542.9	456.3	510.4	606.7	750.3	951.5	1213	1347	1315	1268	1230	647.4	432.7	305.3	411.5	1909	6177	3594	60.56	7.157	4.379	3.550	2.917	2.286	2.151	1.628	1.526	1.301	1.375	1.303	1.402	1.319	1.325	1.408	1.226	1.229	1.400	1.295	1.618	1.946	2.209	3.074	3.509	3.770	3.751	2.758	2.401	2.596	2.156	1.899	2.088	1.965	2.366	2.420	2.834	3.011	3.085	3.839	4.048	4.637	5.441	6.173	6.064	6.288	6.483	6.291	6.223	6.295	7.324	7.510	6.297	3.929	3.001
330.0	1247	1685	1615	1146	746.5	542.6	541.6	634.2	769.9	967.4	1209	1354	1321	1162	1098	965.8	579.8	313.0	240.4	530.3	1993	4647	4275	281.3	18.14	4.942	3.473	2.864	2.305	2.110	1.555	1.488	1.338	1.327	1.346	1.287	1.283	1.260	1.279	1.170	1.512	1.467	1.701	2.188	2.507	3.555	3.889	4.698	4.596	3.996	3.432	3.503	2.815	2.460	2.243	2.133	2.404	2.580	2.919	3.170	3.427	3.672	4.203	4.628	5.180	5.850	5.892	6.362	6.426	6.441	5.962	5.802	5.894	6.151	6.239	6.224	5.320
335.0	1338	1860	1898	1489	1002	695.6	604.2	654.8	791.0	973.2	1200	1345	1339	1176	996.0	913.1	892.4	465.1	268.6	279.8	565.6	1206	3562	4267	438.7	17.41	5.073	3.557	2.570	2.534	2.074	1.642	1.542	1.376	1.311	1.315	1.353	1.425	1.271	1.102	1.360	1.356	1.806	2.310	2.891	3.814	4.380	5.314	5.248	4.875	4.271	4.552	3.860	3.419	2.910	2.745	2.680	2.941	3.185	3.179	3.740	3.956	4.315	4.718	5.128	5.817	6.073	6.230	6.278	6.607	5.920	6.122	5.715	5.686	5.477	5.264	5.466
340.0	1459	1929	2017	1641	1163	785.4	655.0	689.0	800.3	985.8	1180	1328	1324	1183	989.6	832.2	883.4	696.9	346.7	265.0	281.5	386.7	1065	4261	3894	345.2	9.660	4.289	3.286	2.649	2.266	1.709	1.510	1.300	1.437	1.441	1.328	1.467	1.275	1.110	1.489	1.584	1.991	2.380	2.907	4.025	4.527	5.444	5.761	5.315	4.979	5.209	4.477	3.972	3.318	2.997	3.125	2.999	3.493	3.214	3.514	3.983	4.273	4.879	5.245	5.465	6.253	6.411	6.091	6.750	5.792	5.881	5.961	5.765	5.252	4.884	5.071
345.0	1466	1969	2081	1733	1235	851.5	699.0	717.0	820.5	972.4	1151	1286	1288	1182	1006	820.0	746.4	803.8	515.9	302.4	251.7	232.8	353.3	1395	4799	3317	58.01	6.626	4.050	3.127	2.529	1.990	1.724	1.560	1.533	1.398	1.325	1.372	1.251	1.280	1.317	1.722	1.885	2.342	3.024	4.022	4.540	5.705	5.971	5.286	5.114	5.223	4.688	4.260	3.618	3.092	3.304	2.992	3.455	3.068	3.788	4.113	4.465	4.698	5.344	5.411	5.680	5.942	6.166	6.358	6.076	6.284	5.656	5.602	5.014	4.803	4.631
350.0	1337	1822	1988	1776	1348	978.4	814.2	823.3	872.5	986.1	1130	1232	1238	1158	1014	847.7	730.5	684.9	679.1	490.2	309.6	249.2	234.9	424.1	1494	3439	3462	262.1	19.31	4.271	2.936	2.023	1.885	1.688	1.526	1.386	1.359	1.400	1.350	1.259	1.368	1.553	1.759	2.174	2.832	3.706	4.152	5.169	5.502	5.281	5.039	5.458	4.887	4.706	4.065	3.607	3.758	3.666	3.830	3.818	4.042	4.291	4.453	4.801	5.123	5.232	5.477	5.705	5.888	6.100	5.996	5.963	5.739	5.421	5.174	4.938	4.844
355.0	1285	1703	1858	1724	1385	1067	892.3	882.7	914.7	1003	1119	1182	1197	1129	1023	872.5	757.7	654.3	624.5	673.5	482.5	316.5	256.4	246.8	434.0	866.2	2410	3848	443.5	20.83	4.009	2.810	1.938	1.879	1.739	1.477	1.330	1.361	1.210	1.324	1.311	1.398	1.523	2.116	2.594	3.351	3.874	4.771	5.222	5.049	4.922	5.767	5.190	5.076	4.277	3.967	4.079	4.010	4.111	4.017	4.203	4.529	4.401	4.710	4.845	5.168	5.101	5.358	5.445	5.720	5.865	6.038	5.501	5.702	5.037	5.122	5.162
360.0	1218	1619	1766	1645	1368	1081	923.6	898.3	919.1	997.0	1083	1146	1152	1108	1008	886.1	780.4	679.4	612.2	647.4	646.2	414.6	300.6	240.4	229.3	282.9	675.8	3055	3714	377.6	11.69	3.605	2.529	1.944	1.894	1.423	1.359	1.260	1.321	1.230	1.273	1.482	1.703	2.064	2.630	3.237	3.628	4.562	5.099	4.879	4.820	5.201	5.284	5.099	4.361	4.044	3.969	4.111	4.112	4.370	4.252	4.511	4.519	4.850	5.063	5.035	4.883	5.161	5.556	5.777	5.501	5.724	5.397	5.785	5.337	4.973	5.495
365.0	1107	1504	1717	1601	1371	1106	949.3	929.0	948.6	997.3	1080	1118	1129	1079	997.9	892.9	811.1	719.3	648.2	616.4	680.4	574.5	368.6	279.6	219.5	183.8	229.8	918.9	3683	3340	59.07	6.637	3.158	2.212	1.963	1.627	1.444	1.211	1.276	1.222	1.307	1.505	1.744	1.975	2.517	2.944	3.417	4.014	4.687	4.648	4.627	5.467	5.139	5.002	4.495	4.300	4.199	4.315	4.369	4.531	4.361	4.737	4.951	4.939	4.809	4.872	4.847	5.204	5.319	5.403	5.427	5.367	5.663	5.528	5.299	4.973	5.400
370.0	1065	1428	1606	1528	1357	1147	1015	985.2	985.1	1041	1080	1108	1105	1063	992.1	910.8	843.6	765.7	710.8	658.4	643.3	664.9	551.3	372.2	277.6	216.8	174.7	291.3	1083	2839	3180	932.9	20.10	3.752	2.443	1.966	1.687	1.402	1.319	1.354	1.305	1.451	1.683	1.954	2.345	2.821	3.319	3.959	4.432	4.510	4.485	5.213	5.192	4.973	4.395	4.283	4.324	4.469	4.741	4.474	4.662	4.706	4.612	4.861	4.986	4.803	4.996	5.045	5.250	5.116	5.208	5.465	5.527	5.282	5.284	5.031	5.315
375.0	1026	1312	1502	1491	1342	1151	1028	990.3	995.3	1036	1063	1080	1091	1039	977.6	911.2	863.3	802.7	757.7	716.6	667.4	642.9	663.1	545.2	370.5	287.8	218.6	205.4	338.7	718.7	1914	3805	408.0	24.32	4.473	2.971	1.897	1.546	1.391	1.290	1.468	1.498	1.653	1.922	2.105	2.606	3.051	3.965	4.227	4.254	4.343	5.033	4.905	5.000	4.458	4.459	4.276	4.950	4.618	4.516	4.428	4.572	4.938	4.985	4.767	4.772	4.844	4.971	5.044	5.218	5.093	5.380	5.151	5.159	5.544	5.010	5.540
380.0	920.1	1268	1406	1449	1329	1155	1006	993.5	992.9	1031	1058	1080	1071	1026	967.6	909.6	863.9	825.1	788.0	752.9	698.6	655.7	649.2	658.1	480.8	353.3	281.6	228.4	207.4	254.4	545.4	2498	3244	341.4	13.04	4.182	2.702	2.043	1.469	1.505	1.405	1.624	1.607	1.824	2.060	2.661	3.090	3.706	4.002	3.612	4.101	4.893	4.885	5.117	4.683	4.261	4.739	4.537	4.411	4.728	4.633	4.818	4.704	4.739	4.766	5.051	5.143	5.061	4.991	4.915	4.890	5.404	5.355	4.982	5.592	5.256	5.553
385.0	925.0	1203	1346	1389	1277	1155	1039	999.2	1015	1041	1059	1084	1072	1032	970.1	917.7	874.7	839.3	810.1	784.0	739.6	694.4	654.8	672.9	604.4	442.8	346.7	283.1	227.8	191.2	222.2	747.7	2778	2776	50.47	8.435	4.574	2.718	1.814	1.423	1.388	1.533	1.462	1.752	2.065	2.503	3.056	3.532	3.775	3.556	3.837	5.104	4.897	4.970	4.457	4.286	4.537	4.593	4.576	4.636	4.723	4.914	4.414	4.869	4.616	5.100	5.260	4.926	4.975	4.978	4.599	5.408	5.255	4.884	5.089	5.331	5.151
390.0	886.0	1153	1312	1356	1286	1174	1104	1072	1076	1134	1180	1206	1199	1148	1064	979.0	923.2	874.3	862.1	842.9	815.3	787.6	754.3	735.3	741.0	666.5	499.8	435.4	363.6	297.7	247.7	308.7	835.9	2096	2367	750.8	23.12	7.302	3.279	2.026	1.718	1.549	1.788	1.903	2.080	2.485	2.804	3.203	3.773	3.734	3.840	4.773	5.000	4.984	4.818	4.491	4.666	4.790	4.844	4.911	4.720	5.103	5.158	5.155	5.045	5.357	5.192	5.363	5.392	5.513	5.486	5.591	5.624	5.573	5.711	5.476	5.702
395.0	874.3	1110	1293	1359	1332	1287	1238	1276	1306	1452	1559	1617	1593	1501	1336	1170	1056	969.5	955.9	954.9	963.7	979.4	985.4	985.5	971.4	991.1	934.1	786.9	680.6	521.3	465.3	384.6	404.5	629.2	1358	2764	349.0	31.57	8.653	3.679	2.238	1.836	1.961	1.825	2.150	2.803	2.590	3.526	3.815	3.749	4.054	4.998	5.140	5.195	5.119	4.915	5.433	5.392	5.527	5.538	5.600	5.949	6.244	5.910	6.231	6.588	6.397	6.456	6.325	6.895	6.843	6.933	6.604	6.663	6.621	6.135	6.095
400.0	966.6	1160	1337	1395	1428	1421	1441	1532	1660	1878	2113	2172	2186	2034	1784	1490	1243	1109	1070	1102	1148	1204	1268	1301	1314	1338	1375	1247	1075	925.7	783.9	614.3	456.5	409.8	525.7	1763	2537	315.8	23.34	6.148	3.015	2.428	2.055	2.191	2.400	2.796	2.902	3.562	3.841	3.888	4.139	5.095	5.381	5.583	5.504	5.605	5.955	6.185	6.129	6.197	6.691	7.075	7.376	7.368	7.727	7.776	8.203	7.987	8.310	9.022	8.414	8.485	7.826	8.273	7.884	7.357	7.228
405.0	988.3	1186	1366	1492	1551	1611	1704	1844	2048	2415	2770	2974	2901	2647	2287	1856	1481	1271	1227	1265	1354	1465	1585	1682	1734	1768	1809	1764	1547	1359	1159	902.1	664.6	477.1	420.7	676.3	2025	2189	236.9	11.69	4.548	2.779	2.328	2.310	2.622	2.791	3.299	3.984	4.139	3.900	4.560	5.414	5.701	6.159	6.094	6.346	6.860	7.076	7.242	7.541	8.116	8.459	8.864	9.245	10.10	10.04	10.23	10.69	10.76	10.75	10.79	11.06	10.53	9.868	9.298	8.720	8.313
410.0	1003	1217	1434	1545	1637	1766	1945	2138	2449	2890	3372	3638	3532	3221	2742	2184	1698	1404	1351	1410	1526	1682	1845	2003	2104	2159	2186	2161	2010	1771	1509	1196	878.2	637.1	495.8	449.3	714.5	1539	1794	624.2	18.64	3.893	2.881	2.625	2.639	3.151	3.294	4.004	4.317	4.253	4.517	5.828	5.996	6.618	6.799	6.936	7.622	7.669	8.329	8.411	9.166	9.647	10.37	11.38	11.69	12.29	12.21	12.58	12.85	12.69	12.63	12.72	12.21	11.62	10.50	10.06	9.339
415.0	1001	1183	1398	1522	1625	1752	1961	2196	2482	2908	3445	3681	3554	3253	2764	2200	1686	1399	1333	1395	1518	1693	1865	2026	2142	2207	2220	2180	2069	1894	1594	1250	924.7	677.4	516.9	403.6	360.8	457.4	916.5	2044	320.8	20.04	3.621	2.930	2.837	3.296	3.163	4.023	4.317	4.170	4.457	5.814	5.868	6.228	6.675	7.047	7.421	8.092	8.203	8.374	8.500	9.735	10.04	11.39	11.80	12.27	12.57	12.98	13.05	13.20	12.71	12.78	12.16	11.98	11.03	9.778	9.522
