Sample:	'1
File name:	S2025090501ÅË×¯¶þ´åÇÅ.FD3
Run date:	'11:37:12, 09/05/2025
Operator:	Administrator
Comment:	'

Instrument
Model:	F-2700 FL Spectrophotometer
Serial number:	23C7-003
ROM Version:	4J14000 07

Instrument parameters
Measurement type:	3-D scan
Data mode:	Fluorescence
EX  Start WL:	220.0 nm
EX  End WL:	600.0 nm
EX Sampling interval:	5.0 nm
EM  Start WL:	230.0 nm
EM  End WL:	650.0 nm
EM Sampling interval:	5.0 nm
Scan speed:	12000 nm/min
EX Slit:	5.0 nm
EM Slit:	5.0 nm
PMT Voltage:	700 V
Response:	Auto 
Corrected spectra:	Off
Contour interval:	50.000

Peak integration
Integration method:	Rectangular
Sensitivity:	1
Threshold:	1.000

Peaks
No.	ApexEX/EM(nm)	Height(Data)
1	225.0/585.0	19.36
2	225.0/600.0	17.51
3	230.0/345.0	388.9
4	230.0/500.0	193.4
5	230.0/605.0	16.09
6	230.0/635.0	13.53
7	235.0/510.0	185.3
8	240.0/260.0	219.9
9	240.0/520.0	166.4
10	245.0/270.0	224.5
11	245.0/405.0	519.9
12	245.0/535.0	137.6
13	250.0/275.0	285.6
14	250.0/545.0	126.0
15	255.0/280.0	384.0
16	255.0/560.0	111.3
17	260.0/285.0	396.8
18	260.0/570.0	85.54
19	265.0/585.0	81.22
20	270.0/300.0	733.6
21	270.0/595.0	71.78
22	275.0/305.0	838.9
23	275.0/385.0	505.6
24	275.0/610.0	63.00
25	280.0/310.0	758.6
26	280.0/345.0	476.4
27	280.0/625.0	53.86
28	285.0/315.0	683.1
29	285.0/635.0	40.55
30	290.0/325.0	624.5
31	295.0/330.0	474.9
32	300.0/335.0	446.6
33	305.0/345.0	410.7
34	310.0/350.0	372.3
35	315.0/355.0	376.2
36	320.0/360.0	387.1
37	325.0/370.0	369.0
38	330.0/375.0	355.3
39	335.0/380.0	358.9
40	350.0/400.0	283.9
41	355.0/405.0	270.5
42	425.0/495.0	38.46
43	460.0/545.0	9.702
44	470.0/560.0	5.921
45	505.0/275.0	1.779
46	510.0/280.0	2.271
47	515.0/285.0	2.325
48	525.0/290.0	2.254
49	535.0/295.0	3.138
50	545.0/300.0	3.838
51	550.0/305.0	4.237
52	560.0/310.0	3.967
53	570.0/315.0	3.937
54	575.0/290.0	31.16
55	575.0/320.0	3.846
56	585.0/325.0	3.564

Data points
	220.0	225.0	230.0	235.0	240.0	245.0	250.0	255.0	260.0	265.0	270.0	275.0	280.0	285.0	290.0	295.0	300.0	305.0	310.0	315.0	320.0	325.0	330.0	335.0	340.0	345.0	350.0	355.0	360.0	365.0	370.0	375.0	380.0	385.0	390.0	395.0	400.0	405.0	410.0	415.0	420.0	425.0	430.0	435.0	440.0	445.0	450.0	455.0	460.0	465.0	470.0	475.0	480.0	485.0	490.0	495.0	500.0	505.0	510.0	515.0	520.0	525.0	530.0	535.0	540.0	545.0	550.0	555.0	560.0	565.0	570.0	575.0	580.0	585.0	590.0	595.0	600.0
230.0	9.682	386.6	1571	628.0	31.89	2.864	1.757	1.490	1.667	1.431	1.315	1.289	1.278	0.992	0.843	0.761	0.801	0.659	0.660	0.587	0.468	0.452	0.432	0.408	0.383	0.354	0.325	0.335	0.250	0.213	0.194	0.259	0.210	0.113	0.138	0.143	0.122	0.119	0.098	0.088	0.113	0.079	0.127	0.115	0.090	0.099	0.378	2.318	5.371	4.938	2.011	0.373	0.085	0.064	0.053	0.035	0.046	0.064	0.058	0.045	0.042	0.029	0.036	0.046	0.034	-0.010	0.027	0.079	0.018	0.028	0.036	0.010	0.032	-0.002	0.008	0.003	0.021
235.0	38.74	104.3	812.7	1920	482.4	60.69	3.627	2.544	2.105	1.465	1.510	1.738	1.379	1.165	0.988	0.899	0.766	0.757	0.697	0.665	0.489	0.411	0.483	0.422	0.382	0.358	0.270	0.365	0.157	0.232	0.222	0.261	0.271	0.145	0.126	0.125	0.127	0.123	0.114	0.099	0.124	0.100	0.123	0.199	0.182	0.161	0.205	0.576	1.797	3.905	6.134	7.181	3.866	0.761	0.058	0.059	0.065	0.046	0.031	0.064	0.041	0.021	0.022	0.070	0.013	0.011	0.042	0.074	0.041	0.017	0.020	0.011	-0.002	-0.011	0.017	0.033	-0.016
240.0	54.50	64.30	213.2	1298	2310	404.7	28.92	3.034	2.004	2.111	1.829	1.863	1.781	1.095	1.090	0.893	0.637	0.646	0.790	0.576	0.432	0.479	0.491	0.447	0.412	0.469	0.283	0.295	0.194	0.187	0.168	0.228	0.209	0.118	0.158	0.128	0.146	0.138	0.170	0.115	0.099	0.096	0.093	0.187	0.167	0.279	0.223	0.265	0.467	1.086	2.992	7.935	10.82	7.482	2.641	0.362	0.042	0.048	0.102	0.036	0.059	0.012	0.031	0.016	0.071	0.025	0.021	0.041	-0.003	0.041	0.073	0.008	-0.004	0.040	-0.002	-0.005	0.023
245.0	34.72	104.8	89.79	372.9	1895	2607	312.5	10.16	2.395	2.739	2.198	1.827	1.740	1.489	1.233	0.974	1.109	0.771	0.778	0.479	0.530	0.435	0.530	0.395	0.541	0.418	0.298	0.281	0.312	0.183	0.232	0.203	0.181	0.077	0.203	0.144	0.093	0.190	0.086	0.184	0.178	0.111	0.102	0.127	0.145	0.316	0.372	0.387	0.261	0.343	0.751	2.589	6.969	11.65	11.92	6.436	1.619	0.123	0.093	0.034	0.062	0.015	0.027	0.015	0.065	0.017	0.019	0.047	0.035	0.010	0.024	-0.013	0.031	0.037	0.010	0.016	0.043
250.0	13.95	65.94	138.7	154.9	534.5	1837	2660	1082	76.76	3.652	2.824	2.234	1.675	1.547	1.495	0.899	1.090	0.842	0.804	0.579	0.575	0.447	0.501	0.401	0.419	0.369	0.321	0.287	0.328	0.261	0.236	0.189	0.242	0.152	0.166	0.170	0.102	0.141	0.079	0.158	0.162	0.143	0.079	0.094	0.124	0.152	0.212	0.357	0.474	0.507	0.445	0.709	1.723	3.655	6.920	10.00	12.46	10.27	5.396	1.453	0.175	0.046	0.061	0.041	0.061	0.023	-0.009	0.011	0.068	0.022	0.045	0.049	0.009	-0.003	0.033	0.012	0.011
255.0	6.126	18.60	79.47	206.1	195.4	435.0	1461	3609	1583	87.00	4.429	3.640	2.313	1.739	1.667	0.847	0.956	1.002	0.847	0.647	0.497	0.588	0.714	0.405	0.398	0.438	0.292	0.266	0.373	0.249	0.272	0.258	0.193	0.161	0.117	0.129	0.130	0.100	0.096	0.158	0.113	0.173	0.075	0.051	0.109	0.123	0.139	0.163	0.239	0.438	0.845	0.902	0.765	0.946	1.637	2.413	4.591	10.70	17.03	16.51	8.465	1.666	0.169	0.036	0.045	0.017	0.037	0.029	0.075	0.084	0.039	0.043	0.036	-0.020	0.029	0.029	0.046
260.0	6.656	8.183	28.06	145.8	219.9	143.8	380.3	2255	4210	1192	40.38	4.436	3.165	1.838	1.798	1.367	1.172	1.095	0.958	1.027	0.596	0.753	0.681	0.589	0.490	0.458	0.408	0.453	0.476	0.279	0.341	0.317	0.157	0.221	0.174	0.109	0.132	0.112	0.102	0.120	0.140	0.111	0.135	0.129	0.090	0.115	0.127	0.115	0.109	0.222	0.455	0.859	1.152	0.719	0.501	0.629	1.162	2.954	8.005	17.43	22.44	16.68	5.440	0.594	0.054	0.035	-0.001	0.062	0.033	0.110	0.037	0.087	0.072	0.068	0.062	0.024	0.037
265.0	6.332	7.605	11.03	55.32	213.6	195.2	110.4	633.3	3212	4322	204.0	14.73	4.180	2.882	2.028	1.743	1.419	1.196	0.974	0.906	0.837	0.593	0.610	0.636	0.509	0.559	0.436	0.355	0.457	0.320	0.319	0.205	0.225	0.196	0.245	0.152	0.169	0.114	0.113	0.118	0.115	0.135	0.141	0.117	0.098	0.159	0.102	0.071	0.086	0.120	0.156	0.362	1.033	1.352	0.977	0.477	0.352	0.753	1.980	5.261	13.10	24.33	25.26	13.01	2.695	0.152	0.016	0.028	0.090	0.074	0.051	0.045	0.028	0.048	0.034	0.046	0.016
270.0	9.723	8.306	7.822	17.65	83.80	224.5	204.1	183.6	889.2	3043	4406	761.7	55.75	4.546	3.044	2.272	1.628	1.388	1.274	0.904	0.828	0.729	0.587	0.610	0.516	0.458	0.451	0.351	0.391	0.358	0.335	0.302	0.238	0.250	0.208	0.198	0.161	0.121	0.158	0.109	0.137	0.123	0.109	0.125	0.158	0.118	0.115	0.125	0.058	0.081	0.119	0.146	0.347	0.696	1.105	1.334	1.045	0.566	0.650	1.293	3.204	7.258	14.01	20.48	23.48	17.74	9.510	2.496	0.214	0.070	0.090	0.029	0.052	0.041	0.076	0.048	0.127
275.0	20.06	14.25	16.09	12.57	26.90	82.19	285.6	252.2	239.7	732.8	2398	5954	1128	59.71	4.990	2.984	2.111	1.610	1.219	1.248	1.022	0.850	0.695	0.555	0.507	0.601	0.395	0.411	0.479	0.480	0.337	0.370	0.235	0.209	0.238	0.308	0.183	0.196	0.172	0.144	0.204	0.110	0.069	0.130	0.115	0.137	0.179	0.117	0.145	0.099	0.101	0.135	0.128	0.197	0.337	0.622	1.312	1.779	1.316	0.601	0.892	1.803	3.401	4.972	8.276	19.51	33.86	26.13	13.57	2.079	0.164	0.069	0.033	0.048	0.094	0.022	0.054
280.0	27.64	31.30	28.81	18.93	20.02	32.68	155.4	384.0	202.9	213.2	658.3	3828	6389	807.0	25.21	4.078	2.703	1.910	1.314	1.400	1.021	0.876	0.674	0.710	0.518	0.748	0.504	0.444	0.409	0.423	0.252	0.324	0.318	0.269	0.280	0.246	0.227	0.188	0.208	0.147	0.161	0.190	0.113	0.130	0.162	0.168	0.209	0.181	0.195	0.144	0.126	0.141	0.093	0.113	0.164	0.263	0.521	1.321	2.271	1.691	0.762	0.604	1.048	1.455	2.119	5.365	14.79	30.41	42.11	22.84	7.436	0.657	0.111	0.090	0.059	0.040	0.094
285.0	38.25	49.53	46.24	34.74	22.35	24.36	64.81	287.9	396.8	150.5	225.6	1111	5238	5519	111.6	10.16	3.705	2.674	1.893	1.512	1.132	1.328	0.852	0.749	0.606	0.686	0.567	0.449	0.419	0.341	0.259	0.350	0.298	0.285	0.325	0.238	0.227	0.239	0.176	0.223	0.170	0.178	0.196	0.208	0.212	0.241	0.238	0.234	0.235	0.203	0.216	0.157	0.122	0.127	0.140	0.213	0.270	0.506	1.260	2.325	2.083	0.969	0.602	0.695	0.833	1.650	3.783	8.858	22.72	40.30	30.12	17.86	3.389	0.180	0.120	0.110	0.097
290.0	62.75	94.42	89.22	64.48	43.50	39.62	55.97	131.6	352.6	385.6	208.5	386.3	1505	4308	5026	1422	30.88	3.953	2.849	1.928	1.482	1.326	1.020	0.826	0.629	0.684	0.616	0.485	0.443	0.456	0.364	0.315	0.274	0.318	0.340	0.293	0.270	0.262	0.211	0.217	0.186	0.199	0.231	0.279	0.264	0.266	0.325	0.374	0.364	0.290	0.266	0.240	0.260	0.196	0.215	0.245	0.261	0.327	0.557	0.997	1.714	2.254	2.122	1.634	0.962	1.052	1.475	2.660	5.842	12.00	19.08	31.16	30.99	28.85	11.56	3.059	0.292
295.0	91.31	137.5	134.7	99.43	68.43	63.10	71.42	101.0	186.7	452.0	587.4	335.7	518.7	1105	2847	6046	615.6	33.41	4.239	2.703	2.010	1.588	1.286	0.989	0.850	0.655	0.685	0.645	0.661	0.503	0.437	0.326	0.347	0.349	0.281	0.304	0.274	0.227	0.279	0.216	0.237	0.205	0.178	0.259	0.289	0.346	0.467	0.531	0.497	0.512	0.444	0.343	0.246	0.244	0.318	0.276	0.336	0.442	0.501	0.594	0.930	1.096	1.969	3.138	3.106	1.725	1.421	1.531	2.231	3.532	4.967	7.635	10.46	25.37	46.19	30.19	17.17
300.0	95.86	159.6	171.3	128.9	83.59	74.53	82.01	107.2	160.2	311.2	733.6	548.7	361.3	399.2	781.8	4057	5131	471.4	15.54	3.493	2.718	1.911	1.467	1.123	1.005	0.773	0.608	0.639	0.500	0.559	0.413	0.348	0.363	0.304	0.345	0.294	0.324	0.262	0.275	0.185	0.285	0.190	0.258	0.286	0.306	0.321	0.556	0.600	0.622	0.549	0.428	0.434	0.333	0.352	0.378	0.361	0.495	0.513	0.568	0.732	0.708	0.925	1.319	2.191	3.644	3.838	2.753	1.665	1.538	1.772	1.905	2.399	2.864	6.688	17.38	38.83	56.13
305.0	119.5	172.1	202.5	141.0	98.21	89.65	98.50	125.8	171.3	267.4	550.4	838.9	454.5	281.8	283.5	1131	4964	4299	68.61	6.653	2.983	2.231	1.682	1.526	1.029	0.912	0.714	0.612	0.523	0.518	0.406	0.385	0.456	0.442	0.327	0.344	0.283	0.340	0.285	0.281	0.269	0.227	0.292	0.265	0.331	0.441	0.557	0.653	0.648	0.590	0.583	0.554	0.399	0.443	0.411	0.486	0.607	0.590	0.555	0.710	0.739	0.941	1.083	1.588	2.134	3.432	4.237	3.381	2.132	1.665	1.614	1.380	1.304	2.016	4.340	10.58	26.81
310.0	132.3	187.6	212.3	157.5	112.8	106.8	122.3	148.1	192.4	277.0	408.5	677.4	758.6	390.7	208.4	333.3	1344	3786	4900	1220	21.45	3.487	2.372	1.792	1.278	1.033	0.834	0.687	0.670	0.553	0.491	0.488	0.473	0.374	0.354	0.283	0.302	0.374	0.290	0.255	0.277	0.264	0.250	0.281	0.320	0.462	0.564	0.720	0.749	0.650	0.538	0.577	0.555	0.486	0.469	0.525	0.594	0.612	0.644	0.825	0.845	0.982	1.140	1.507	1.608	2.128	2.837	3.602	3.967	3.374	2.247	1.432	1.142	1.109	1.511	2.819	6.550
315.0	128.5	203.4	231.2	168.5	123.7	114.6	133.6	168.4	209.0	278.4	386.0	491.3	640.3	683.1	281.8	178.3	365.1	904.5	2813	5652	439.9	23.33	3.451	2.432	1.553	1.429	1.077	0.841	0.802	0.612	0.518	0.506	0.484	0.285	0.425	0.399	0.322	0.343	0.301	0.375	0.300	0.254	0.292	0.332	0.436	0.482	0.610	0.731	0.896	0.702	0.563	0.634	0.631	0.504	0.524	0.572	0.605	0.643	0.701	0.888	0.842	1.059	1.271	1.389	1.657	1.770	2.030	2.306	2.816	3.545	3.937	3.219	1.593	1.139	1.010	1.235	2.026
320.0	132.0	218.6	239.5	179.0	136.9	127.6	142.7	177.7	222.9	295.5	381.3	453.9	503.1	669.3	492.5	181.9	164.4	255.1	717.4	3491	5012	348.3	11.31	3.138	1.972	1.620	1.219	0.986	0.900	0.666	0.644	0.500	0.495	0.361	0.410	0.346	0.318	0.328	0.327	0.313	0.248	0.330	0.320	0.310	0.424	0.481	0.621	0.760	0.858	0.730	0.568	0.724	0.584	0.547	0.645	0.473	0.640	0.751	0.736	0.935	0.897	1.165	1.346	1.480	1.711	1.658	1.923	2.030	2.167	2.466	3.272	3.846	3.180	1.766	1.085	1.111	1.023
325.0	133.1	247.7	286.4	214.1	150.3	139.8	157.2	186.1	231.2	303.4	388.4	456.7	462.0	500.3	624.5	303.9	139.5	122.0	202.7	934.5	4138	3284	52.84	5.873	2.574	2.025	1.492	1.091	0.911	0.851	0.657	0.584	0.485	0.383	0.420	0.351	0.374	0.316	0.335	0.317	0.270	0.295	0.323	0.343	0.393	0.575	0.705	0.871	0.994	0.791	0.660	0.682	0.669	0.581	0.656	0.581	0.698	0.774	0.935	0.953	0.865	1.088	1.356	1.488	1.649	1.680	1.947	2.088	2.158	2.298	2.461	2.715	3.391	3.564	2.170	1.230	0.902
330.0	156.5	267.9	326.3	263.4	190.5	163.9	173.5	200.6	244.4	312.6	388.8	454.0	463.5	434.4	463.2	474.9	271.1	124.0	106.0	252.0	1097	2983	3591	1092	18.42	3.070	2.060	1.409	1.266	0.983	0.733	0.677	0.594	0.465	0.406	0.375	0.340	0.308	0.326	0.323	0.289	0.301	0.315	0.338	0.495	0.581	0.850	0.946	1.084	0.953	0.818	0.819	0.825	0.702	0.643	0.651	0.827	0.823	0.894	0.997	1.107	1.225	1.426	1.536	1.717	1.806	1.989	2.121	2.270	2.317	2.240	2.057	2.285	2.711	2.724	2.831	2.112
335.0	157.8	291.6	347.9	303.2	226.6	189.9	196.3	214.9	256.9	321.7	399.0	460.0	469.1	432.1	386.8	368.9	446.6	239.8	114.1	121.7	293.6	713.9	1953	4839	374.3	22.19	2.737	2.030	1.545	1.212	0.844	0.790	0.567	0.514	0.389	0.447	0.435	0.361	0.344	0.347	0.357	0.268	0.314	0.339	0.600	0.599	0.861	1.031	1.322	1.137	0.924	1.032	1.057	0.823	0.737	0.750	0.825	0.861	0.984	1.091	1.007	1.313	1.453	1.535	1.745	1.804	1.995	2.085	2.158	2.147	2.113	2.034	2.238	2.086	2.045	2.307	3.264
340.0	161.3	295.6	382.4	336.6	262.6	216.9	216.0	228.7	271.2	331.7	399.1	464.5	471.8	442.2	380.9	323.1	385.4	396.7	170.7	110.4	131.0	207.7	508.5	2854	4438	327.5	11.48	2.867	1.852	1.616	1.045	0.715	0.651	0.476	0.446	0.430	0.409	0.363	0.323	0.292	0.362	0.334	0.319	0.353	0.623	0.652	0.841	1.111	1.322	1.133	1.104	1.157	1.116	0.895	0.913	0.911	0.956	0.957	1.090	1.254	1.148	1.414	1.421	1.650	1.818	1.930	2.133	2.050	2.474	2.215	2.108	2.273	2.181	2.004	1.830	2.008	2.287
345.0	166.5	302.9	388.9	358.2	291.1	248.4	241.1	250.4	281.8	335.8	408.5	457.4	476.4	450.3	392.4	326.1	308.3	410.7	301.1	141.2	115.8	114.1	162.0	764.4	3384	2909	251.8	5.657	2.537	1.812	1.268	0.927	0.742	0.551	0.592	0.435	0.455	0.348	0.306	0.278	0.334	0.364	0.386	0.466	0.528	0.657	0.818	1.065	1.233	1.275	1.090	1.217	1.313	1.077	1.054	1.091	0.949	1.102	1.112	1.120	1.171	1.441	1.516	1.590	1.753	1.726	1.916	1.999	2.294	2.237	2.207	2.157	2.100	2.118	2.045	1.762	1.836
350.0	164.8	294.4	385.3	380.5	325.5	294.4	275.8	274.9	302.7	348.5	409.9	456.8	468.9	454.5	411.0	347.6	306.5	318.8	372.3	284.4	159.6	123.7	110.7	222.9	892.9	2383	3019	1030	17.70	2.940	1.661	1.247	0.942	0.687	0.670	0.445	0.481	0.439	0.378	0.294	0.367	0.325	0.278	0.427	0.598	0.650	0.830	1.130	1.328	1.318	1.206	1.284	1.394	1.256	1.161	1.145	1.115	1.159	1.227	1.185	1.336	1.328	1.459	1.660	1.736	1.961	2.001	2.114	2.248	2.214	2.241	2.281	2.143	2.175	2.041	2.023	2.002
355.0	157.5	299.6	379.7	410.4	370.9	336.9	325.5	310.4	334.1	366.7	417.9	463.2	473.7	467.5	432.1	378.3	339.8	311.6	311.7	376.2	292.2	168.8	128.5	127.2	252.5	573.8	1445	3854	1551	23.06	2.915	1.716	1.262	0.798	0.739	0.466	0.569	0.432	0.475	0.394	0.362	0.411	0.339	0.448	0.573	0.727	0.810	1.138	1.282	1.309	1.260	1.364	1.528	1.340	1.258	1.499	1.417	1.397	1.359	1.402	1.473	1.705	1.670	1.686	1.799	1.824	2.157	1.914	2.096	2.455	2.308	2.253	2.137	2.162	2.047	2.209	2.257
360.0	153.8	297.9	387.8	411.3	392.0	371.9	355.9	353.8	363.6	393.4	435.0	461.6	482.9	475.0	442.8	403.5	364.1	335.4	313.2	336.6	387.1	243.8	158.4	127.5	126.1	175.3	373.7	2074	4048	325.9	14.06	2.483	1.645	1.086	0.859	0.564	0.582	0.458	0.341	0.446	0.389	0.416	0.430	0.471	0.654	0.760	0.922	1.158	1.229	1.276	1.381	1.321	1.579	1.539	1.477	1.567	1.586	1.432	1.492	1.517	1.591	1.627	1.747	1.793	1.990	1.879	2.153	2.008	2.183	2.275	2.316	2.412	2.582	2.443	2.161	2.236	2.210
365.0	162.0	284.0	398.6	430.9	412.5	397.6	380.2	374.4	387.0	414.8	445.3	476.0	487.6	480.3	456.7	421.1	385.4	362.4	328.9	320.1	375.4	351.8	206.5	147.1	116.4	99.58	125.3	545.3	2681	2768	268.2	6.278	1.990	1.549	1.038	0.790	0.540	0.535	0.460	0.495	0.374	0.362	0.395	0.531	0.538	0.796	0.929	1.189	1.181	1.249	1.391	1.536	1.526	1.590	1.651	1.499	1.816	1.647	1.569	1.679	1.610	1.816	1.818	1.865	1.925	2.159	2.120	2.282	2.087	2.241	2.271	2.447	2.525	2.599	2.337	2.218	2.427
370.0	163.7	289.3	391.8	435.3	443.1	431.6	419.2	410.8	419.3	445.3	465.7	484.9	492.0	490.5	465.4	438.3	414.8	392.5	367.1	341.8	340.1	369.0	323.4	203.7	142.2	107.9	89.87	164.3	691.8	1972	2741	1038	17.68	2.280	1.474	0.876	0.762	0.534	0.526	0.377	0.497	0.444	0.440	0.503	0.549	0.738	0.961	1.129	1.265	1.307	1.333	1.603	1.689	1.704	1.711	1.637	1.903	1.795	1.721	1.717	1.798	1.913	1.934	1.962	2.095	2.091	2.105	2.122	2.170	2.365	2.257	2.459	2.520	2.457	2.505	2.408	2.630
375.0	174.5	285.1	399.2	447.0	471.3	463.2	453.4	440.5	444.3	465.5	483.1	491.0	498.4	489.3	472.3	449.6	436.1	416.1	396.4	369.1	350.5	332.4	355.3	314.1	189.7	135.0	103.1	97.49	196.4	471.9	1150	3389	1563	23.53	2.291	1.317	0.978	0.603	0.691	0.476	0.491	0.491	0.433	0.630	0.563	0.719	0.987	1.165	1.281	1.314	1.373	1.768	1.853	1.797	1.768	1.897	1.802	1.968	1.792	1.866	1.915	2.070	2.063	1.949	2.128	2.033	2.104	2.135	2.290	2.293	2.348	2.294	2.568	2.572	2.488	2.653	2.712
380.0	171.2	280.2	406.0	466.9	474.6	476.2	474.0	467.9	455.4	476.0	490.1	495.9	503.2	487.9	478.3	460.8	444.5	431.9	412.5	387.7	363.4	336.8	327.8	358.9	261.2	162.3	123.5	97.30	97.68	142.0	292.7	1622	3417	295.2	14.86	1.954	1.210	0.782	0.733	0.609	0.554	0.564	0.492	0.563	0.655	0.787	0.902	1.089	1.363	1.299	1.353	1.723	1.973	1.812	1.734	1.889	1.987	1.849	1.995	1.910	2.066	1.977	2.070	1.848	2.163	2.141	2.053	2.161	2.278	2.414	2.387	2.446	2.607	2.463	2.610	2.655	2.813
385.0	167.3	290.1	399.8	462.5	473.8	485.1	489.8	472.0	475.3	480.1	493.2	505.6	504.2	491.0	474.4	462.6	444.7	437.0	420.4	401.7	377.9	349.9	320.7	327.7	326.1	208.1	145.1	111.0	89.17	79.05	99.16	414.6	1967	2384	246.0	7.082	1.736	1.066	0.869	0.612	0.566	0.516	0.534	0.526	0.578	0.805	0.808	1.114	1.289	1.456	1.467	1.732	1.993	1.811	1.907	1.847	1.905	1.887	1.975	2.015	2.055	1.885	2.084	1.945	2.078	2.026	1.988	2.193	2.187	2.255	2.407	2.612	2.471	2.516	2.545	2.679	2.881
390.0	169.3	290.5	405.4	465.7	495.2	500.8	502.3	493.3	482.9	487.1	496.4	499.9	497.1	484.7	474.0	456.1	442.8	438.7	424.5	409.8	386.8	363.6	329.4	307.8	309.2	283.4	194.6	137.9	108.0	84.16	68.88	124.4	492.5	1412	2109	879.8	15.93	1.826	1.106	0.827	0.659	0.500	0.532	0.592	0.582	0.845	0.855	1.135	1.367	1.354	1.504	1.778	1.888	2.015	1.959	1.952	2.033	2.086	2.091	2.134	2.127	2.029	2.145	2.193	2.098	1.989	2.060	2.150	2.229	2.273	2.370	2.291	2.551	2.604	2.686	2.696	2.636
395.0	172.6	301.9	401.3	476.9	499.6	509.9	511.5	499.1	491.1	492.4	496.3	495.3	483.5	480.0	464.1	446.8	437.9	432.2	423.4	411.2	389.3	370.1	343.0	314.6	289.1	282.5	271.3	181.8	134.0	104.3	78.92	72.56	139.4	336.2	760.1	2345	1370	21.68	1.940	1.132	0.862	0.810	0.631	0.684	0.682	0.767	1.017	1.282	1.322	1.280	1.521	1.702	1.895	1.909	1.829	2.035	2.191	2.020	2.124	2.207	2.096	2.110	2.113	2.074	2.028	1.975	2.135	2.135	2.255	2.280	2.483	2.299	2.420	2.523	2.692	2.723	2.680
400.0	173.4	295.0	401.2	456.1	508.8	517.1	515.4	498.3	494.4	492.9	495.8	489.9	478.8	472.5	456.5	442.9	429.1	426.7	421.9	403.0	389.6	373.3	348.3	323.3	289.8	268.9	283.9	237.1	160.0	122.5	92.27	69.81	68.05	100.1	191.1	987.6	2513	256.9	14.48	1.668	1.046	0.833	0.712	0.569	0.735	0.666	0.978	1.194	1.328	1.266	1.503	1.786	1.988	1.966	2.017	2.113	2.189	2.212	2.121	2.128	2.230	1.976	2.079	2.076	2.175	2.077	2.089	2.084	2.038	2.103	2.296	2.196	2.505	2.442	2.382	2.562	2.454
405.0	178.6	287.0	392.2	463.2	498.4	519.9	518.4	508.9	497.3	492.3	493.9	487.7	479.5	466.2	449.7	432.6	422.4	421.7	414.1	401.3	388.3	373.0	351.5	327.0	296.8	268.5	261.9	270.5	198.1	139.4	107.0	79.55	59.95	53.70	63.70	246.4	1248	2049	227.1	8.150	1.404	1.019	0.862	0.724	0.766	0.818	0.910	1.188	1.433	1.339	1.443	1.814	1.944	1.895	1.970	1.979	2.135	2.198	2.241	2.148	2.147	2.206	1.999	2.107	2.052	2.156	2.057	1.947	2.029	2.254	2.170	2.279	2.356	2.233	2.447	2.580	2.566
410.0	171.7	279.5	384.5	457.0	489.7	503.6	515.2	509.2	496.7	493.7	492.2	485.4	472.1	455.4	434.0	418.3	409.6	406.0	397.6	385.8	379.4	364.5	346.8	327.8	299.4	274.0	250.0	248.7	244.0	182.6	127.3	94.73	68.98	52.30	42.21	74.58	305.7	996.4	1640	859.1	16.10	1.616	1.054	0.926	0.831	0.912	0.929	1.192	1.359	1.399	1.472	1.751	1.946	1.906	1.962	2.020	2.133	2.104	2.162	2.196	2.168	2.232	2.140	2.098	2.048	2.051	2.005	1.987	2.052	2.206	2.111	2.386	2.218	2.405	2.303	2.343	2.598
