Sample:	'1
File name:	t2025032602½ðÐÇÎÛË®ÅÅ¿Ú.FD3
Run date:	'15:37:21, 03/28/2025
Operator:	Administrator
Comment:	'

Instrument
Model:	F-2700 FL Spectrophotometer
Serial number:	23B8-004
ROM Version:	4J14000 07

Instrument parameters
Measurement type:	3-D scan
Data mode:	Fluorescence
EX  Start WL:	220.0 nm
EX  End WL:	600.0 nm
EX Sampling interval:	5.0 nm
EM  Start WL:	230.0 nm
EM  End WL:	650.0 nm
EM Sampling interval:	5.0 nm
Scan speed:	12000 nm/min
EX Slit:	5.0 nm
EM Slit:	5.0 nm
PMT Voltage:	700 V
Response:	Auto 
Corrected spectra:	Off
Contour interval:	50.000

Peak integration
Integration method:	Rectangular
Sensitivity:	1
Threshold:	1.000

Peaks
No.	ApexEX/EM(nm)	Height(Data)
1	225.0/490.0	165.5
2	230.0/500.0	164.5
3	235.0/515.0	128.7
4	240.0/265.0	443.7
5	240.0/525.0	128.9
6	245.0/270.0	431.6
7	245.0/540.0	119.1
8	250.0/275.0	586.8
9	250.0/550.0	108.0
10	255.0/565.0	149.9
11	265.0/585.0	356.6
12	270.0/300.0	4748
13	270.0/595.0	364.4
14	295.0/330.0	364.6
15	300.0/335.0	323.9
16	305.0/340.0	264.1
17	310.0/350.0	204.6
18	315.0/355.0	191.5
19	320.0/360.0	186.2
20	325.0/370.0	136.9
21	330.0/375.0	129.1
22	335.0/380.0	138.7
23	340.0/385.0	111.2
24	345.0/395.0	88.57
25	350.0/400.0	98.36
26	355.0/405.0	82.93
27	365.0/420.0	68.29
28	370.0/425.0	59.89
29	375.0/430.0	46.67
30	380.0/440.0	46.02
31	385.0/445.0	40.69
32	390.0/300.0	10.18
33	390.0/450.0	31.62
34	395.0/460.0	29.21
35	400.0/465.0	25.40
36	405.0/470.0	19.16
37	410.0/480.0	17.39
38	415.0/485.0	16.22
39	420.0/490.0	12.62
40	425.0/500.0	12.12
41	430.0/505.0	11.01
42	435.0/510.0	8.516
43	440.0/300.0	7.858
44	440.0/520.0	8.221
45	445.0/525.0	7.253
46	450.0/530.0	5.726
47	455.0/540.0	5.511
48	460.0/545.0	4.300
49	470.0/560.0	2.877
50	480.0/575.0	1.833
51	485.0/580.0	1.607
52	505.0/275.0	3.653
53	535.0/270.0	43.48
54	540.0/295.0	20.31
55	545.0/300.0	20.53
56	550.0/305.0	18.47
57	585.0/325.0	3.603

Data points
	220.0	225.0	230.0	235.0	240.0	245.0	250.0	255.0	260.0	265.0	270.0	275.0	280.0	285.0	290.0	295.0	300.0	305.0	310.0	315.0	320.0	325.0	330.0	335.0	340.0	345.0	350.0	355.0	360.0	365.0	370.0	375.0	380.0	385.0	390.0	395.0	400.0	405.0	410.0	415.0	420.0	425.0	430.0	435.0	440.0	445.0	450.0	455.0	460.0	465.0	470.0	475.0	480.0	485.0	490.0	495.0	500.0	505.0	510.0	515.0	520.0	525.0	530.0	535.0	540.0	545.0	550.0	555.0	560.0	565.0	570.0	575.0	580.0	585.0	590.0	595.0	600.0
230.0	104.6	1823	3439	758.1	24.28	5.907	4.382	3.927	3.919	3.260	3.013	2.897	2.276	1.498	1.305	0.964	0.887	0.928	0.797	0.680	0.629	0.597	0.503	0.473	0.480	0.550	0.401	0.348	0.417	0.371	0.373	0.308	0.329	0.297	0.274	0.283	0.297	0.254	0.257	0.324	0.542	0.818	0.787	0.392	0.227	0.363	3.258	14.13	20.23	11.90	3.578	0.583	0.209	0.183	0.179	0.153	0.169	0.161	0.170	0.147	0.140	0.150	0.137	0.149	0.134	0.124	0.146	0.133	0.122	0.136	0.142	0.124	0.125	0.127	0.139	0.137	0.112
235.0	198.2	524.3	2264	3167	557.7	39.38	5.470	4.860	5.136	4.018	3.228	3.012	1.863	1.756	1.488	1.076	0.918	1.015	0.872	0.608	0.642	0.671	0.554	0.446	0.571	0.632	0.400	0.431	0.372	0.371	0.398	0.330	0.336	0.275	0.254	0.266	0.266	0.292	0.227	0.289	0.304	0.466	0.696	0.746	0.754	0.485	0.927	3.634	8.260	13.77	18.17	17.62	7.036	1.370	0.202	0.183	0.187	0.196	0.187	0.164	0.157	0.136	0.150	0.150	0.148	0.148	0.112	0.111	0.170	0.134	0.151	0.117	0.126	0.133	0.127	0.120	0.135
240.0	281.7	239.2	689.6	2905	3436	443.3	19.82	6.531	4.920	4.034	4.107	3.189	2.261	1.754	1.600	1.260	1.112	1.008	0.814	0.686	0.631	0.604	0.526	0.588	0.536	0.693	0.449	0.414	0.375	0.469	0.397	0.269	0.325	0.266	0.321	0.302	0.273	0.281	0.200	0.265	0.300	0.283	0.375	0.569	1.053	0.864	0.694	1.115	2.091	4.020	11.05	24.59	26.86	17.55	6.052	0.638	0.232	0.222	0.178	0.193	0.150	0.172	0.157	0.144	0.144	0.171	0.105	0.143	0.147	0.140	0.138	0.153	0.130	0.126	0.162	0.127	0.137
245.0	204.5	315.8	234.8	1029	4001	3279	317.8	12.64	7.027	5.045	4.549	3.665	2.780	2.040	1.867	1.313	1.027	0.767	0.920	0.673	0.715	0.784	0.613	0.581	0.553	0.657	0.435	0.412	0.497	0.432	0.393	0.376	0.343	0.290	0.311	0.331	0.306	0.302	0.234	0.296	0.326	0.229	0.297	0.331	0.627	0.903	1.138	0.976	0.772	1.092	2.748	8.463	21.27	33.92	26.70	15.43	3.846	0.334	0.169	0.185	0.149	0.152	0.188	0.166	0.145	0.165	0.167	0.175	0.162	0.132	0.147	0.177	0.124	0.132	0.141	0.136	0.150
250.0	74.67	234.1	316.5	340.8	1329	3367	4279	1360	59.98	7.886	6.241	4.538	3.507	2.267	2.136	1.370	1.271	1.002	0.937	0.854	0.736	0.728	0.628	0.568	0.617	0.661	0.459	0.499	0.536	0.479	0.451	0.441	0.322	0.337	0.330	0.293	0.273	0.319	0.282	0.298	0.300	0.270	0.242	0.279	0.317	0.454	0.689	1.019	1.221	1.023	1.070	2.138	5.258	11.08	19.67	31.06	35.01	18.53	9.322	2.249	0.313	0.178	0.197	0.173	0.162	0.174	0.180	0.159	0.161	0.112	0.173	0.187	0.153	0.134	0.182	0.159	0.174
255.0	36.17	72.90	231.9	411.8	399.0	865.9	3597	7988	1644	55.26	9.107	6.582	4.428	2.881	2.227	1.851	1.395	1.128	1.096	0.886	1.004	0.875	0.590	0.529	0.594	0.657	0.515	0.561	0.512	0.506	0.433	0.442	0.420	0.316	0.452	0.335	0.293	0.310	0.336	0.267	0.297	0.292	0.205	0.300	0.261	0.321	0.341	0.417	0.593	1.211	1.559	1.856	1.752	2.701	4.596	7.466	14.37	29.56	40.33	27.15	13.50	2.312	0.277	0.267	0.187	0.203	0.186	0.135	0.206	0.152	0.215	0.188	0.127	0.160	0.179	0.170	0.147
260.0	28.17	30.52	89.86	348.1	381.6	246.9	1097	6563	6994	273.0	26.37	7.469	5.094	3.559	2.426	2.017	1.588	1.369	1.183	1.107	0.929	0.779	0.655	0.630	0.659	0.864	0.588	0.485	0.535	0.491	0.430	0.390	0.411	0.362	0.364	0.362	0.336	0.341	0.362	0.302	0.306	0.292	0.238	0.259	0.255	0.314	0.287	0.279	0.344	0.493	1.033	2.052	2.142	1.465	1.363	1.847	3.568	8.097	19.90	39.52	48.72	25.05	9.996	1.288	0.217	0.199	0.209	0.200	0.222	0.198	0.212	0.185	0.115	0.163	0.163	0.151	0.144
265.0	27.61	22.50	35.44	164.6	443.7	263.3	287.4	2250	7502	6393	216.7	14.47	8.198	4.590	3.146	2.572	1.891	1.294	1.235	1.156	0.989	0.964	0.741	0.776	0.587	0.941	0.513	0.496	0.586	0.516	0.471	0.513	0.423	0.488	0.384	0.331	0.321	0.375	0.324	0.353	0.327	0.333	0.289	0.316	0.269	0.313	0.239	0.229	0.266	0.256	0.414	0.978	1.946	2.399	1.686	0.908	1.071	2.110	4.795	12.33	31.96	50.79	32.94	21.64	5.517	0.452	0.260	0.283	0.201	0.177	0.190	0.176	0.168	0.243	0.225	0.190	0.181
270.0	46.51	30.67	24.24	55.35	213.0	431.6	314.0	567.2	2352	6622	7563	850.8	56.91	7.981	4.245	3.365	2.448	1.857	1.457	1.328	1.053	1.088	0.887	0.828	0.728	0.979	0.653	0.647	0.585	0.539	0.471	0.585	0.467	0.582	0.423	0.486	0.386	0.442	0.345	0.325	0.382	0.337	0.346	0.315	0.291	0.347	0.274	0.316	0.265	0.238	0.250	0.405	0.700	1.307	1.888	2.145	1.888	1.241	1.436	3.100	7.657	15.84	25.83	43.48	41.04	33.02	14.47	4.747	0.690	0.306	0.263	0.197	0.190	0.232	0.291	0.215	0.207
275.0	239.7	138.3	65.98	54.59	82.37	209.1	586.8	427.4	708.1	1831	5751	9999.9	1262	55.10	7.478	5.281	3.382	2.741	2.051	1.701	1.264	1.134	1.097	0.890	0.919	1.064	0.751	0.716	0.674	0.625	0.573	0.734	1.063	1.133	0.874	0.893	0.634	0.642	0.679	0.630	0.718	0.701	0.684	0.788	0.684	0.705	0.508	0.442	0.461	0.435	0.327	0.305	0.412	0.614	0.765	1.108	2.239	3.653	2.704	1.658	2.593	4.575	6.855	11.13	15.99	26.98	49.79	32.68	22.72	5.450	0.671	0.319	0.257	0.294	0.253	0.318	0.261
280.0	800.6	446.5	249.7	163.5	124.1	162.1	493.5	928.7	816.8	1192	2425	8437	9999.9	885.9	24.80	7.407	4.972	3.483	2.484	2.013	1.519	1.477	1.223	1.131	1.055	1.304	0.689	0.708	0.717	0.636	0.762	1.186	2.177	2.483	2.423	1.893	1.702	1.573	1.592	1.566	1.791	1.656	1.774	1.689	1.781	1.792	1.389	1.199	0.964	0.718	0.673	0.604	0.623	0.694	0.687	0.834	1.507	2.851	4.551	4.669	3.597	3.657	4.512	5.996	7.613	10.27	21.11	38.81	65.24	32.35	17.74	2.871	0.455	0.409	0.388	0.368	0.384
285.0	1576	981.5	550.1	358.6	253.2	239.5	451.8	1163	1645	1804	2182	3830	9999.9	7489	125.7	13.44	6.608	4.277	3.154	2.646	1.881	1.597	1.338	1.223	1.223	1.424	0.869	0.853	0.772	0.945	0.997	1.835	3.849	4.853	4.679	3.665	2.917	2.831	2.869	2.895	2.883	3.372	3.235	3.502	3.454	3.159	2.649	2.161	1.704	1.419	1.261	1.319	1.107	1.084	1.071	1.167	1.819	2.283	4.002	5.884	7.847	7.074	7.108	8.167	8.708	9.306	11.03	16.00	34.31	57.07	68.18	29.11	12.46	1.479	0.498	0.513	0.463
290.0	2655	1650	1002	652.9	425.2	368.9	598.4	1233	2350	3209	3281	3108	3753	6898	6998	1865	34.01	6.188	4.616	3.111	2.308	1.933	1.710	1.406	1.314	1.717	1.083	0.951	0.919	0.902	1.177	2.861	5.616	7.874	7.581	5.672	4.952	4.700	4.387	4.638	4.799	5.283	5.569	5.887	5.637	4.999	4.230	3.710	2.804	2.383	2.196	2.260	1.937	1.697	1.516	1.763	2.291	2.945	4.337	6.026	8.522	11.37	13.26	14.48	14.29	13.10	12.95	12.99	14.65	18.57	31.49	44.79	59.37	51.44	19.56	9.953	1.929
295.0	3313	2188	1308	866.9	560.2	466.8	722.9	1374	2453	3905	4441	3433	2020	1896	4520	9335	721.4	34.72	6.324	4.271	3.175	2.657	2.078	1.850	1.513	2.054	1.319	1.008	1.058	1.048	1.353	3.428	7.235	9.888	9.600	7.277	6.536	5.737	5.253	5.567	6.299	6.488	7.018	7.441	6.994	6.401	5.243	4.697	3.946	3.172	2.870	2.893	2.335	2.046	1.778	2.060	2.629	3.781	4.930	6.460	8.807	11.27	14.05	17.55	20.31	18.14	15.12	14.10	11.40	8.802	9.498	11.66	16.35	31.12	61.89	81.31	32.25
300.0	3383	2247	1426	932.7	613.9	479.5	752.2	1376	2384	3702	4748	3771	1692	765.3	1260	6437	6041	567.9	17.94	5.634	4.300	3.310	2.231	2.112	1.846	2.114	1.494	1.030	1.153	1.137	1.414	3.699	7.627	10.11	10.18	8.064	6.783	6.334	5.728	5.749	6.666	6.594	7.210	7.680	7.858	6.576	5.719	5.016	4.233	3.500	3.055	3.245	2.428	2.155	1.958	2.119	2.914	3.816	5.089	6.737	8.689	11.34	13.45	16.88	19.69	20.53	18.35	15.05	11.08	6.757	4.662	4.256	4.895	8.128	19.42	48.09	79.02
305.0	3167	2160	1386	912.8	593.6	464.6	690.7	1280	2201	3306	4187	3919	1674	529.4	398.2	1845	6938	5171	80.02	9.307	5.634	3.798	2.672	2.552	1.850	2.547	1.497	1.287	1.086	1.135	1.613	3.748	7.346	9.874	9.840	8.092	6.943	6.012	5.756	5.904	6.257	6.237	7.097	7.299	7.490	6.408	5.751	5.043	4.065	3.267	3.049	3.106	2.610	2.051	1.895	2.221	2.863	3.335	4.534	6.272	8.065	10.70	12.34	14.66	17.09	17.80	18.47	16.68	11.60	6.254	3.759	2.682	2.391	2.932	5.133	12.09	28.17
310.0	2684	1881	1217	793.5	512.8	394.1	572.4	1042	1800	2708	3283	3130	1826	594.5	215.5	465.0	1958	5043	5652	1473	24.53	5.150	3.431	2.956	2.438	2.756	1.747	1.395	1.229	1.183	1.624	3.239	6.453	8.642	8.537	7.185	6.111	5.192	4.832	4.962	5.201	5.516	5.879	6.230	6.189	5.734	4.661	4.421	3.728	2.837	2.591	2.722	2.350	1.840	1.640	1.832	2.439	2.784	3.786	5.154	6.786	8.659	10.34	12.02	13.69	13.68	13.34	13.09	11.17	7.802	4.731	2.769	1.830	1.683	1.976	3.406	6.929
315.0	2113	1510	988.7	623.4	402.9	309.2	437.6	786.1	1349	2030	2433	2205	1373	874.7	255.0	157.0	464.8	1181	3533	7159	525.9	24.20	5.094	3.520	3.003	3.103	2.117	1.692	1.235	1.383	1.557	2.812	4.966	6.900	6.960	6.037	5.044	4.588	4.291	4.100	4.144	4.558	4.539	4.898	4.825	4.542	3.700	3.704	3.122	2.511	2.086	2.229	1.903	1.706	1.544	1.308	1.772	2.256	3.117	4.010	5.107	6.517	7.785	9.252	10.60	10.19	9.700	9.325	7.608	5.798	5.413	4.874	2.837	1.662	1.210	1.400	2.131
320.0	1692	1198	824.9	520.5	332.5	251.9	346.0	608.5	1044	1566	1891	1681	988.6	754.7	474.0	112.6	130.2	283.6	910.2	4791	6223	431.6	11.77	4.617	3.695	3.753	2.131	1.799	1.543	1.370	1.517	2.262	4.103	5.389	5.830	4.986	4.385	3.832	3.411	3.234	3.466	3.466	3.834	3.866	3.847	3.815	3.157	3.012	2.470	2.078	1.780	1.820	1.579	1.336	1.122	1.132	1.484	1.900	2.572	3.188	4.145	5.105	6.206	7.212	7.751	8.218	7.346	7.172	5.742	4.103	3.530	4.406	4.263	2.895	1.334	0.999	1.017
325.0	1404	1010	670.1	436.3	281.2	203.5	273.9	480.1	817.4	1217	1462	1313	752.3	468.7	558.3	231.7	60.05	81.16	220.6	1347	5659	3929	61.49	6.987	4.519	4.180	2.685	2.053	1.692	1.402	1.512	2.295	3.667	4.755	4.790	4.137	3.844	3.247	3.018	2.815	2.659	3.044	3.038	3.165	3.170	3.150	2.805	2.538	2.220	1.899	1.498	1.579	1.367	1.291	1.100	0.947	1.181	1.595	2.076	2.364	3.273	3.918	4.684	5.677	6.090	6.501	5.955	5.855	4.524	3.316	2.398	2.362	2.940	3.603	2.809	1.405	0.745
330.0	1081	772.7	537.9	345.5	217.2	155.9	197.6	345.4	586.5	865.2	1057	959.5	560.1	295.7	301.4	364.6	167.1	43.24	63.55	315.1	1569	4052	4610	1189	19.78	6.159	3.202	2.451	1.848	1.674	1.633	1.913	2.664	3.912	3.877	3.517	3.161	2.593	2.436	2.258	2.224	2.338	2.454	2.395	2.518	2.432	2.203	2.011	1.747	1.431	1.251	1.205	1.040	0.956	0.885	0.848	0.914	1.196	1.578	1.870	2.421	2.848	3.548	3.892	4.480	4.562	4.381	4.401	3.498	2.486	1.890	1.639	1.535	1.830	2.230	2.604	2.353
335.0	818.4	573.4	417.7	274.1	169.8	120.0	143.8	235.1	394.2	593.0	734.5	677.0	411.3	215.0	148.1	188.3	323.9	90.30	30.01	82.41	360.7	947.0	3074	6041	436.0	24.07	4.497	3.192	2.252	1.937	1.694	2.078	2.525	3.240	3.034	2.796	2.269	2.156	2.009	1.664	1.623	1.909	1.789	1.875	2.174	1.754	1.701	1.674	1.481	1.143	1.020	1.120	0.879	0.850	0.779	0.600	0.853	1.059	1.153	1.336	1.834	2.058	2.482	2.813	3.478	3.257	3.141	3.042	2.490	2.088	1.497	1.247	1.058	1.037	0.924	1.235	2.025
340.0	658.1	469.5	337.3	229.8	142.3	100.4	115.6	178.7	297.7	436.5	540.7	511.8	324.1	178.2	103.3	89.19	224.3	264.1	59.11	29.97	91.48	222.4	800.2	4271	5532	377.1	9.100	3.718	2.833	2.207	2.045	1.979	2.304	2.701	2.664	2.534	1.990	2.002	1.681	1.531	1.522	1.471	1.501	1.370	1.651	1.579	1.388	1.397	1.253	1.099	0.871	0.924	0.765	0.689	0.735	0.574	0.676	0.866	0.916	1.101	1.381	1.636	1.946	2.305	2.493	2.605	2.407	2.445	2.068	1.705	1.268	0.994	0.906	0.711	0.715	0.740	0.929
345.0	538.7	411.9	288.1	198.3	122.4	84.59	93.84	145.7	234.8	338.3	421.9	393.1	267.8	149.0	85.07	56.73	96.23	258.8	170.4	27.51	30.10	59.40	188.9	1220	5249	3460	52.63	5.608	3.213	2.751	2.370	1.773	2.161	2.371	2.416	2.232	1.899	1.624	1.381	1.495	1.386	1.274	1.399	1.193	1.298	1.421	1.272	1.165	1.005	0.947	0.802	0.812	0.742	0.609	0.551	0.541	0.672	0.620	0.822	0.890	1.023	1.298	1.407	1.611	2.106	1.966	1.826	1.911	1.700	1.331	1.201	0.938	0.833	0.680	0.626	0.554	0.689
350.0	422.0	333.6	233.4	158.9	100.3	68.76	70.28	108.5	162.9	240.9	306.1	290.8	201.5	122.4	69.58	45.72	43.56	107.7	204.6	123.2	27.94	21.98	51.47	282.5	1502	5444	3888	951.8	16.17	3.398	2.846	2.257	1.987	2.299	2.102	1.933	1.714	1.490	1.246	1.262	1.090	1.158	1.177	1.026	1.229	1.194	0.997	1.013	0.907	0.809	0.650	0.652	0.604	0.526	0.496	0.448	0.511	0.575	0.617	0.641	0.796	1.008	1.043	1.252	1.469	1.396	1.412	1.354	1.316	0.979	0.934	0.763	0.676	0.620	0.571	0.513	0.468
355.0	335.7	282.4	203.0	137.8	82.35	57.49	57.13	80.46	115.8	174.8	215.5	213.1	152.1	99.35	60.11	39.87	28.85	40.22	84.80	191.5	109.9	19.43	19.57	71.05	342.3	1280	2797	4953	385.4	14.83	3.583	2.948	2.122	2.078	1.943	1.766	1.555	1.290	1.143	1.081	1.071	0.957	1.024	0.944	0.999	0.952	0.866	0.886	0.791	0.646	0.603	0.633	0.570	0.464	0.482	0.361	0.491	0.423	0.483	0.588	0.593	0.772	0.809	0.911	1.114	1.053	1.171	1.043	1.000	0.783	0.815	0.606	0.603	0.525	0.536	0.354	0.360
360.0	301.3	237.3	172.2	123.9	80.23	53.26	50.63	64.29	92.53	132.7	171.7	164.5	125.3	87.23	54.04	35.52	25.75	24.76	35.98	115.0	186.2	52.51	12.61	22.96	84.21	295.6	749.9	3826	3271	307.5	6.895	3.348	2.460	2.222	1.919	1.696	1.484	1.347	0.977	1.074	0.926	0.893	0.923	0.865	0.802	0.857	0.872	0.848	0.645	0.571	0.529	0.599	0.457	0.444	0.477	0.394	0.415	0.386	0.509	0.498	0.421	0.677	0.801	0.779	0.956	0.785	0.901	0.914	0.930	0.725	0.682	0.452	0.517	0.501	0.453	0.367	0.425
365.0	255.6	201.8	152.1	106.9	79.86	52.46	48.57	55.05	76.60	110.2	138.1	138.3	104.2	75.05	48.47	34.02	24.27	21.29	22.23	48.37	157.1	136.8	25.17	13.06	26.48	75.55	175.9	1144	4292	2962	48.15	4.278	3.101	2.327	1.927	1.631	1.434	1.293	1.037	1.033	0.969	0.894	0.907	0.798	0.732	0.743	0.810	0.769	0.669	0.555	0.566	0.451	0.518	0.484	0.436	0.399	0.456	0.356	0.438	0.472	0.524	0.620	0.701	0.779	0.834	0.735	0.824	0.791	0.727	0.757	0.584	0.523	0.397	0.455	0.394	0.336	0.357
370.0	219.6	191.1	141.5	96.43	73.00	48.63	42.77	46.70	61.77	84.62	105.8	107.0	87.54	63.79	44.67	33.41	26.02	22.28	19.92	25.87	65.09	136.9	99.26	25.99	13.16	24.94	46.15	263.7	1289	3405	3545	768.3	12.91	2.997	2.251	1.939	1.475	1.237	1.112	0.996	0.902	0.839	0.853	0.737	0.746	0.728	0.647	0.684	0.621	0.524	0.494	0.501	0.483	0.417	0.427	0.415	0.391	0.361	0.423	0.392	0.475	0.495	0.644	0.682	0.624	0.704	0.650	0.663	0.633	0.585	0.507	0.525	0.478	0.460	0.386	0.357	0.374
375.0	205.5	175.9	121.2	94.58	64.57	48.05	39.65	40.08	48.22	64.21	83.51	83.74	69.89	54.61	42.78	33.66	27.74	23.26	21.17	20.96	27.96	56.14	129.1	96.65	18.02	12.58	15.96	64.59	293.4	810.6	2756	4217	323.3	11.59	2.819	2.312	1.625	1.241	1.176	0.849	0.849	0.787	0.832	0.727	0.640	0.684	0.594	0.643	0.727	0.481	0.440	0.498	0.419	0.433	0.402	0.391	0.407	0.430	0.386	0.383	0.410	0.465	0.507	0.471	0.573	0.565	0.544	0.528	0.547	0.527	0.455	0.429	0.396	0.478	0.414	0.344	0.406
380.0	189.7	152.3	114.3	88.43	64.21	45.99	41.63	38.33	43.77	55.70	67.99	72.71	64.01	52.64	39.56	33.27	28.87	24.96	23.51	20.83	20.14	27.40	74.40	138.7	50.47	11.25	8.924	19.93	70.74	187.4	752.5	3456	2791	245.6	5.206	2.766	1.925	1.367	1.170	0.970	0.889	0.840	0.780	0.825	0.644	0.676	0.638	0.609	0.626	0.449	0.482	0.500	0.395	0.474	0.384	0.365	0.399	0.344	0.313	0.369	0.400	0.390	0.502	0.470	0.528	0.399	0.452	0.554	0.445	0.438	0.442	0.413	0.453	0.449	0.394	0.407	0.357
385.0	171.7	135.9	114.3	84.52	66.43	44.81	38.58	36.78	38.98	46.59	57.57	60.63	57.60	47.40	38.60	33.59	29.90	26.55	24.11	21.17	19.07	19.20	33.54	104.6	111.2	26.10	7.323	8.839	20.51	47.13	175.1	1060	3547	2350	37.74	3.216	2.224	1.571	1.283	1.109	0.786	0.973	0.857	0.834	0.625	0.604	0.528	0.592	0.553	0.550	0.426	0.396	0.415	0.458	0.364	0.344	0.433	0.392	0.338	0.343	0.403	0.357	0.473	0.482	0.452	0.382	0.446	0.438	0.438	0.449	0.398	0.499	0.442	0.431	0.391	0.423	0.377
390.0	163.8	128.6	108.6	80.96	61.91	45.52	36.90	34.28	34.65	40.00	48.16	51.57	49.07	43.29	35.37	32.91	29.71	28.19	25.25	22.88	20.21	18.06	19.45	42.27	96.09	80.56	23.13	6.631	8.477	14.86	43.72	242.8	1064	2582	2543	160.3	9.976	2.020	1.764	1.178	1.105	0.987	0.888	0.796	0.674	0.627	0.644	0.571	0.607	0.500	0.420	0.424	0.428	0.419	0.409	0.411	0.425	0.365	0.378	0.350	0.354	0.394	0.377	0.420	0.419	0.346	0.417	0.403	0.388	0.409	0.377	0.402	0.440	0.460	0.462	0.474	0.364
395.0	142.1	126.6	104.2	73.83	61.53	45.05	34.34	31.15	30.40	34.08	43.51	43.62	42.46	39.38	34.06	31.93	29.80	27.83	26.50	23.48	20.72	18.53	15.85	19.34	37.05	88.57	77.70	15.08	5.559	7.029	13.81	57.95	240.9	615.8	1982	2925	264.2	8.361	1.942	1.582	1.251	0.904	1.033	0.820	0.743	0.782	0.624	0.598	0.643	0.473	0.457	0.401	0.513	0.419	0.364	0.361	0.400	0.341	0.338	0.304	0.295	0.264	0.355	0.386	0.328	0.393	0.363	0.372	0.402	0.367	0.351	0.360	0.420	0.521	0.407	0.534	0.600
400.0	139.3	116.8	97.44	73.07	63.57	43.60	36.47	28.12	28.54	30.20	38.90	40.72	37.99	36.99	33.34	31.86	29.69	27.50	25.56	23.09	20.65	18.25	14.84	14.06	16.90	48.75	98.36	44.77	7.112	5.153	6.537	16.61	56.85	141.6	543.9	2440	2251	200.1	3.610	1.810	1.422	1.150	1.006	0.817	0.831	0.731	0.615	0.630	0.629	0.485	0.424	0.391	0.433	0.372	0.407	0.403	0.395	0.359	0.394	0.314	0.344	0.275	0.382	0.363	0.334	0.406	0.337	0.385	0.412	0.356	0.362	0.371	0.376	0.432	0.332	0.421	0.608
405.0	129.1	107.2	95.51	68.57	62.66	42.17	36.09	27.44	27.54	29.69	35.59	36.28	36.11	35.45	32.18	30.80	29.22	27.27	25.76	23.60	20.93	17.72	14.66	12.74	11.97	24.06	66.56	82.93	21.51	4.456	4.625	6.929	15.77	34.87	126.7	744.3	2593	1867	32.42	2.553	1.464	1.398	1.182	0.859	0.739	0.705	0.615	0.642	0.556	0.498	0.401	0.497	0.426	0.406	0.366	0.386	0.385	0.354	0.329	0.279	0.322	0.310	0.325	0.320	0.309	0.285	0.323	0.319	0.292	0.380	0.375	0.362	0.362	0.295	0.309	0.349	0.414
410.0	121.7	102.6	91.97	67.74	57.60	39.86	32.00	27.48	23.57	26.32	32.00	32.64	32.80	31.93	30.09	29.15	28.53	25.80	25.28	22.61	19.82	16.94	14.39	11.55	9.907	15.33	25.65	65.72	61.91	18.94	4.391	4.122	6.400	10.65	31.99	170.5	769.9	1911	1914	150.2	8.336	1.523	1.218	1.009	0.862	0.788	0.622	0.584	0.620	0.505	0.433	0.469	0.367	0.402	0.378	0.376	0.357	0.311	0.331	0.299	0.320	0.261	0.302	0.276	0.323	0.316	0.282	0.336	0.297	0.313	0.392	0.331	0.339	0.316	0.317	0.384	0.380
