Sample:	'1
File name:	g2025090304月四会四东南雨水井 50倍.FD3
Run date:	'13:46:21, 09/03/2025
Operator:	Administrator
Comment:	'

Instrument
Model:	F-2700 FL Spectrophotometer
Serial number:	23B8-004
ROM Version:	4J14000 07

Instrument parameters
Measurement type:	3-D scan
Data mode:	Fluorescence
EX  Start WL:	220.0 nm
EX  End WL:	600.0 nm
EX Sampling interval:	5.0 nm
EM  Start WL:	230.0 nm
EM  End WL:	650.0 nm
EM Sampling interval:	5.0 nm
Scan speed:	12000 nm/min
EX Slit:	5.0 nm
EM Slit:	5.0 nm
PMT Voltage:	700 V
Response:	Auto 
Corrected spectra:	Off
Contour interval:	50.000

Peak integration
Integration method:	Rectangular
Sensitivity:	1
Threshold:	1.000

Peaks
No.	ApexEX/EM(nm)	Height(Data)
1	230.0/250.0	319.9
2	230.0/500.0	182.1
3	230.0/545.0	18.71
4	235.0/255.0	414.3
5	235.0/515.0	157.9
6	240.0/265.0	459.5
7	240.0/525.0	149.8
8	245.0/270.0	442.1
9	245.0/540.0	134.0
10	250.0/275.0	606.6
11	250.0/550.0	115.8
12	255.0/565.0	165.4
13	270.0/300.0	9386
14	270.0/600.0	653.6
15	275.0/305.0	9441
16	315.0/355.0	326.3
17	320.0/360.0	291.4
18	325.0/370.0	225.9
19	330.0/375.0	202.9
20	335.0/380.0	198.5
21	350.0/400.0	123.4
22	355.0/405.0	105.2
23	360.0/410.0	84.85
24	365.0/420.0	82.61
25	370.0/425.0	74.27
26	375.0/430.0	54.43
27	380.0/435.0	52.97
28	385.0/445.0	47.79
29	390.0/305.0	14.92
30	390.0/450.0	37.00
31	395.0/455.0	32.77
32	400.0/465.0	30.25
33	405.0/470.0	23.50
34	410.0/475.0	20.54
35	415.0/485.0	19.82
36	420.0/490.0	16.43
37	425.0/495.0	15.43
38	430.0/505.0	14.82
39	435.0/510.0	12.96
40	440.0/305.0	12.87
41	440.0/520.0	12.40
42	445.0/525.0	11.73
43	450.0/530.0	10.20
44	455.0/540.0	9.468
45	460.0/545.0	8.176
46	475.0/260.0	1.952
47	485.0/265.0	2.342
48	495.0/270.0	2.267
49	505.0/275.0	3.786
50	545.0/300.0	40.53
51	545.0/600.0	3.198
52	550.0/305.0	42.06
53	550.0/605.0	2.974

Data points
	220.0	225.0	230.0	235.0	240.0	245.0	250.0	255.0	260.0	265.0	270.0	275.0	280.0	285.0	290.0	295.0	300.0	305.0	310.0	315.0	320.0	325.0	330.0	335.0	340.0	345.0	350.0	355.0	360.0	365.0	370.0	375.0	380.0	385.0	390.0	395.0	400.0	405.0	410.0	415.0	420.0	425.0	430.0	435.0	440.0	445.0	450.0	455.0	460.0	465.0	470.0	475.0	480.0	485.0	490.0	495.0	500.0	505.0	510.0	515.0	520.0	525.0	530.0	535.0	540.0	545.0	550.0	555.0	560.0	565.0	570.0	575.0	580.0	585.0	590.0	595.0	600.0
230.0	55.38	603.7	1747	580.7	26.21	2.517	1.929	1.845	2.079	2.407	2.513	2.675	2.178	1.327	0.712	0.626	0.439	0.446	0.384	0.267	0.182	0.250	0.217	0.167	0.159	0.154	0.154	0.122	0.120	0.136	0.140	0.111	0.111	0.131	0.114	0.111	0.124	0.120	0.123	0.125	0.233	0.594	0.603	0.287	0.162	0.083	0.541	3.107	5.808	4.370	1.748	0.321	0.074	0.057	0.073	0.062	0.078	0.065	0.059	0.067	0.065	0.043	0.050	0.049	0.059	0.045	0.058	0.053	0.068	0.054	0.038	0.048	0.052	0.052	0.059	0.047	0.059
235.0	195.0	189.9	927.8	1599	497.0	42.51	2.493	2.262	2.545	2.177	2.694	3.182	2.392	1.425	0.693	0.511	0.494	0.364	0.414	0.228	0.209	0.223	0.159	0.180	0.240	0.288	0.138	0.118	0.109	0.154	0.108	0.070	0.131	0.153	0.112	0.109	0.155	0.202	0.138	0.162	0.146	0.248	0.438	0.567	0.546	0.246	0.254	0.799	1.929	3.259	5.375	5.799	3.082	0.567	0.065	0.057	0.073	0.090	0.042	0.068	0.090	0.048	0.056	0.044	0.053	0.055	0.069	0.071	0.054	0.033	0.030	0.059	0.061	0.030	0.052	0.048	0.048
240.0	257.6	186.3	268.5	1161	1753	386.3	17.96	3.358	3.324	3.254	3.659	3.828	2.125	1.449	0.867	0.574	0.517	0.438	0.301	0.222	0.325	0.244	0.194	0.215	0.136	0.198	0.127	0.155	0.119	0.086	0.097	0.095	0.055	0.092	0.117	0.156	0.113	0.155	0.134	0.105	0.091	0.110	0.188	0.308	0.671	0.757	0.499	0.307	0.531	0.952	2.454	6.073	8.447	6.156	2.470	0.352	0.086	0.064	0.052	0.068	0.064	0.049	0.076	0.097	0.046	0.046	0.081	0.059	0.079	0.107	0.044	0.032	0.032	0.032	0.062	0.046	0.055
245.0	150.8	302.7	167.1	368.6	1620	1728	282.6	8.957	3.314	4.374	3.927	3.446	2.208	1.203	1.142	0.600	0.506	0.390	0.326	0.238	0.280	0.247	0.324	0.184	0.146	0.166	0.103	0.107	0.134	0.138	0.095	0.208	0.087	0.144	0.110	0.140	0.100	0.147	0.120	0.133	0.104	0.098	0.147	0.149	0.342	0.653	0.900	0.879	0.386	0.351	0.643	1.875	4.539	8.442	9.888	5.281	1.791	0.238	0.096	0.095	0.086	0.046	0.081	0.078	0.031	0.052	0.068	0.067	0.058	0.075	0.067	0.086	0.040	0.046	0.029	0.031	0.069
250.0	50.00	190.3	319.9	217.5	497.4	1456	1945	770.7	54.46	5.294	5.048	4.354	2.912	1.604	1.075	0.675	0.575	0.475	0.381	0.330	0.273	0.284	0.262	0.239	0.204	0.187	0.134	0.103	0.130	0.113	0.124	0.119	0.131	0.145	0.120	0.144	0.090	0.095	0.102	0.171	0.169	0.084	0.133	0.172	0.181	0.273	0.457	0.751	1.071	0.930	0.614	0.639	1.148	2.503	4.782	7.169	9.582	9.279	5.301	1.801	0.280	0.057	0.078	0.064	0.083	0.051	0.076	0.059	0.046	0.058	0.070	0.054	0.062	0.063	0.033	0.046	0.079
255.0	22.98	54.16	207.4	414.3	240.0	367.3	1265	2774	1118	49.85	7.238	6.330	3.524	2.124	1.253	0.964	0.764	0.581	0.528	0.335	0.355	0.408	0.311	0.227	0.227	0.208	0.191	0.164	0.152	0.131	0.107	0.114	0.099	0.113	0.124	0.123	0.112	0.093	0.086	0.120	0.128	0.071	0.139	0.145	0.129	0.135	0.185	0.237	0.402	0.797	1.501	1.770	0.803	0.728	1.153	1.768	2.942	6.804	13.03	15.92	8.677	2.235	0.334	0.120	0.061	0.044	0.073	0.072	0.042	0.061	0.082	0.025	0.038	0.036	0.047	0.039	0.080
260.0	17.69	20.85	72.98	321.4	395.0	159.4	368.5	1983	3297	255.2	22.62	7.347	3.782	2.397	1.472	1.104	0.826	0.697	0.422	0.321	0.398	0.326	0.298	0.309	0.177	0.214	0.183	0.172	0.152	0.164	0.135	0.110	0.146	0.116	0.128	0.130	0.068	0.079	0.068	0.101	0.147	0.121	0.090	0.114	0.195	0.078	0.094	0.160	0.143	0.311	0.838	1.952	1.930	1.202	0.565	0.531	0.756	1.725	4.794	11.99	17.25	15.88	7.050	1.314	0.108	0.108	0.094	0.094	0.087	0.065	0.044	0.113	0.048	0.050	0.064	0.056	0.119
265.0	12.31	13.54	24.89	134.0	459.5	302.6	122.4	628.5	3002	2006	197.6	14.29	5.393	3.224	2.088	1.180	1.124	0.784	0.425	0.462	0.482	0.444	0.306	0.275	0.223	0.205	0.177	0.196	0.127	0.229	0.153	0.114	0.168	0.160	0.161	0.133	0.072	0.123	0.049	0.107	0.106	0.091	0.123	0.142	0.119	0.085	0.141	0.108	0.117	0.129	0.302	0.807	1.760	2.342	1.825	0.705	0.340	0.519	1.175	3.220	7.374	15.14	20.33	15.05	4.362	0.563	0.128	0.116	0.085	0.068	0.068	0.117	0.057	0.032	0.066	0.065	0.087
270.0	36.90	23.56	18.24	41.12	194.2	442.1	300.9	201.0	919.3	2258	2710	798.5	47.14	5.683	2.855	1.763	1.142	0.902	0.629	0.584	0.518	0.353	0.401	0.262	0.247	0.224	0.267	0.250	0.137	0.216	0.150	0.165	0.176	0.198	0.181	0.207	0.236	0.124	0.101	0.142	0.128	0.107	0.205	0.161	0.155	0.168	0.210	0.124	0.095	0.094	0.169	0.262	0.584	1.135	1.867	2.267	2.073	1.121	0.595	0.938	1.855	4.177	8.260	13.37	16.58	16.60	11.01	4.057	0.544	0.128	0.089	0.128	0.066	0.063	0.091	0.053	0.081
275.0	255.4	151.2	71.95	42.83	72.86	197.7	606.6	355.7	412.5	842.7	2125	6567	995.8	52.79	5.518	2.735	1.757	1.068	0.866	0.821	0.724	0.509	0.489	0.311	0.403	0.299	0.285	0.228	0.154	0.196	0.238	0.324	0.564	0.629	0.665	0.619	0.527	0.511	0.526	0.474	0.563	0.448	0.538	0.600	0.651	0.535	0.434	0.383	0.321	0.234	0.167	0.265	0.350	0.386	0.621	1.003	2.164	3.786	3.244	1.624	1.334	1.917	3.046	4.274	5.841	9.741	19.44	24.93	16.33	4.806	0.604	0.220	0.158	0.097	0.089	0.112	0.102
280.0	938.5	586.9	268.6	111.2	87.36	155.8	513.5	1050	925.6	1198	1719	5319	4464	700.3	25.25	4.710	2.490	1.521	1.202	1.036	0.691	0.616	0.567	0.516	0.519	0.314	0.303	0.304	0.312	0.279	0.271	0.592	1.251	1.818	1.982	1.793	1.552	1.719	1.659	1.579	1.447	1.694	1.792	1.897	1.861	1.613	1.466	1.085	0.845	0.578	0.424	0.395	0.338	0.444	0.523	0.843	1.326	2.770	4.981	5.363	4.091	3.961	4.316	5.422	6.784	7.267	10.73	17.30	27.10	26.90	13.78	2.553	0.391	0.232	0.160	0.219	0.181
285.0	2066	1336	620.1	253.7	158.9	250.7	511.4	1377	2075	2150	2877	3666	4731	3758	114.3	11.02	3.321	2.503	1.499	1.310	0.896	0.878	0.676	0.691	0.578	0.493	0.435	0.423	0.414	0.296	0.459	1.068	2.365	3.571	4.692	4.235	4.123	3.643	3.557	3.319	3.309	3.276	3.848	3.971	4.111	3.831	3.293	2.491	1.807	1.158	0.856	0.688	0.570	0.687	0.826	1.141	1.768	2.703	4.384	6.799	9.515	9.738	9.129	10.68	12.52	12.48	12.73	13.72	16.84	23.23	30.43	22.82	8.252	1.235	0.410	0.387	0.202
290.0	3892	2499	1316	539.5	323.7	441.8	832.6	1760	3344	4761	5434	5117	3683	3595	3092	416.5	25.14	3.646	2.545	1.824	1.304	1.102	0.994	0.820	0.749	0.757	0.530	0.545	0.542	0.472	0.695	1.859	4.550	7.018	8.752	8.306	7.725	6.941	6.085	6.004	6.163	6.268	7.103	7.472	7.595	7.361	6.092	5.270	3.611	2.392	1.667	1.397	1.205	1.296	1.405	1.936	2.856	4.011	5.801	8.099	11.40	15.77	18.87	21.67	22.89	22.73	23.14	21.97	19.57	16.45	15.79	17.98	20.85	19.69	14.73	6.180	1.305
295.0	5387	3901	1991	845.7	480.9	605.6	1132	2238	4089	6596	8150	7243	4471	2090	2031	3643	579.8	21.79	4.065	2.561	1.943	1.384	1.287	1.043	0.860	0.723	0.767	0.672	0.668	0.565	0.928	2.770	6.256	10.16	12.39	11.99	11.05	10.05	9.081	8.141	8.131	8.913	9.855	10.52	10.76	10.14	9.036	7.660	5.573	3.668	2.410	2.101	1.708	1.952	2.110	2.771	3.791	5.456	7.647	10.12	14.00	18.02	22.83	30.03	34.83	34.14	33.64	30.35	26.85	20.38	13.77	9.978	8.268	9.302	17.22	26.58	20.67
300.0	6227	4506	2353	1023	560.0	688.9	1266	2467	4428	7058	9386	8643	5236	2034	919.3	2521	3357	83.25	9.811	2.986	2.365	1.607	1.388	1.238	1.067	0.874	0.832	0.690	0.694	0.724	1.006	2.981	6.907	11.64	13.85	13.65	12.99	11.93	10.13	9.572	9.075	9.948	11.04	11.89	12.36	11.82	10.54	8.994	6.387	4.312	3.153	2.490	2.020	2.165	2.527	3.094	4.465	6.036	8.274	11.26	15.24	19.59	25.12	31.43	37.20	40.53	40.38	36.10	31.57	23.62	14.71	9.489	5.909	4.363	6.260	12.64	23.58
305.0	6454	4660	2556	1117	600.7	726.5	1321	2492	4466	7077	9362	9441	5816	2276	756.2	875.1	2982	2667	66.61	5.529	3.082	1.946	1.773	1.534	1.057	0.987	0.836	0.699	0.771	0.640	1.083	2.760	7.363	12.47	14.92	14.19	13.22	11.92	10.60	9.625	9.477	10.18	11.36	12.12	12.87	12.49	10.66	9.511	6.942	4.551	3.327	2.678	2.261	2.077	2.713	3.293	4.398	6.031	8.679	10.88	14.82	19.78	25.50	30.76	36.41	39.61	42.06	40.88	35.63	25.47	17.14	10.44	6.230	4.393	3.649	4.540	8.244
310.0	5970	4489	2482	1118	621.8	703.3	1229	2317	4152	6544	8597	8855	6273	2662	923.7	516.4	972.2	2233	2323	280.0	16.54	2.911	2.144	1.569	1.285	1.115	1.004	0.810	0.765	0.705	1.015	2.597	6.837	11.37	13.86	13.51	12.64	11.75	10.10	9.445	8.806	9.552	10.57	11.36	11.80	12.03	10.18	9.202	6.844	4.617	3.156	2.825	2.356	2.068	2.551	3.045	4.285	5.457	7.859	10.55	13.91	18.29	23.37	28.73	33.81	36.52	37.56	37.56	35.38	28.44	19.48	12.43	7.546	5.022	3.935	3.456	3.791
315.0	5288	3991	2266	1063	601.4	646.1	1098	2019	3572	5648	7478	7678	5767	3122	1218	589.2	456.3	615.5	1442	2749	407.2	11.83	3.213	1.826	1.605	1.262	1.086	0.844	0.923	0.645	0.921	2.311	5.617	9.764	12.77	12.37	11.30	10.72	9.025	8.293	8.054	8.524	8.946	9.998	10.47	10.24	8.999	8.186	6.355	4.347	2.969	2.573	2.286	2.045	2.308	2.836	4.026	4.711	6.822	9.047	11.81	16.45	20.52	24.45	29.38	31.53	33.02	31.90	30.76	25.73	20.88	15.63	10.20	6.543	4.852	3.870	3.518
320.0	4629	3598	2066	983.5	581.4	610.4	966.6	1763	3089	4897	6512	6785	5124	3093	1570	701.5	390.9	266.6	428.8	1968	2405	61.78	6.371	2.233	1.793	1.327	1.084	0.992	1.016	0.717	0.972	2.094	5.256	8.645	11.09	10.60	9.852	9.273	7.847	7.281	6.982	7.200	8.065	9.069	9.404	9.558	8.061	7.234	5.643	3.908	2.987	2.588	2.116	2.035	2.242	2.549	3.441	4.412	5.921	7.737	10.46	13.92	17.13	21.42	25.04	27.46	29.33	27.71	26.76	22.90	17.93	14.86	12.36	8.823	6.140	4.344	3.781
325.0	4085	3203	1929	961.0	562.8	570.3	857.5	1529	2652	4219	5633	5922	4561	2716	1761	885.7	423.7	213.8	169.1	607.5	2225	1821	50.36	3.574	1.905	1.649	1.198	1.217	1.007	0.653	0.896	1.852	4.537	7.794	9.296	9.314	9.035	8.072	6.888	6.488	6.136	6.276	7.253	7.836	8.471	8.412	7.522	6.623	5.327	3.677	2.770	2.541	2.149	2.213	2.186	2.209	2.972	3.870	5.256	6.847	9.025	12.15	15.01	18.53	21.43	24.12	24.98	24.58	23.77	20.06	15.87	13.02	11.52	10.04	8.600	5.597	4.063
330.0	3349	2781	1730	922.3	567.7	529.9	734.1	1264	2145	3391	4538	4848	3856	2336	1501	1111	585.2	239.0	135.5	196.7	662.8	1617	1830	218.7	12.09	1.990	1.585	1.084	0.966	0.803	0.833	1.715	3.602	6.269	7.812	7.703	7.551	6.662	5.877	5.409	5.131	5.359	5.863	6.562	6.696	6.994	6.398	5.890	4.583	3.393	2.674	2.388	2.025	1.900	1.898	2.084	2.687	3.415	4.235	5.456	7.310	9.473	12.09	15.06	17.46	19.63	20.12	20.23	19.82	17.40	13.95	11.14	9.214	8.217	7.648	7.028	5.733
335.0	2725	2342	1529	852.4	541.2	484.9	623.3	1029	1690	2650	3547	3819	3126	1993	1256	939.7	790.9	357.7	155.0	124.0	202.9	413.8	1232	1962	324.2	10.29	1.853	1.404	1.035	0.843	0.796	1.589	2.831	4.984	6.175	5.815	6.167	5.327	4.728	4.055	4.271	4.303	4.761	5.281	5.400	6.057	5.363	5.133	4.048	3.087	2.579	2.363	1.947	1.682	1.767	1.944	2.253	2.951	3.713	4.360	5.994	7.604	9.672	11.48	13.74	15.11	16.13	16.47	15.54	14.56	11.78	9.654	7.424	6.722	5.977	5.557	5.240
340.0	2452	2101	1402	802.4	521.2	459.6	563.7	869.0	1402	2166	2904	3153	2618	1740	1116	779.2	693.5	523.1	202.7	116.7	107.9	138.0	351.0	1439	1818	52.80	3.536	1.561	1.299	0.902	0.787	1.197	2.351	4.133	5.085	5.142	4.938	4.616	3.868	3.544	3.391	3.853	4.074	4.195	4.936	4.945	4.879	4.857	4.035	2.826	2.365	2.273	1.913	1.789	1.568	1.793	2.128	2.649	3.196	4.028	5.069	6.188	7.878	9.216	11.23	12.06	12.97	13.38	12.84	11.75	10.14	8.312	6.657	6.298	5.318	4.748	4.468
345.0	2045	1878	1327	778.5	498.6	421.1	514.5	748.5	1169	1781	2379	2603	2202	1490	988.2	683.8	527.3	540.7	324.4	131.6	93.35	81.69	110.4	435.8	1735	1706	41.92	2.331	1.494	1.161	0.903	1.091	1.948	3.334	4.144	4.186	4.174	3.780	3.391	3.023	2.859	3.264	3.343	3.640	4.318	4.403	4.550	4.066	3.518	2.681	2.220	2.157	1.850	1.763	1.559	1.586	2.036	2.283	2.693	3.456	4.289	5.332	6.514	7.471	9.089	10.25	10.61	11.34	10.68	10.14	8.629	7.284	5.997	5.221	4.463	4.483	3.934
350.0	1712	1550	1138	674.3	456.6	388.9	437.4	606.6	923.0	1374	1814	1998	1714	1206	821.3	577.9	415.3	361.0	384.6	243.4	108.4	75.24	62.74	123.0	509.3	1441	955.5	191.0	10.45	1.507	1.116	1.153	1.728	2.728	3.368	3.303	3.217	2.937	2.737	2.507	2.351	2.634	2.509	2.953	3.556	3.678	3.664	3.588	3.117	2.378	2.004	1.861	1.728	1.645	1.436	1.451	1.645	1.821	2.372	2.903	3.416	4.221	5.113	6.117	7.068	7.762	8.258	8.653	8.062	7.928	6.773	5.952	4.902	4.527	4.005	3.671	3.215
355.0	1379	1314	960.3	603.0	407.7	356.5	386.7	501.3	710.0	1040	1362	1504	1313	947.6	664.2	485.5	348.6	262.9	254.3	326.3	199.9	86.55	58.32	57.49	133.4	348.8	759.8	1466	293.8	7.635	1.277	1.156	1.410	2.264	2.432	2.779	2.505	2.347	2.169	2.168	1.978	2.054	2.139	2.433	2.774	3.004	2.862	3.077	2.687	2.018	1.709	1.685	1.631	1.309	1.417	1.299	1.428	1.584	1.986	2.233	2.580	3.160	3.775	4.689	5.129	5.497	6.140	6.517	6.071	5.989	5.319	4.860	4.116	3.668	3.180	3.119	2.671
360.0	1194	1168	861.8	548.0	379.5	329.8	351.0	435.0	604.5	836.9	1091	1214	1065	790.9	563.5	421.9	311.2	231.8	191.0	248.5	291.4	128.7	61.99	46.12	53.58	95.41	212.3	1088	1560	48.85	3.283	1.382	1.274	1.871	2.321	2.207	2.090	1.881	1.851	1.728	1.663	1.964	1.880	2.152	2.449	2.563	2.418	2.872	2.377	1.785	1.561	1.616	1.513	1.308	1.146	1.200	1.365	1.482	1.688	1.981	2.390	2.640	3.229	3.641	4.074	4.532	4.846	5.265	5.130	4.959	4.197	3.905	3.439	3.041	2.775	2.656	2.286
365.0	1066	1047	752.0	501.7	371.3	318.9	325.0	400.1	511.3	696.6	899.5	1002	885.1	670.3	491.1	374.3	282.1	210.2	172.2	171.8	264.2	219.0	69.93	48.34	38.32	40.88	62.39	328.8	1530	1158	38.50	1.837	1.455	1.696	1.805	1.934	1.735	1.586	1.521	1.550	1.535	1.595	1.624	1.699	1.978	2.301	2.321	2.362	2.227	1.600	1.363	1.602	1.395	1.332	1.216	1.085	1.308	1.385	1.514	1.831	2.024	2.245	2.686	3.247	3.426	3.779	4.192	4.279	4.435	4.061	3.645	3.338	2.932	2.616	2.278	2.257	2.072
370.0	877.7	864.6	659.7	456.7	341.5	299.0	300.8	349.8	427.8	562.8	718.3	785.1	708.8	547.6	408.3	318.6	248.7	194.3	158.8	140.0	163.4	225.9	171.0	68.43	40.05	32.08	30.25	85.54	450.8	1076	837.8	169.0	8.575	1.674	1.591	1.786	1.762	1.340	1.333	1.258	1.310	1.290	1.509	1.531	1.680	1.929	2.019	2.064	1.850	1.401	1.356	1.345	1.252	1.196	1.115	1.117	1.227	1.277	1.330	1.460	1.704	1.872	2.214	2.713	2.846	3.157	3.345	3.277	3.236	3.388	2.849	2.656	2.458	2.202	1.976	1.912	1.837
375.0	733.5	728.6	591.8	408.4	314.0	280.0	280.1	300.5	362.3	451.2	571.5	620.8	564.3	447.9	343.7	274.8	222.6	180.6	147.0	126.1	118.8	136.7	202.9	150.7	51.48	33.51	24.85	32.28	110.5	260.1	668.4	1247	242.8	6.232	1.623	1.562	1.589	1.190	1.156	1.133	1.040	1.175	1.191	1.375	1.448	1.701	1.715	1.756	1.512	1.353	1.082	1.420	1.165	1.071	1.265	1.167	1.204	1.328	1.178	1.227	1.546	1.518	1.660	2.113	2.166	2.653	2.595	2.684	2.612	2.641	2.256	2.189	1.894	1.820	1.660	1.630	1.588
380.0	638.9	652.4	521.9	376.8	303.0	270.4	264.3	274.4	319.8	388.2	482.8	513.7	473.0	388.0	304.4	247.7	203.0	167.3	141.4	121.6	107.4	103.1	140.3	198.5	93.34	36.30	24.80	22.04	35.30	66.00	183.4	931.6	1079	40.14	2.827	1.604	1.506	1.395	1.041	0.962	0.946	1.088	1.059	1.206	1.225	1.430	1.464	1.527	1.398	1.145	1.061	1.278	1.113	1.081	1.150	1.071	1.038	0.998	1.147	1.123	1.215	1.294	1.428	1.878	1.834	2.091	2.123	2.086	2.358	2.188	1.940	1.785	1.721	1.593	1.490	1.555	1.453
385.0	558.9	572.6	470.2	362.1	284.1	249.8	250.4	249.7	281.8	333.0	415.7	439.8	405.9	335.2	269.3	220.8	182.6	155.5	132.3	115.6	102.7	90.86	93.74	160.5	155.4	52.65	25.87	19.94	19.34	22.88	47.80	273.5	1005	825.7	31.32	1.971	1.860	1.180	0.978	0.940	0.760	0.979	0.909	1.137	1.105	1.385	1.370	1.413	1.265	1.031	0.947	1.116	1.011	1.100	0.980	0.889	0.949	0.955	1.107	1.105	1.072	1.209	1.441	1.577	1.617	1.779	1.818	1.797	1.980	2.015	1.799	1.604	1.665	1.439	1.483	1.285	1.401
390.0	500.3	514.3	419.5	321.3	265.4	236.5	236.0	233.2	247.6	285.5	342.1	366.3	348.4	292.8	238.8	198.6	168.3	143.2	125.7	110.4	96.66	85.50	76.77	90.86	137.5	121.1	42.74	20.56	16.37	14.05	17.36	67.05	286.2	721.8	593.3	142.4	14.59	1.268	1.009	0.846	0.779	0.889	0.955	0.902	1.020	1.272	1.157	1.268	1.171	0.995	0.913	1.002	0.997	1.071	0.911	0.910	0.970	0.990	1.051	0.953	0.975	1.137	1.147	1.252	1.293	1.471	1.557	1.572	1.685	1.673	1.603	1.405	1.442	1.353	1.315	1.269	1.138
395.0	438.3	447.5	379.8	297.3	245.2	220.1	211.2	214.0	218.2	241.8	293.3	309.7	294.7	252.0	209.8	175.8	150.8	129.3	116.6	104.6	92.02	82.43	71.24	64.92	72.38	118.3	107.3	33.50	16.38	12.72	11.34	20.24	68.40	172.0	432.4	1091	1331	6.753	1.260	1.042	0.881	0.945	0.867	0.892	1.091	1.171	1.100	1.318	1.146	0.955	0.888	0.928	0.942	0.797	0.822	0.872	0.955	0.957	0.928	0.870	0.822	0.845	0.920	0.998	1.175	1.235	1.221	1.302	1.437	1.417	1.369	1.300	1.302	1.134	1.167	1.202	1.165
400.0	406.6	403.1	345.5	281.3	218.4	212.7	204.2	199.4	198.9	215.2	252.4	272.0	257.7	228.7	192.1	160.6	141.1	121.8	109.4	99.10	89.16	78.77	69.03	57.45	51.07	73.66	123.4	55.84	20.96	13.04	10.60	10.43	20.24	43.14	116.5	761.6	2619	36.27	2.632	1.040	0.943	0.901	0.842	0.876	0.893	1.043	1.079	1.146	0.989	0.865	0.773	1.009	1.000	0.830	0.786	0.929	0.756	0.874	0.821	0.891	0.780	0.791	0.916	0.859	0.969	1.166	1.095	1.255	1.310	1.182	1.083	1.091	1.146	1.067	1.154	0.991	1.041
405.0	378.0	396.1	338.4	251.5	213.4	194.8	192.2	181.8	185.3	196.1	224.1	244.8	235.3	207.2	173.8	150.1	129.4	113.7	102.9	93.31	85.17	75.92	66.37	55.43	44.99	46.12	88.10	105.2	39.93	13.82	10.63	8.659	10.18	14.40	30.38	215.2	1520	638.2	28.97	1.347	0.834	0.823	0.820	0.897	0.864	0.917	0.956	1.150	0.920	0.819	0.727	0.854	0.794	0.821	0.730	0.849	0.752	0.733	0.762	0.766	0.794	0.753	0.882	0.799	1.054	1.026	1.072	1.029	1.082	1.048	0.954	0.964	1.124	0.938	0.926	0.893	0.803
410.0	335.0	358.3	309.4	235.1	206.4	177.7	173.7	168.6	165.9	172.3	196.4	210.8	207.2	181.3	155.6	135.4	118.5	105.7	95.39	87.56	80.24	71.57	62.41	52.14	41.21	35.63	44.90	80.88	84.85	32.69	11.84	8.470	8.125	7.879	10.69	52.00	386.6	498.3	461.1	125.4	6.600	0.958	0.766	0.842	0.812	0.831	0.896	0.972	0.868	0.753	0.674	0.750	0.732	0.778	0.661	0.725	0.783	0.723	0.731	0.614	0.641	0.693	0.831	0.761	0.831	0.909	0.913	0.877	0.927	1.027	0.982	0.853	0.967	0.878	0.840	0.771	0.734
415.0	304.4	330.8	284.5	212.9	182.1	163.3	154.2	149.7	146.0	154.2	169.9	179.9	175.3	165.1	139.4	120.4	105.5	95.44	88.23	81.27	75.36	68.06	59.95	49.15	39.84	31.45	30.28	38.86	74.70	78.93	25.41	8.940	7.280	6.326	6.549	15.03	89.87	117.4	299.1	610.4	180.8	5.785	0.937	0.746	0.799	0.782	0.906	0.832	0.831	0.697	0.653	0.750	0.721	0.772	0.634	0.620	0.614	0.677	0.688	0.722	0.615	0.687	0.727	0.727	0.723	0.782	0.744	0.792	0.800	0.722	0.896	0.776	0.881	0.736	0.613	0.745	0.700
