Sample:	'1
File name:	潍坊中远重工科技有限公司 5倍.FD3
Run date:	'10:44:00, 04/01/2025
Operator:	Administrator
Comment:	'

Instrument
Model:	F-2700 FL Spectrophotometer
Serial number:	23B8-004
ROM Version:	4J14000 07

Instrument parameters
Measurement type:	3-D scan
Data mode:	Fluorescence
EX  Start WL:	220.0 nm
EX  End WL:	600.0 nm
EX Sampling interval:	5.0 nm
EM  Start WL:	230.0 nm
EM  End WL:	650.0 nm
EM Sampling interval:	5.0 nm
Scan speed:	12000 nm/min
EX Slit:	5.0 nm
EM Slit:	5.0 nm
PMT Voltage:	700 V
Response:	Auto 
Corrected spectra:	Off
Contour interval:	50.000

Peak integration
Integration method:	Rectangular
Sensitivity:	1
Threshold:	1.000

Peaks
No.	ApexEX/EM(nm)	Height(Data)
1	225.0/600.0	522.3
2	230.0/305.0	7951
3	230.0/500.0	211.3
4	230.0/545.0	27.19
5	235.0/255.0	400.5
6	235.0/405.0	221.0
7	235.0/515.0	173.8
8	240.0/265.0	472.0
9	240.0/525.0	158.6
10	245.0/270.0	462.7
11	245.0/540.0	143.6
12	250.0/275.0	590.1
13	250.0/425.0	164.8
14	250.0/550.0	130.2
15	255.0/565.0	127.1
16	270.0/300.0	3974
17	270.0/600.0	290.7
18	275.0/305.0	4242
19	275.0/610.0	259.1
20	300.0/335.0	390.0
21	305.0/345.0	324.3
22	310.0/350.0	261.6
23	315.0/355.0	242.7
24	320.0/360.0	238.4
25	325.0/370.0	193.9
26	330.0/375.0	183.8
27	335.0/380.0	191.1
28	345.0/395.0	140.2
29	350.0/400.0	147.5
30	355.0/405.0	134.1
31	365.0/420.0	117.0
32	370.0/425.0	100.6
33	380.0/440.0	72.90
34	385.0/445.0	63.71
35	395.0/460.0	45.10
36	400.0/305.0	10.38
37	400.0/465.0	40.21
38	410.0/480.0	26.45
39	415.0/485.0	25.38
40	420.0/490.0	19.74
41	430.0/505.0	15.15
42	435.0/510.0	11.99
43	440.0/520.0	10.25
44	445.0/525.0	9.427
45	455.0/305.0	20.56
46	455.0/540.0	6.683
47	470.0/560.0	3.167
48	485.0/265.0	2.102
49	495.0/270.0	1.991
50	505.0/275.0	3.330
51	510.0/280.0	3.809
52	545.0/300.0	18.80
53	550.0/305.0	19.98

Data points
	220.0	225.0	230.0	235.0	240.0	245.0	250.0	255.0	260.0	265.0	270.0	275.0	280.0	285.0	290.0	295.0	300.0	305.0	310.0	315.0	320.0	325.0	330.0	335.0	340.0	345.0	350.0	355.0	360.0	365.0	370.0	375.0	380.0	385.0	390.0	395.0	400.0	405.0	410.0	415.0	420.0	425.0	430.0	435.0	440.0	445.0	450.0	455.0	460.0	465.0	470.0	475.0	480.0	485.0	490.0	495.0	500.0	505.0	510.0	515.0	520.0	525.0	530.0	535.0	540.0	545.0	550.0	555.0	560.0	565.0	570.0	575.0	580.0	585.0	590.0	595.0	600.0
230.0	70.34	907.3	2229	496.5	17.26	2.264	1.585	1.672	1.689	1.665	2.083	1.498	1.497	0.867	0.695	0.622	0.410	0.404	0.391	0.233	0.257	0.268	0.220	0.207	0.188	0.167	0.148	0.145	0.131	0.128	0.116	0.104	0.113	0.104	0.133	0.134	0.135	0.120	0.090	0.079	0.234	0.427	0.445	0.218	0.106	0.102	0.899	3.815	5.694	3.609	1.072	0.199	0.064	0.060	0.038	0.032	0.035	0.036	0.037	0.027	0.052	0.026	0.027	0.028	0.021	0.029	0.015	0.039	0.032	0.023	0.037	0.015	0.022	0.010	0.014	0.025	0.016
235.0	166.8	273.6	1462	1858	515.5	19.88	2.719	2.047	1.966	1.496	2.271	1.682	1.642	1.321	0.786	0.515	0.445	0.321	0.387	0.378	0.214	0.273	0.211	0.202	0.207	0.178	0.124	0.189	0.110	0.115	0.132	0.071	0.121	0.094	0.101	0.103	0.142	0.119	0.081	0.090	0.130	0.196	0.319	0.584	0.416	0.233	0.261	1.016	2.336	3.830	5.536	5.222	2.235	0.329	0.062	0.071	0.070	0.045	0.050	0.025	0.043	0.026	0.040	0.015	0.034	0.015	0.028	0.042	0.017	0.015	0.023	0.030	0.013	0.012	0.014	0.017	0.005
240.0	268.6	182.5	455.2	1693	2191	350.4	9.781	2.111	2.358	2.196	3.127	2.305	1.532	1.205	0.705	0.679	0.496	0.325	0.313	0.292	0.301	0.299	0.206	0.247	0.199	0.121	0.155	0.180	0.173	0.138	0.166	0.074	0.148	0.124	0.089	0.098	0.078	0.065	0.093	0.091	0.143	0.139	0.191	0.410	0.645	0.675	0.388	0.359	0.608	1.166	3.383	7.445	8.383	5.247	1.475	0.159	0.040	0.065	0.018	0.019	0.046	0.044	0.023	0.018	0.037	0.053	0.050	0.030	0.009	0.027	0.028	0.013	0.019	0.018	0.011	0.015	0.015
245.0	186.4	323.4	185.6	605.9	2397	1934	237.6	5.498	2.469	2.228	3.254	2.124	1.757	1.167	0.711	0.651	0.523	0.436	0.424	0.430	0.354	0.219	0.248	0.271	0.172	0.196	0.213	0.208	0.146	0.173	0.171	0.096	0.128	0.102	0.102	0.148	0.111	0.038	0.107	0.095	0.135	0.068	0.099	0.187	0.316	0.675	0.777	0.723	0.343	0.357	0.900	2.626	6.655	9.791	9.159	4.370	0.996	0.093	0.034	0.026	0.031	0.037	0.046	0.034	0.045	0.031	0.069	0.029	0.017	0.029	0.048	0.012	0.019	0.023	0.019	0.020	0.007
250.0	62.43	228.2	318.2	242.6	796.6	2118	2409	786.2	32.78	3.841	4.309	2.941	2.104	1.405	0.949	0.666	0.543	0.436	0.459	0.454	0.329	0.307	0.281	0.239	0.215	0.204	0.226	0.197	0.194	0.183	0.140	0.117	0.135	0.127	0.128	0.128	0.124	0.062	0.085	0.118	0.125	0.100	0.112	0.101	0.134	0.276	0.425	0.991	0.975	0.886	0.544	0.738	1.666	3.351	6.126	9.165	11.53	9.547	4.610	0.985	0.104	0.053	0.060	0.078	0.036	0.049	0.032	0.031	0.038	0.038	0.059	0.016	0.033	0.030	0.022	0.023	0.030
255.0	26.59	68.46	227.0	400.5	275.7	557.8	2045	3099	312.3	28.80	5.701	3.611	2.782	1.974	1.559	0.781	0.527	0.697	0.596	0.595	0.382	0.339	0.319	0.252	0.285	0.271	0.269	0.174	0.214	0.170	0.130	0.132	0.112	0.131	0.149	0.164	0.129	0.112	0.120	0.123	0.107	0.112	0.142	0.118	0.092	0.147	0.199	0.344	0.458	0.918	1.281	1.182	0.756	0.874	1.479	2.264	4.346	10.25	17.83	16.14	6.408	1.055	0.136	0.108	0.021	0.044	0.051	0.057	0.030	0.037	0.035	0.035	0.034	0.031	0.050	0.015	0.048
260.0	23.37	24.52	82.41	381.6	371.9	178.4	626.3	3028	2504	257.5	20.74	5.599	3.384	2.516	1.667	1.026	0.727	0.775	0.621	0.407	0.451	0.351	0.299	0.267	0.234	0.239	0.189	0.195	0.311	0.207	0.164	0.178	0.156	0.252	0.156	0.134	0.129	0.136	0.155	0.084	0.115	0.147	0.138	0.112	0.087	0.103	0.123	0.196	0.173	0.343	0.860	1.621	1.948	0.922	0.513	0.586	1.100	2.831	7.974	16.93	22.30	15.22	4.616	0.570	0.088	0.067	0.054	0.056	0.063	0.053	0.053	0.031	0.025	0.037	0.057	0.003	0.071
265.0	25.52	16.49	33.16	173.1	472.0	262.7	174.8	1041	3837	2181	206.9	8.675	4.704	2.831	2.131	1.504	1.009	0.813	0.760	0.620	0.414	0.423	0.351	0.349	0.331	0.315	0.196	0.194	0.345	0.207	0.116	0.160	0.179	0.206	0.199	0.146	0.214	0.122	0.129	0.110	0.092	0.101	0.138	0.139	0.101	0.080	0.099	0.099	0.122	0.171	0.298	0.818	2.017	2.102	1.451	0.433	0.384	0.762	2.009	5.082	12.49	23.34	24.31	13.73	2.799	0.201	0.090	0.067	0.070	0.046	0.043	0.036	0.044	0.044	0.037	0.016	0.064
270.0	30.83	25.17	27.86	55.49	223.6	462.7	292.9	280.9	1257	3390	5380	773.5	33.50	4.803	2.952	2.073	1.151	1.086	0.873	0.694	0.582	0.558	0.545	0.309	0.328	0.298	0.273	0.246	0.320	0.234	0.148	0.132	0.198	0.211	0.186	0.197	0.184	0.165	0.151	0.167	0.114	0.145	0.197	0.143	0.157	0.135	0.125	0.123	0.163	0.143	0.148	0.265	0.656	1.149	1.944	1.991	1.681	0.865	0.667	1.318	3.098	6.755	12.50	20.45	23.13	18.89	9.974	2.404	0.261	0.068	0.081	0.062	0.058	0.054	0.051	0.036	0.055
275.0	86.95	78.62	64.02	41.55	69.65	212.4	590.1	326.5	329.5	873.2	4426	7116	995.4	28.89	4.846	2.970	1.748	1.589	1.142	0.926	0.700	0.681	0.569	0.346	0.349	0.345	0.381	0.369	0.324	0.196	0.251	0.154	0.257	0.263	0.372	0.334	0.319	0.229	0.260	0.168	0.176	0.235	0.208	0.261	0.268	0.257	0.277	0.214	0.273	0.180	0.178	0.154	0.246	0.390	0.592	0.921	2.256	3.330	2.060	0.783	0.918	1.767	3.036	4.875	7.204	14.99	29.62	29.50	14.46	2.297	0.229	0.075	0.159	0.044	0.052	0.046	0.090
280.0	348.4	351.5	311.8	165.6	81.23	95.67	393.7	680.6	278.5	336.9	1350	5762	5548	153.2	16.02	4.307	2.497	1.868	1.410	0.933	0.846	0.671	0.505	0.489	0.501	0.336	0.501	0.357	0.425	0.346	0.296	0.225	0.377	0.518	0.614	0.827	0.623	0.610	0.485	0.395	0.435	0.517	0.476	0.578	0.706	0.862	0.762	0.964	0.838	0.632	0.599	0.388	0.307	0.314	0.320	0.446	0.914	2.363	3.809	2.995	1.358	0.965	1.225	1.677	2.394	4.448	10.91	23.53	33.76	26.38	9.644	1.181	0.155	0.111	0.056	0.097	0.088
285.0	1146	1367	1089	674.5	302.2	147.3	229.9	732.0	810.9	347.1	879.2	2252	6076	4410	117.3	8.500	3.726	2.401	1.830	1.412	1.002	0.901	0.600	0.540	0.637	0.415	0.583	0.419	0.469	0.308	0.384	0.452	0.725	1.174	1.616	2.012	1.815	1.653	1.369	1.342	1.250	1.281	1.488	1.898	2.132	2.533	3.123	3.450	3.376	2.745	2.290	1.795	1.090	0.776	0.578	0.582	0.698	1.172	2.273	4.092	4.738	3.289	2.249	2.555	2.959	3.585	5.149	8.620	16.50	30.64	34.44	22.03	5.673	0.527	0.250	0.173	0.108
290.0	3085	3755	3648	2226	897.0	394.4	358.6	680.4	1365	1683	1719	2081	2965	4615	4867	445.5	22.25	3.634	2.844	1.861	1.485	1.257	0.803	0.790	0.727	0.546	0.539	0.576	0.479	0.468	0.503	0.712	1.428	2.798	4.335	4.809	4.912	4.210	3.417	3.251	3.260	3.426	3.976	4.759	5.703	7.264	8.344	9.901	9.910	8.535	6.601	5.422	3.569	2.288	1.744	1.365	1.396	1.685	2.276	3.316	4.815	6.703	7.974	7.599	7.504	7.780	8.170	8.817	10.23	13.50	18.90	24.37	26.89	25.38	14.47	4.745	0.789
295.0	4829	6269	6089	3784	1574	659.8	567.4	847.8	1475	2594	3226	2937	2625	2018	3338	5003	612.9	17.71	4.544	2.670	2.042	1.759	1.107	1.022	1.018	0.747	0.727	0.705	0.699	0.525	0.565	0.750	1.917	4.510	7.006	7.739	8.205	7.168	5.726	4.955	5.115	5.466	6.479	7.776	9.300	11.86	13.76	15.89	16.42	14.07	10.87	9.713	6.166	4.133	2.706	2.210	2.217	2.632	2.898	4.042	5.166	7.078	9.052	12.83	15.19	14.33	12.90	12.55	12.01	12.28	12.15	9.791	8.813	13.96	27.56	33.41	23.22
300.0	5731	7379	7360	4616	1929	829.3	691.6	987.0	1642	2679	3974	3672	2824	1537	1062	3672	4209	90.69	8.237	3.202	2.413	2.067	1.567	1.339	1.144	0.918	0.680	0.729	0.767	0.603	0.602	0.967	2.626	5.337	8.286	9.209	9.373	8.414	7.217	6.067	6.137	6.281	7.640	8.969	11.47	14.69	16.24	19.37	19.73	16.77	13.45	11.76	7.612	4.790	3.304	2.667	2.870	3.232	3.410	4.460	5.736	7.508	9.226	12.08	15.68	18.80	18.26	15.18	13.79	12.87	11.37	7.439	4.118	4.205	8.803	19.60	39.97
305.0	5913	7766	7951	4919	2065	906.3	740.6	1045	1716	2656	3817	4242	3033	1475	476.2	1120	4014	3253	70.34	4.764	3.438	2.443	1.584	1.508	1.270	1.040	0.747	0.718	0.893	0.659	0.634	1.007	3.008	5.719	8.271	10.00	10.38	9.086	7.565	6.671	6.644	6.957	8.055	9.527	12.18	15.15	17.11	20.56	20.53	18.03	14.44	11.89	8.104	5.173	3.689	2.951	2.993	3.174	3.842	4.733	6.285	7.888	9.507	11.97	14.59	17.37	19.98	19.27	15.84	13.42	11.28	6.790	3.213	2.110	2.865	5.367	14.55
310.0	5568	7232	7314	4622	1984	887.4	715.0	998.1	1599	2429	3298	3754	3231	1503	341.1	315.7	1156	2901	3404	307.8	15.56	3.262	2.147	1.646	1.191	1.121	0.910	0.814	0.843	0.719	0.757	0.949	2.524	5.032	8.021	9.389	9.420	8.320	6.984	6.166	6.094	6.422	7.546	9.029	11.08	13.84	15.65	19.63	19.48	16.63	13.66	11.43	7.588	4.990	3.718	2.942	2.830	3.037	3.658	4.688	5.861	7.221	9.170	10.88	12.77	15.09	16.41	16.69	16.08	15.23	11.99	6.326	2.962	1.598	1.453	1.884	3.936
315.0	4686	6136	6107	3869	1694	773.1	638.1	855.8	1343	2024	2688	2895	2635	1680	378.4	139.4	299.2	698.1	2129	3479	458.9	13.28	2.852	2.008	1.392	1.185	0.925	0.882	0.781	0.729	0.776	0.864	2.170	4.407	6.502	7.819	7.855	7.290	6.293	5.193	5.034	5.619	6.481	7.598	9.397	11.85	12.93	16.35	16.40	13.90	11.51	9.345	6.759	4.310	3.417	2.594	2.566	2.735	3.187	3.964	4.989	6.402	7.758	9.371	10.65	11.87	13.02	12.92	11.82	12.38	11.56	7.948	3.868	1.749	1.024	1.126	1.514
320.0	3923	4961	5013	3234	1419	680.0	557.8	733.8	1142	1681	2224	2344	2049	1446	603.9	122.1	110.7	185.5	560.4	2478	3123	68.72	5.706	2.481	1.904	1.326	1.023	0.990	0.875	0.705	0.717	0.873	1.938	3.971	5.506	6.706	6.533	5.859	4.996	4.634	4.144	4.577	5.298	5.988	7.506	9.553	11.17	13.36	14.00	12.03	9.693	8.024	5.604	3.717	2.996	2.352	2.370	2.428	2.844	3.341	4.269	5.241	6.516	7.945	8.922	10.04	10.34	9.936	9.623	9.196	8.578	6.948	5.318	2.969	1.400	0.885	0.838
325.0	3206	4147	4136	2665	1188	564.0	480.4	624.2	941.6	1389	1831	1920	1628	1032	699.5	255.6	74.12	72.65	148.2	719.3	2926	2948	55.09	3.761	2.083	1.592	1.169	1.001	0.969	0.740	0.729	0.906	1.703	3.460	4.363	5.616	5.448	5.002	4.002	3.766	3.522	3.726	4.244	4.954	6.324	7.668	8.957	10.75	11.70	10.05	7.644	6.490	4.566	3.022	2.339	1.962	1.988	1.993	2.490	2.870	3.486	4.220	5.254	6.464	7.507	8.526	8.321	8.104	7.853	7.482	6.534	4.569	4.033	4.039	2.869	1.686	0.810
330.0	2384	3172	3144	2025	922.9	462.5	387.5	496.3	734.0	1062	1387	1449	1234	719.6	424.4	425.3	195.5	62.04	58.32	181.9	834.1	2682	2311	250.5	12.29	2.054	1.611	1.245	1.026	0.716	0.752	0.808	1.411	2.604	3.497	4.157	4.271	3.700	3.141	2.926	2.820	3.047	3.366	4.000	4.760	5.893	6.865	8.236	8.654	7.310	5.842	5.165	3.567	2.464	1.982	1.566	1.627	1.760	1.943	2.327	2.891	3.250	4.009	4.841	5.672	6.418	6.179	6.330	6.057	5.631	4.674	3.194	2.220	2.187	2.496	2.800	2.277
335.0	1770	2301	2269	1497	717.3	378.3	322.2	380.7	557.6	788.4	1011	1070	903.7	536.0	256.2	258.1	390.0	169.5	46.57	65.21	206.7	640.5	1553	2791	371.6	8.880	1.896	1.435	1.275	1.070	0.778	0.746	1.274	1.803	2.724	2.952	3.041	2.783	2.364	2.272	2.070	2.270	2.373	3.122	3.669	4.321	5.001	6.006	5.928	5.337	4.355	3.853	2.968	1.926	1.609	1.309	1.322	1.520	1.565	1.672	2.358	2.508	3.163	3.787	4.367	4.616	4.268	4.720	4.533	4.239	3.417	2.572	1.702	1.232	1.238	1.437	2.089
340.0	1365	1788	1772	1164	584.5	322.8	274.8	320.3	450.9	620.5	796.9	829.5	718.0	435.9	209.5	157.7	297.9	324.0	79.71	40.72	69.21	162.2	419.6	2070	2343	56.19	3.871	1.933	1.533	1.007	0.875	0.871	1.153	1.585	2.300	2.296	2.418	2.275	1.790	1.669	1.668	1.819	1.864	2.400	2.763	3.630	3.995	4.638	4.744	4.158	3.355	3.116	2.452	1.670	1.525	1.133	1.181	1.321	1.418	1.564	1.753	2.169	2.431	2.750	3.361	3.652	3.320	3.562	3.542	3.271	2.816	2.102	1.337	1.112	1.006	0.952	1.191
345.0	1089	1374	1397	939.1	492.4	283.8	240.1	271.8	370.4	508.4	639.2	667.1	580.5	370.7	189.4	130.9	163.2	324.3	208.3	50.42	41.04	58.37	111.7	612.9	2321	1718	46.11	2.929	1.675	1.142	1.076	0.841	1.113	1.206	1.786	2.002	1.979	2.191	1.343	1.321	1.456	1.350	1.674	1.786	2.222	2.759	3.189	3.593	3.511	3.279	2.732	2.459	2.044	1.522	1.242	1.034	1.023	0.990	1.051	1.306	1.535	1.995	1.945	2.520	2.718	2.687	2.853	2.847	2.946	2.334	2.264	1.674	1.137	0.994	0.904	0.873	0.849
350.0	802.2	1017	1044	725.4	405.2	250.8	204.3	234.3	298.0	393.5	481.1	507.9	451.1	304.5	174.1	123.4	111.4	168.8	261.6	152.3	52.70	40.06	45.90	153.3	682.1	1609	1682	217.1	10.85	1.641	1.237	0.879	0.997	1.185	1.380	1.567	1.693	1.578	1.173	1.081	1.115	1.101	1.350	1.342	1.634	1.951	2.270	2.683	2.623	2.444	2.057	1.987	1.626	1.323	1.059	0.937	0.996	0.943	0.950	1.173	1.268	1.446	1.543	1.917	2.080	2.119	2.146	2.285	2.081	1.953	1.836	1.522	1.125	0.964	0.881	0.770	0.704
355.0	614.9	757.6	755.9	550.1	337.6	226.2	189.0	206.3	245.2	309.7	373.8	380.9	348.2	251.2	160.1	121.8	102.4	103.4	143.5	242.7	149.7	48.32	35.83	53.99	166.8	388.2	1194	2280	339.5	6.824	1.616	1.340	0.976	1.241	1.326	1.254	1.281	1.086	0.995	0.841	0.855	0.868	1.029	1.131	1.314	1.445	1.648	1.981	2.053	1.933	1.658	1.546	1.268	1.111	0.945	0.834	0.850	0.799	0.775	1.065	1.032	1.113	1.269	1.441	1.542	1.621	1.574	1.675	1.746	1.625	1.501	1.163	1.033	0.846	0.821	0.660	0.708
360.0	497.4	594.7	614.1	455.2	308.3	209.7	183.8	184.9	217.1	261.3	305.8	319.6	295.0	225.4	152.3	121.3	102.0	93.76	95.83	171.1	238.4	75.21	39.68	34.77	55.41	100.1	329.8	1802	2398	51.98	3.570	1.491	1.179	1.069	1.293	1.168	1.118	0.943	0.827	0.783	0.694	0.749	0.859	0.980	1.156	1.273	1.429	1.511	1.565	1.527	1.332	1.357	1.150	0.927	0.865	0.734	0.857	0.744	0.872	0.867	0.854	0.937	1.052	1.300	1.421	1.336	1.303	1.429	1.455	1.471	1.230	1.222	0.978	0.794	0.732	0.666	0.649
365.0	424.1	495.4	497.2	395.8	285.6	201.3	175.1	173.7	198.5	232.3	267.1	276.0	260.9	203.8	151.0	121.8	103.5	93.30	85.59	107.2	214.2	182.8	59.00	34.12	33.42	37.60	86.59	551.3	2474	1555	40.60	2.223	1.324	1.327	1.227	1.112	0.985	0.862	0.841	0.687	0.605	0.667	0.729	0.936	0.941	1.112	1.253	1.273	1.284	1.291	1.082	1.217	0.991	0.876	0.836	0.708	0.781	0.722	0.784	0.811	0.768	0.998	0.879	0.983	1.174	1.192	1.325	1.180	1.141	1.186	1.192	0.925	0.882	0.777	0.623	0.632	0.632
370.0	339.0	408.9	418.5	339.1	257.5	194.7	171.1	166.1	183.5	203.7	227.3	236.9	223.0	185.1	143.8	121.7	108.0	98.18	88.73	87.75	123.9	193.9	151.9	52.99	34.02	28.12	34.44	135.6	737.1	1572	1562	186.2	8.056	1.616	1.294	1.144	0.978	0.835	0.745	0.619	0.573	0.631	0.663	0.718	0.779	0.797	0.924	1.113	1.127	1.032	0.970	1.050	0.983	0.827	0.809	0.739	0.808	0.671	0.736	0.794	0.852	0.869	0.814	0.963	1.007	1.079	1.044	1.040	1.020	0.956	0.997	0.832	0.770	0.735	0.684	0.732	0.827
375.0	293.1	357.0	348.0	300.4	238.2	186.4	166.5	164.6	168.3	184.0	203.0	207.3	197.3	168.4	136.2	118.1	111.2	102.8	94.99	89.25	90.28	113.9	183.8	138.4	47.43	31.57	26.60	44.87	175.9	382.9	1192	1797	260.8	6.521	1.529	1.272	0.948	0.853	0.701	0.641	0.573	0.637	0.565	0.645	0.702	0.740	0.825	0.936	0.996	0.877	0.960	0.933	0.889	0.791	0.800	0.750	0.728	0.657	0.777	0.690	0.884	0.801	0.837	0.842	0.793	1.029	0.987	1.079	0.942	0.947	0.905	0.797	0.866	0.848	0.770	0.833	0.745
380.0	249.8	308.3	316.6	264.3	225.1	185.9	164.9	152.9	162.6	171.3	189.2	189.2	180.5	159.3	135.3	119.4	111.5	106.4	98.56	92.54	86.40	87.49	129.3	191.1	90.97	36.55	28.06	27.74	52.29	95.83	335.2	1485	1550	43.33	2.841	1.599	1.072	0.857	0.598	0.607	0.557	0.606	0.645	0.661	0.679	0.656	0.760	0.803	0.808	0.839	0.820	0.836	0.855	0.650	0.833	0.710	0.751	0.701	0.713	0.630	0.803	0.775	0.820	0.830	0.773	0.856	0.872	0.930	0.810	0.964	0.763	0.772	0.846	0.826	0.738	0.914	0.690
385.0	247.1	294.9	291.0	254.3	212.2	179.5	172.2	150.4	156.8	167.0	177.6	180.6	164.5	151.6	134.2	120.5	113.1	108.7	100.8	95.88	87.38	84.36	91.64	158.1	156.3	55.93	32.15	26.15	28.22	33.61	85.27	465.8	1656	1297	33.36	2.187	1.330	0.922	0.656	0.527	0.600	0.595	0.589	0.624	0.581	0.659	0.788	0.831	0.779	0.839	0.766	0.810	0.802	0.651	0.705	0.726	0.791	0.720	0.837	0.741	0.817	0.694	0.784	0.759	0.843	0.780	0.774	0.872	0.808	0.776	0.800	0.815	0.773	0.745	0.684	0.760	0.710
390.0	216.1	250.8	271.4	242.5	201.3	181.1	163.9	157.7	155.5	161.1	167.4	168.2	157.7	147.4	130.1	119.8	114.1	108.6	104.9	98.87	90.73	83.84	80.17	98.53	147.0	129.2	50.48	32.71	26.96	23.53	30.79	113.6	500.8	1357	1198	155.3	6.807	1.148	0.834	0.671	0.588	0.560	0.549	0.592	0.658	0.669	0.595	0.650	0.685	0.725	0.692	0.831	0.818	0.685	0.728	0.691	0.750	0.732	0.641	0.701	0.697	0.682	0.745	0.694	0.837	0.761	0.742	0.764	0.743	0.812	0.756	0.758	0.705	0.791	0.712	0.777	0.710
395.0	206.8	229.7	249.8	223.3	195.1	179.0	158.3	156.2	154.3	160.0	164.2	156.5	150.3	141.0	129.2	119.3	116.4	109.7	106.0	102.3	94.23	86.05	81.29	80.15	91.96	140.2	121.3	49.81	33.18	26.08	22.21	36.27	119.9	330.2	930.8	1700	213.7	4.293	0.943	0.837	0.724	0.626	0.537	0.583	0.568	0.651	0.605	0.575	0.646	0.647	0.586	0.822	0.721	0.770	0.768	0.699	0.792	0.720	0.674	0.685	0.749	0.703	0.688	0.751	0.872	0.693	0.696	0.743	0.683	0.678	0.659	0.779	0.643	0.738	0.685	0.843	0.725
400.0	181.6	221.9	227.2	213.4	199.6	180.3	168.0	157.1	158.4	154.7	160.3	154.2	145.9	139.5	127.1	119.6	113.4	110.2	106.1	100.0	94.24	90.35	81.96	77.95	77.60	100.0	147.5	89.35	40.22	29.88	23.96	21.63	35.66	81.10	260.6	1354	1185	36.01	1.978	0.795	0.723	0.652	0.526	0.567	0.547	0.596	0.699	0.635	0.644	0.593	0.617	0.718	0.774	0.748	0.666	0.720	0.771	0.774	0.692	0.671	0.724	0.680	0.710	0.841	0.743	0.718	0.822	0.637	0.810	0.613	0.787	0.677	0.750	0.745	0.625	0.738	0.786
405.0	188.2	210.5	220.2	221.0	192.9	182.8	170.0	163.0	159.9	159.3	160.6	150.3	141.8	138.0	124.5	118.1	112.2	107.6	107.9	100.6	95.24	92.49	84.94	80.37	74.01	78.93	120.1	134.1	57.76	34.57	26.64	20.21	18.71	25.78	64.46	414.2	1230	909.9	27.19	1.299	0.836	0.735	0.649	0.564	0.505	0.651	0.574	0.626	0.655	0.611	0.594	0.738	0.726	0.726	0.787	0.780	0.662	0.748	0.790	0.769	0.732	0.634	0.689	0.813	0.704	0.749	0.703	0.648	0.633	0.681	0.677	0.680	0.790	0.797	0.580	0.650	0.741
410.0	186.1	203.4	211.0	212.7	188.3	178.5	168.1	161.9	158.7	156.0	155.5	151.3	139.5	134.3	124.1	113.1	109.3	105.8	102.6	98.12	94.72	91.79	85.88	81.40	75.35	72.69	82.36	117.9	111.5	56.98	32.15	22.59	16.88	15.21	21.02	98.56	366.2	905.1	636.8	128.7	5.787	0.928	0.616	0.531	0.552	0.628	0.598	0.618	0.618	0.596	0.631	0.638	0.769	0.782	0.758	0.733	0.732	0.781	0.827	0.760	0.772	0.665	0.719	0.758	0.655	0.716	0.743	0.693	0.657	0.635	0.763	0.760	0.694	0.781	0.684	0.722	0.696
415.0	175.8	202.1	204.2	196.9	185.1	181.5	159.7	162.2	159.0	156.8	154.7	144.8	137.9	130.8	122.7	112.8	105.6	103.8	99.86	95.14	92.88	90.09	83.20	81.65	77.27	73.54	71.55	78.71	111.3	103.8	46.25	26.17	18.36	15.00	12.78	28.30	87.00	218.7	538.1	895.0	186.7	3.606	0.981	0.678	0.627	0.572	0.539	0.661	0.611	0.626	0.593	0.674	0.756	0.793	0.647	0.656	0.734	0.754	0.747	0.628	0.759	0.600	0.769	0.726	0.598	0.775	0.657	0.598	0.664	0.626	0.674	0.612	0.723	0.720	0.678	0.683	0.652
