Sample:	'1
File name:	w112910袁家屋子东南闸口.FD3
Run date:	'13:14:14, 12/02/2024
Operator:	Administrator
Comment:	'

Instrument
Model:	F-2700 FL Spectrophotometer
Serial number:	23B8-004
ROM Version:	4J14000 07

Instrument parameters
Measurement type:	3-D scan
Data mode:	Fluorescence
EX  Start WL:	220.0 nm
EX  End WL:	600.0 nm
EX Sampling interval:	5.0 nm
EM  Start WL:	230.0 nm
EM  End WL:	650.0 nm
EM Sampling interval:	5.0 nm
Scan speed:	12000 nm/min
EX Slit:	5.0 nm
EM Slit:	5.0 nm
PMT Voltage:	700 V
Response:	Auto 
Corrected spectra:	Off
Contour interval:	50.000

Peak integration
Integration method:	Rectangular
Sensitivity:	1
Threshold:	1.000

Peaks
No.	ApexEX/EM(nm)	Height(Data)
1	225.0/305.0	875.0
2	225.0/325.0	963.3
3	225.0/570.0	50.68
4	225.0/585.0	62.69
5	225.0/595.0	62.66
6	225.0/605.0	64.74
7	225.0/620.0	56.40
8	230.0/340.0	1090
9	230.0/500.0	295.0
10	230.0/615.0	54.39
11	235.0/385.0	785.1
12	235.0/510.0	275.3
13	240.0/265.0	385.3
14	240.0/390.0	760.0
15	240.0/400.0	760.4
16	240.0/525.0	236.1
17	245.0/270.0	378.1
18	245.0/535.0	204.3
19	250.0/275.0	480.4
20	250.0/545.0	166.7
21	255.0/280.0	586.8
22	255.0/560.0	141.0
23	260.0/575.0	118.2
24	265.0/585.0	125.9
25	270.0/300.0	1582
26	270.0/600.0	133.8
27	275.0/305.0	1891
28	275.0/335.0	1583
29	275.0/610.0	128.6
30	280.0/625.0	98.70
31	315.0/355.0	414.9
32	320.0/365.0	398.6
33	325.0/370.0	387.4
34	330.0/375.0	382.2
35	335.0/380.0	374.0
36	350.0/400.0	344.0
37	365.0/420.0	289.6
38	415.0/485.0	53.25
39	430.0/505.0	33.10
40	445.0/525.0	19.36
41	505.0/275.0	2.909
42	510.0/280.0	3.111
43	520.0/285.0	3.373
44	530.0/290.0	3.952
45	540.0/295.0	6.191
46	545.0/300.0	7.441
47	550.0/305.0	8.130
48	560.0/310.0	7.404
49	570.0/315.0	6.599
50	575.0/320.0	5.937
51	585.0/325.0	5.603

Data points
	220.0	225.0	230.0	235.0	240.0	245.0	250.0	255.0	260.0	265.0	270.0	275.0	280.0	285.0	290.0	295.0	300.0	305.0	310.0	315.0	320.0	325.0	330.0	335.0	340.0	345.0	350.0	355.0	360.0	365.0	370.0	375.0	380.0	385.0	390.0	395.0	400.0	405.0	410.0	415.0	420.0	425.0	430.0	435.0	440.0	445.0	450.0	455.0	460.0	465.0	470.0	475.0	480.0	485.0	490.0	495.0	500.0	505.0	510.0	515.0	520.0	525.0	530.0	535.0	540.0	545.0	550.0	555.0	560.0	565.0	570.0	575.0	580.0	585.0	590.0	595.0	600.0
230.0	46.04	1253	2405	676.8	28.51	4.000	2.514	2.991	2.441	2.431	2.290	2.214	1.976	1.562	1.226	0.948	0.836	0.845	0.755	0.631	0.565	0.554	0.508	0.498	0.434	0.345	0.337	0.336	0.317	0.331	0.228	0.221	0.239	0.249	0.214	0.232	0.194	0.167	0.173	0.195	0.201	0.245	0.237	0.200	0.158	0.172	1.041	4.755	7.642	5.154	1.572	0.335	0.118	0.122	0.125	0.113	0.101	0.097	0.107	0.095	0.088	0.072	0.093	0.095	0.091	0.071	0.074	0.069	0.075	0.062	0.071	0.063	0.074	0.067	0.057	0.058	0.048
235.0	98.23	350.7	1594	2636	603.1	45.31	3.659	3.133	2.627	2.848	2.360	1.967	2.344	1.591	1.376	1.046	0.943	0.683	0.603	0.619	0.565	0.439	0.503	0.439	0.519	0.444	0.345	0.297	0.252	0.256	0.230	0.193	0.258	0.213	0.243	0.263	0.257	0.130	0.137	0.216	0.200	0.240	0.240	0.302	0.284	0.188	0.362	1.278	3.192	6.226	8.537	8.772	3.360	0.657	0.138	0.103	0.120	0.103	0.103	0.125	0.073	0.078	0.098	0.087	0.063	0.054	0.056	0.057	0.079	0.061	0.068	0.051	0.069	0.079	0.065	0.061	0.083
240.0	143.7	167.9	480.2	2231	2971	469.6	23.56	4.777	3.359	2.886	3.048	2.519	2.112	1.697	1.507	1.303	1.093	0.769	0.764	0.669	0.682	0.464	0.568	0.493	0.469	0.368	0.353	0.356	0.274	0.233	0.305	0.269	0.256	0.222	0.183	0.209	0.198	0.206	0.198	0.181	0.143	0.192	0.174	0.284	0.333	0.403	0.335	0.415	0.888	1.894	5.132	12.84	15.22	9.324	3.091	0.408	0.117	0.121	0.146	0.094	0.062	0.102	0.146	0.119	0.089	0.129	0.052	0.069	0.087	0.050	0.069	0.064	0.075	0.086	0.048	0.048	0.070
245.0	106.3	203.8	174.1	760.1	3227	3097	339.0	11.66	4.096	3.291	3.947	3.033	2.686	1.883	1.423	1.316	1.293	0.770	0.969	0.801	0.728	0.461	0.562	0.396	0.466	0.488	0.425	0.312	0.402	0.290	0.334	0.260	0.277	0.264	0.244	0.143	0.214	0.322	0.272	0.246	0.190	0.148	0.152	0.199	0.245	0.449	0.540	0.453	0.408	0.527	1.345	4.509	12.08	19.79	18.65	8.715	1.814	0.228	0.204	0.089	0.168	0.071	0.081	0.135	0.132	0.106	0.112	0.060	0.062	0.060	0.064	0.051	0.073	0.076	0.057	0.054	0.053
250.0	44.28	142.8	233.9	261.4	1016	3008	3729	1262	67.97	5.790	4.308	3.829	3.088	2.433	1.732	1.505	1.106	0.936	0.888	0.792	0.729	0.560	0.563	0.531	0.522	0.524	0.446	0.394	0.428	0.304	0.333	0.291	0.272	0.256	0.192	0.212	0.186	0.245	0.199	0.237	0.203	0.189	0.171	0.160	0.177	0.263	0.357	0.611	0.776	0.643	0.670	1.183	2.978	6.595	12.54	18.61	23.28	17.77	9.541	2.235	0.220	0.110	0.120	0.109	0.137	0.107	0.108	0.087	0.083	0.071	0.068	0.057	0.068	0.092	0.070	0.071	0.058
255.0	24.85	50.99	151.1	332.1	324.5	757.8	2762	5837	1693	64.48	6.690	5.553	4.265	2.923	2.063	1.698	1.355	1.163	1.126	0.845	0.689	0.657	0.625	0.631	0.604	0.443	0.447	0.412	0.418	0.373	0.454	0.353	0.265	0.258	0.261	0.205	0.198	0.224	0.206	0.237	0.219	0.234	0.222	0.166	0.182	0.208	0.200	0.320	0.384	0.616	1.107	1.153	1.008	1.652	2.974	4.562	9.303	22.24	38.78	27.06	13.73	2.092	0.185	0.119	0.159	0.131	0.100	0.099	0.077	0.090	0.063	0.080	0.104	0.054	0.080	0.106	0.063
260.0	20.43	27.11	57.48	279.5	328.9	234.5	806.5	4521	6264	287.3	29.25	7.599	4.793	3.492	2.391	1.930	1.733	1.286	1.132	0.947	0.783	0.716	0.629	0.590	0.485	0.503	0.483	0.378	0.470	0.341	0.352	0.337	0.310	0.253	0.273	0.221	0.197	0.287	0.222	0.210	0.237	0.164	0.181	0.183	0.228	0.181	0.195	0.204	0.210	0.294	0.695	1.407	1.473	1.069	0.849	1.205	2.307	6.107	17.34	34.10	46.74	24.98	10.05	0.874	0.148	0.167	0.134	0.140	0.123	0.133	0.070	0.113	0.068	0.054	0.113	0.079	0.071
265.0	22.47	25.31	25.48	124.1	385.3	265.5	220.3	1447	6162	5932	226.4	14.37	5.673	4.412	3.120	2.526	1.780	1.447	1.255	1.064	1.028	0.693	0.660	0.647	0.598	0.554	0.435	0.402	0.431	0.399	0.405	0.332	0.324	0.359	0.276	0.272	0.253	0.326	0.236	0.230	0.217	0.202	0.209	0.260	0.247	0.208	0.196	0.181	0.139	0.166	0.257	0.721	1.451	1.878	1.238	0.658	0.798	1.564	4.241	10.38	26.68	47.03	53.69	21.45	5.042	0.370	0.138	0.184	0.161	0.119	0.113	0.094	0.072	0.097	0.088	0.113	0.062
270.0	41.34	31.82	29.39	45.83	179.3	378.1	295.3	383.8	1877	5540	6990	870.1	50.91	6.735	4.456	3.028	2.099	1.814	1.311	1.338	1.047	0.903	0.834	0.822	0.655	0.642	0.495	0.539	0.546	0.433	0.451	0.394	0.407	0.387	0.371	0.289	0.253	0.303	0.235	0.231	0.198	0.218	0.244	0.262	0.255	0.260	0.252	0.185	0.209	0.156	0.184	0.310	0.552	0.927	1.442	1.747	1.568	1.036	1.275	2.558	6.437	13.78	27.43	40.35	38.98	41.96	14.76	5.450	0.475	0.186	0.124	0.124	0.149	0.169	0.123	0.113	0.097
275.0	84.59	71.46	69.35	48.09	65.73	170.4	480.4	355.8	474.5	1364	4664	9999.9	1221	49.34	7.026	4.308	3.497	2.597	1.797	1.529	1.196	0.923	0.945	0.962	0.744	0.710	0.586	0.591	0.576	0.473	0.412	0.490	0.457	0.458	0.403	0.429	0.318	0.312	0.328	0.252	0.233	0.331	0.269	0.267	0.361	0.256	0.333	0.319	0.380	0.225	0.219	0.239	0.303	0.418	0.562	0.928	2.048	2.909	1.997	1.159	1.696	3.332	6.443	9.536	12.77	33.31	63.29	69.55	23.80	6.070	0.362	0.228	0.150	0.162	0.146	0.111	0.156
280.0	127.3	156.3	127.5	72.16	50.74	83.75	283.6	586.8	294.8	378.9	1333	7360	9209	865.9	22.82	6.482	4.268	2.646	2.042	1.707	1.625	1.230	1.044	0.885	0.830	0.824	0.552	0.700	0.576	0.551	0.469	0.449	0.542	0.397	0.437	0.391	0.393	0.389	0.379	0.306	0.212	0.369	0.343	0.316	0.385	0.405	0.465	0.429	0.502	0.391	0.315	0.322	0.324	0.288	0.308	0.409	0.867	1.820	3.111	2.656	1.417	1.136	1.791	2.496	3.248	8.609	22.27	51.46	75.14	32.98	19.44	2.958	0.294	0.177	0.220	0.113	0.155
285.0	190.4	251.4	215.8	126.0	65.13	71.60	133.7	480.4	589.5	266.9	462.7	2286	8698	7621	122.5	11.45	5.193	3.627	2.873	1.943	1.798	1.408	1.193	0.978	0.962	0.941	0.655	0.732	0.626	0.528	0.526	0.534	0.517	0.411	0.546	0.500	0.528	0.448	0.485	0.353	0.286	0.464	0.395	0.465	0.540	0.631	0.640	0.669	0.644	0.511	0.391	0.442	0.347	0.343	0.297	0.341	0.492	0.797	1.526	3.060	3.373	1.950	1.372	1.145	1.461	2.769	5.814	13.73	31.64	57.44	82.51	30.49	14.26	1.252	0.310	0.192	0.233
290.0	355.0	441.9	392.0	225.5	112.7	96.05	125.2	269.6	640.2	768.6	575.7	947.6	2766	6712	7088	1863	30.30	5.579	3.714	2.888	2.309	1.744	1.361	1.213	1.061	1.031	0.769	0.724	0.732	0.657	0.602	0.571	0.591	0.558	0.691	0.698	0.678	0.599	0.595	0.474	0.480	0.494	0.553	0.684	0.718	0.890	0.943	1.126	1.070	0.859	0.617	0.660	0.503	0.469	0.421	0.478	0.532	0.626	0.983	1.589	2.458	3.424	3.952	3.186	2.275	2.328	3.096	4.843	8.896	15.88	31.86	42.68	59.22	50.92	38.08	10.80	1.757
295.0	507.6	662.6	569.6	339.7	173.0	137.9	169.6	262.7	477.5	977.5	1241	999.9	1196	1851	4364	9400	685.5	29.05	5.580	3.540	2.839	2.190	1.658	1.343	1.189	0.993	0.843	0.850	0.815	0.824	0.695	0.626	0.648	0.748	0.872	0.825	0.817	0.693	0.777	0.568	0.513	0.648	0.609	0.791	0.949	1.277	1.321	1.635	1.559	1.320	0.886	0.824	0.642	0.646	0.581	0.620	0.697	0.862	1.046	1.357	1.779	2.336	3.272	5.101	6.191	4.886	4.080	3.945	4.424	6.075	9.217	10.89	15.33	24.88	58.02	79.59	33.20
300.0	584.3	768.9	704.8	423.2	220.4	179.0	212.1	318.4	509.1	879.8	1582	1406	1007	800.1	1251	6379	5820	519.4	13.99	5.107	3.857	2.836	1.921	1.803	1.429	1.247	1.063	0.977	0.936	0.704	0.848	0.705	0.602	0.844	0.953	1.008	0.907	0.757	0.733	0.647	0.570	0.619	0.730	0.933	1.143	1.414	1.648	1.747	1.855	1.481	1.148	1.055	0.829	0.652	0.653	0.771	0.918	1.090	1.378	1.437	1.925	2.186	2.874	4.047	6.022	7.441	6.866	5.252	4.360	4.353	4.622	3.990	4.656	6.429	16.39	39.80	70.58
305.0	636.9	875.0	790.0	471.4	258.8	210.7	265.8	382.2	588.2	891.3	1431	1891	1192	655.4	477.8	1850	6640	4975	72.95	8.232	4.764	3.655	2.571	1.941	1.839	1.462	1.061	0.975	0.920	0.888	0.817	0.777	0.647	0.747	1.012	1.048	1.007	0.810	0.714	0.646	0.711	0.569	0.847	0.847	1.308	1.487	1.725	2.031	1.953	1.497	1.197	1.104	1.059	0.842	0.780	0.922	1.145	1.360	1.643	1.912	2.384	2.539	3.302	4.185	4.885	6.279	8.130	7.866	5.750	4.497	3.847	3.023	2.464	2.486	4.506	10.15	22.68
310.0	628.5	868.5	796.2	489.5	292.4	257.7	313.9	446.3	644.1	935.5	1304	1712	1594	819.2	371.7	550.1	1925	4949	5379	1369	21.57	5.210	3.241	2.457	1.995	1.674	1.438	1.177	1.057	1.023	0.858	0.790	0.742	0.865	1.076	1.053	1.015	0.825	0.815	0.718	0.733	0.704	0.870	0.883	1.203	1.486	1.726	2.147	1.943	1.571	1.275	1.184	1.129	1.043	0.881	1.056	1.285	1.508	1.780	2.012	2.542	2.937	3.667	4.405	4.605	5.247	6.135	7.305	7.404	6.814	5.399	3.383	2.392	1.841	1.997	3.110	5.818
315.0	638.0	839.7	802.3	513.9	332.1	306.3	384.2	519.4	714.6	978.7	1300	1489	1478	1214	504.3	317.3	551.0	1212	3385	6918	487.6	21.65	4.664	3.607	2.440	1.962	1.781	1.495	1.280	1.116	1.061	0.951	0.857	0.978	0.945	1.030	0.983	0.875	0.748	0.647	0.667	0.694	0.827	0.902	1.187	1.432	1.709	2.174	1.981	1.459	1.376	1.197	1.184	1.189	1.238	1.259	1.514	1.643	1.947	2.228	2.582	3.045	3.969	4.286	5.002	5.261	5.752	6.209	5.622	6.040	6.599	5.578	3.720	2.368	1.847	1.695	2.374
320.0	652.2	846.7	819.9	535.3	371.5	348.5	437.8	584.3	796.4	1068	1336	1467	1354	1228	808.8	345.6	287.3	367.8	912.0	4681	4142	401.8	10.18	4.591	3.317	2.481	1.901	1.400	1.413	1.071	1.075	0.998	0.926	0.992	0.999	1.005	1.002	0.832	0.794	0.698	0.651	0.724	0.912	0.907	1.285	1.510	1.772	2.164	2.071	1.616	1.459	1.452	1.435	1.277	1.343	1.489	1.611	1.875	2.527	2.481	3.045	3.582	4.181	4.531	5.120	5.182	5.754	5.644	5.606	5.319	5.447	5.937	5.530	4.229	2.627	1.771	1.957
325.0	658.7	963.3	912.9	619.9	420.0	400.0	505.4	676.8	875.5	1144	1395	1498	1344	1093	993.3	539.1	271.0	203.2	273.3	1351	5066	3776	56.04	7.374	4.050	3.006	2.011	1.631	1.564	1.145	1.164	1.018	0.908	1.075	1.019	1.041	0.932	0.892	0.698	0.718	0.742	0.704	1.099	1.029	1.344	1.570	1.855	2.245	2.304	1.809	1.626	1.658	1.356	1.339	1.488	1.614	1.782	2.250	2.649	2.690	3.175	3.710	4.165	4.566	5.382	5.474	5.644	5.676	5.736	5.481	5.416	4.443	4.902	5.603	4.155	2.996	2.053
330.0	675.9	963.1	1006	744.9	527.7	485.1	581.9	771.0	993.3	1257	1476	1560	1397	1089	885.5	768.0	445.2	212.9	157.1	362.3	1469	4260	4287	1163	17.53	4.394	2.904	2.300	1.921	1.512	1.246	1.179	1.029	1.010	1.011	1.031	0.896	0.863	0.732	0.793	0.739	0.842	0.883	1.053	1.328	1.606	1.939	2.386	2.480	2.169	1.891	1.950	1.767	1.611	1.771	1.721	2.194	2.527	3.027	3.210	3.631	4.157	4.685	5.180	5.644	5.830	5.933	6.029	5.912	5.765	5.187	4.648	4.389	4.715	4.247	4.329	3.869
335.0	672.7	935.9	1071	850.0	629.9	574.9	654.7	841.7	1081	1331	1518	1583	1427	1143	861.1	690.3	659.8	350.6	171.5	168.7	384.7	1026	2943	6163	402.8	17.93	4.063	2.724	2.392	1.757	1.560	1.345	1.181	1.121	1.173	1.089	0.947	1.012	0.886	0.677	0.727	0.795	0.904	1.042	1.298	1.752	1.867	2.545	2.509	2.437	2.100	2.216	2.133	1.856	2.077	2.052	2.488	2.897	3.031	3.410	3.813	4.414	4.794	5.432	5.706	5.930	5.974	6.062	6.185	5.973	5.600	4.947	4.530	4.309	3.943	3.580	3.773
340.0	620.2	970.9	1090	896.4	666.3	607.7	683.2	860.7	1094	1315	1490	1550	1407	1146	867.3	643.2	608.9	520.7	227.7	145.2	160.1	281.1	804.8	4462	5051	331.2	8.332	3.580	2.801	1.989	1.703	1.362	1.266	1.085	1.104	0.978	0.949	0.934	0.831	0.727	0.748	0.820	0.959	1.067	1.180	1.613	1.893	2.459	2.568	2.561	2.254	2.307	2.446	2.098	2.104	2.021	2.726	2.804	3.333	3.576	4.002	4.198	4.990	5.297	5.555	5.767	5.903	5.821	6.025	5.721	5.378	4.809	4.695	4.210	3.759	3.286	3.130
345.0	627.0	917.6	1069	916.8	683.6	632.4	695.1	860.7	1071	1268	1431	1460	1348	1119	866.1	634.5	509.7	538.7	363.0	168.2	126.6	129.8	227.2	1323	4929	3120	48.85	5.349	3.159	2.469	1.916	1.459	1.292	1.142	0.975	1.074	1.008	0.834	0.714	0.838	0.789	0.912	0.855	0.995	1.168	1.608	1.799	2.409	2.716	2.396	2.338	2.604	2.442	2.334	2.039	2.257	2.688	2.839	3.228	3.459	3.935	4.292	4.943	5.058	5.331	5.601	5.446	5.643	5.658	5.499	5.451	4.893	4.530	4.322	3.792	3.295	3.029
350.0	617.5	830.3	992.2	897.3	725.8	654.9	692.7	827.9	997.1	1168	1299	1332	1233	1048	828.9	624.9	481.9	431.8	441.0	303.6	162.3	122.2	119.9	344.4	1452	3457	3502	899.9	15.21	3.294	2.254	1.882	1.519	1.242	1.059	0.994	0.982	0.912	0.745	0.776	0.775	0.814	0.819	0.973	1.088	1.488	1.697	2.218	2.401	2.345	2.214	2.635	2.345	2.336	2.265	2.304	2.548	2.666	2.971	3.375	3.663	3.986	4.429	4.725	4.919	5.012	5.162	4.986	4.965	5.058	4.833	4.683	4.320	4.100	3.725	3.372	3.104
355.0	567.6	755.9	913.3	871.3	732.1	671.9	681.7	792.7	922.7	1061	1144	1183	1113	970.3	783.6	617.7	492.2	404.3	374.7	414.9	278.1	157.5	123.8	147.8	371.5	839.2	2541	4650	368.8	15.17	3.315	2.204	1.885	1.421	1.186	1.081	0.937	0.991	0.844	0.650	0.824	0.663	0.759	0.915	1.012	1.405	1.540	1.895	2.103	2.061	2.224	2.440	2.233	2.222	2.151	2.259	2.684	2.629	2.952	3.233	3.236	3.676	4.012	4.446	4.337	4.641	4.696	4.565	4.737	4.604	4.358	4.272	3.862	3.903	3.707	3.215	3.239
360.0	511.2	733.0	847.7	843.3	750.5	677.6	689.0	757.6	865.1	982.5	1058	1095	1024	907.2	758.6	608.6	502.5	416.2	358.5	378.7	389.1	226.9	149.7	124.5	148.3	231.8	706.3	3563	3106	300.4	7.602	3.041	2.192	1.721	1.338	1.168	0.906	0.893	0.931	0.700	0.809	0.803	0.796	0.941	1.012	1.301	1.590	1.727	2.204	1.954	2.068	2.507	2.731	2.397	2.231	2.307	2.497	2.560	2.753	3.032	3.003	3.435	3.890	3.981	4.262	4.072	4.528	4.267	4.162	4.198	4.518	4.068	3.720	4.168	3.391	3.302	3.103
365.0	461.2	698.0	800.8	815.7	755.5	683.9	677.6	733.4	819.4	914.8	985.8	1004	942.6	846.3	732.7	604.0	505.7	433.2	373.8	348.8	398.6	338.1	190.2	141.3	116.2	110.8	198.9	1080	4068	2838	45.38	4.566	2.788	1.886	1.470	1.166	1.074	0.926	0.918	0.765	0.749	0.737	0.779	0.899	0.980	1.314	1.325	1.771	2.120	2.060	1.977	2.407	2.495	2.283	2.309	2.242	2.548	2.567	2.603	2.885	3.104	3.461	3.789	3.697	3.847	3.864	4.115	3.910	4.051	3.966	4.042	3.775	3.437	3.554	3.479	3.359	3.245
370.0	455.6	649.5	773.8	800.8	748.4	687.2	681.4	709.1	775.0	844.7	907.4	916.6	870.6	794.7	699.7	596.2	519.8	457.6	404.7	365.0	357.5	387.4	309.5	193.7	140.1	111.7	103.8	283.4	1235	3147	3269	816.2	13.72	2.815	1.989	1.477	1.221	1.095	0.885	0.768	0.772	0.770	0.785	0.841	1.008	1.157	1.389	1.736	2.003	1.970	1.927	2.353	2.461	2.502	2.367	2.172	2.486	2.516	2.612	2.726	3.137	3.166	3.365	3.374	3.557	3.532	3.686	3.766	3.741	3.725	3.720	3.439	3.436	3.325	3.320	3.436	3.205
375.0	452.7	612.3	738.4	768.6	739.6	709.6	679.2	702.9	741.6	794.9	829.2	838.4	806.3	754.8	668.2	595.4	528.7	480.2	438.5	395.1	365.5	349.4	382.2	302.6	184.7	137.5	108.2	123.2	317.3	768.6	2383	4121	318.7	14.16	2.899	1.869	1.434	1.188	0.972	0.827	0.856	0.949	0.866	0.813	0.936	1.268	1.467	1.627	1.866	1.871	1.920	2.343	2.406	2.398	2.515	2.554	2.698	2.389	2.628	2.826	2.717	2.729	3.110	3.224	3.202	3.398	3.280	3.419	3.454	3.496	3.463	3.271	3.293	3.379	3.166	3.295	3.325
380.0	430.9	600.1	724.1	777.5	758.4	711.5	688.8	697.7	710.5	756.7	785.0	791.8	760.9	712.5	646.4	588.4	532.8	493.5	459.1	421.3	386.9	353.6	361.4	374.0	246.7	165.9	127.7	103.9	124.9	211.2	658.7	3117	2688	259.3	6.890	2.482	1.778	1.403	1.031	0.951	0.867	0.857	0.881	0.872	1.034	1.199	1.332	1.605	1.920	1.706	1.880	2.309	2.304	2.378	2.443	2.470	2.656	2.464	2.655	2.819	2.662	2.964	2.846	3.061	3.007	3.080	3.198	3.236	3.227	3.252	3.193	3.256	3.188	3.221	3.168	3.117	3.373
385.0	446.6	576.1	718.0	785.1	758.5	700.6	685.0	688.3	698.9	722.2	751.7	750.9	728.3	684.2	632.4	580.1	535.9	507.5	469.9	440.5	402.6	370.8	347.9	373.3	329.9	206.0	152.4	117.8	98.92	97.41	183.8	937.3	3368	2388	37.68	4.067	2.187	1.715	1.283	0.994	0.922	0.791	0.938	0.831	0.990	1.162	1.505	1.592	1.709	1.697	1.730	2.334	2.652	2.415	2.562	2.417	2.741	2.743	2.791	2.699	2.571	2.817	2.911	2.917	3.149	2.933	2.946	3.062	3.124	3.303	2.937	3.095	3.027	2.996	3.135	3.079	3.154
390.0	424.7	573.3	715.9	759.3	760.0	711.1	694.6	678.1	681.0	705.1	717.6	715.5	700.2	664.4	617.9	571.5	537.4	512.5	488.2	459.6	425.1	392.9	364.6	345.8	356.0	302.3	203.9	151.1	120.9	99.03	95.76	247.9	1008	2450	2500	667.9	12.34	2.386	1.677	1.128	1.086	0.900	0.833	0.882	0.965	1.194	1.278	1.579	1.724	1.810	1.720	2.291	2.459	2.449	2.503	2.453	2.642	2.665	2.584	2.808	2.593	2.777	2.891	2.797	2.897	2.834	2.868	2.974	2.967	3.003	2.863	3.048	3.028	3.162	3.221	3.001	2.962
395.0	409.8	568.8	696.0	745.2	750.8	714.1	697.3	684.4	680.1	684.6	695.0	699.2	671.6	647.0	602.4	568.8	541.2	516.2	499.1	471.5	443.6	414.0	386.9	357.0	336.0	345.8	295.9	196.7	154.4	126.8	100.8	111.4	264.0	604.0	1735	3157	269.0	13.41	2.297	1.575	1.384	0.967	0.937	1.102	0.890	1.231	1.277	1.471	1.669	1.739	1.791	2.193	2.424	2.545	2.630	2.602	2.573	2.616	2.620	2.679	2.497	2.815	2.631	2.846	2.903	2.867	2.826	2.844	2.773	2.960	3.111	2.827	3.067	2.944	2.967	3.202	3.047
400.0	403.6	545.0	685.1	739.7	760.4	723.8	697.5	681.8	669.9	677.9	681.5	681.2	662.5	636.4	590.4	555.1	531.7	514.7	497.6	475.2	450.1	425.9	400.4	371.4	339.6	331.3	344.0	254.2	185.2	150.2	116.0	93.81	107.9	172.6	482.8	2298	2237	230.0	6.581	1.900	1.623	1.063	1.132	1.175	0.880	1.293	1.334	1.520	1.774	1.657	1.654	2.228	2.395	2.354	2.615	2.482	2.670	2.770	2.580	2.660	2.665	2.827	2.655	2.883	3.008	2.756	2.899	2.826	2.788	2.935	2.892	2.843	2.969	2.976	2.835	2.932	3.119
405.0	400.7	537.8	696.0	734.5	750.0	719.6	696.5	684.8	661.9	668.5	677.7	669.9	654.8	624.2	584.4	549.9	523.1	511.4	496.8	469.6	453.9	430.8	409.2	382.9	352.5	324.7	334.4	313.6	219.3	170.1	133.9	101.1	82.69	82.35	139.5	679.6	2532	2038	34.58	3.232	1.873	1.470	1.201	0.946	1.072	1.303	1.251	1.509	1.785	1.697	1.737	2.144	2.429	2.416	2.499	2.255	2.675	2.565	2.505	2.708	2.881	2.730	2.645	2.789	2.954	2.668	2.801	2.813	2.626	2.928	2.563	2.730	3.040	2.950	2.810	2.840	2.988
410.0	369.6	522.9	674.8	727.9	732.9	720.0	694.7	678.6	663.0	660.0	661.0	654.3	635.6	608.3	571.0	534.4	511.5	497.6	484.2	464.8	446.3	429.9	413.8	388.7	361.7	333.4	314.6	317.6	285.6	210.8	156.1	118.8	90.77	73.84	70.38	177.9	732.1	1846	2050	605.3	11.42	1.852	1.389	1.245	1.250	1.265	1.292	1.561	1.712	1.737	1.701	2.258	2.302	2.320	2.405	2.445	2.704	2.793	2.539	2.659	2.729	2.675	2.581	2.826	2.724	2.603	2.752	2.627	2.578	2.853	2.639	2.806	2.870	2.831	2.802	2.830	2.886
415.0	389.4	502.5	648.5	699.2	718.8	708.4	674.3	667.2	654.2	652.5	648.2	641.7	613.2	587.8	552.4	516.2	496.1	480.3	467.3	451.3	435.0	423.6	408.8	387.8	365.5	338.2	315.8	294.1	303.9	270.7	190.4	137.7	105.0	83.60	65.05	71.73	183.6	441.6	1282	2461	249.7	13.87	1.760	1.540	1.238	1.438	1.325	1.732	1.760	1.694	1.741	2.180	2.369	2.264	2.382	2.496	2.629	2.635	2.706	2.712	2.736	2.516	2.591	2.598	2.501	2.478	2.626	2.610	2.534	2.736	2.560	2.747	2.850	2.643	2.627	2.865	2.878
