Sample:	'1
File name:	L2025090916¶«¶þÂ·ÇÅ.FD3
Run date:	'16:11:41, 09/09/2025
Operator:	Administrator
Comment:	'

Instrument
Model:	F-2700 FL Spectrophotometer
Serial number:	3064-004
ROM Version:	4J14000 07

Instrument parameters
Measurement type:	3-D scan
Data mode:	Fluorescence
EX  Start WL:	220.0 nm
EX  End WL:	600.0 nm
EX Sampling interval:	5.0 nm
EM  Start WL:	230.0 nm
EM  End WL:	650.0 nm
EM Sampling interval:	5.0 nm
Scan speed:	12000 nm/min
EX Slit:	5.0 nm
EM Slit:	5.0 nm
PMT Voltage:	700 V
Response:	Auto 
Corrected spectra:	Off
Contour interval:	50.000

Peak integration
Integration method:	Rectangular
Sensitivity:	1
Threshold:	1.000

Peaks
No.	ApexEX/EM(nm)	Height(Data)
1	225.0/580.0	32.83
2	225.0/620.0	24.52
3	230.0/345.0	407.3
4	230.0/600.0	25.02
5	230.0/640.0	24.76
6	235.0/340.0	413.1
7	240.0/600.0	26.15
8	245.0/265.0	377.6
9	250.0/270.0	431.1
10	255.0/280.0	654.7
11	255.0/555.0	272.9
12	260.0/285.0	786.5
13	260.0/450.0	 2417
14	260.0/565.0	206.3
15	265.0/290.0	715.1
16	265.0/580.0	183.2
17	270.0/295.0	 1094
18	270.0/590.0	148.0
19	275.0/305.0	 1280
20	275.0/375.0	782.0
21	275.0/605.0	131.0
22	280.0/310.0	 1216
23	280.0/345.0	743.5
24	280.0/360.0	761.0
25	280.0/615.0	102.5
26	285.0/315.0	 1224
27	285.0/630.0	84.18
28	290.0/320.0	 1166
29	290.0/640.0	66.05
30	300.0/335.0	756.1
31	305.0/340.0	783.7
32	310.0/345.0	696.1
33	320.0/360.0	734.9
34	325.0/365.0	746.4
35	335.0/380.0	786.6
36	340.0/385.0	776.7
37	345.0/395.0	708.6
38	365.0/450.0	 2009
39	440.0/515.0	50.69
40	445.0/525.0	40.89
41	460.0/545.0	21.56
42	475.0/565.0	10.29
43	485.0/580.0	5.878
44	505.0/275.0	3.286
45	510.0/280.0	3.721
46	515.0/285.0	4.136
47	520.0/460.0	9.669
48	525.0/290.0	3.880
49	525.0/450.0	9.670
50	540.0/295.0	5.249
51	545.0/300.0	6.209
52	550.0/305.0	6.184
53	560.0/310.0	6.037
54	570.0/315.0	6.372
55	575.0/320.0	6.013
56	585.0/325.0	6.142
57	585.0/345.0	4.485

Data points
	220.0	225.0	230.0	235.0	240.0	245.0	250.0	255.0	260.0	265.0	270.0	275.0	280.0	285.0	290.0	295.0	300.0	305.0	310.0	315.0	320.0	325.0	330.0	335.0	340.0	345.0	350.0	355.0	360.0	365.0	370.0	375.0	380.0	385.0	390.0	395.0	400.0	405.0	410.0	415.0	420.0	425.0	430.0	435.0	440.0	445.0	450.0	455.0	460.0	465.0	470.0	475.0	480.0	485.0	490.0	495.0	500.0	505.0	510.0	515.0	520.0	525.0	530.0	535.0	540.0	545.0	550.0	555.0	560.0	565.0	570.0	575.0	580.0	585.0	590.0	595.0	600.0
230.0	23.03	514.6	 3208	 1759	155.9	12.14	9.204	7.320	7.260	6.508	6.075	5.580	5.211	4.668	3.664	3.144	2.924	2.729	4.559	2.206	1.714	1.906	1.574	1.708	1.744	1.416	1.485	1.262	1.181	1.409	1.528	1.172	1.106	1.154	0.926	0.975	0.821	1.477	0.676	0.702	0.772	0.901	0.788	0.671	0.572	0.562	1.619	5.948	9.671	7.041	2.737	0.688	0.489	0.545	0.472	0.476	0.429	0.419	0.403	0.446	0.383	0.340	0.405	0.368	0.396	0.354	0.371	0.357	0.373	0.349	0.518	0.291	0.305	0.375	0.349	0.286	0.305
235.0	58.24	143.9	 1434	 3606	 2677	143.1	10.45	11.82	7.724	6.932	6.746	4.796	5.112	4.508	2.951	3.065	3.408	2.459	3.681	2.113	2.365	1.968	1.439	1.318	2.060	1.479	1.731	1.572	1.417	1.366	1.394	1.144	1.294	0.982	0.620	0.830	0.697	0.883	0.662	0.835	0.695	0.770	0.815	0.756	0.626	0.782	0.925	1.903	4.077	6.974	9.095	8.877	4.188	1.065	0.434	0.429	0.506	0.574	0.599	0.434	0.439	0.416	0.433	0.351	0.383	0.460	0.353	0.408	0.292	0.385	0.405	0.371	0.306	0.292	0.381	0.325	0.248
240.0	59.17	93.05	372.0	 2127	 7043	934.6	64.52	12.39	9.465	10.41	8.197	6.220	6.828	5.320	3.574	3.640	3.282	2.363	3.512	2.376	2.038	1.857	2.113	1.860	1.552	1.575	1.456	1.590	1.670	1.468	1.552	1.335	1.275	1.052	1.010	0.791	1.017	0.978	0.930	0.866	0.617	0.730	0.840	0.757	0.760	1.121	0.791	0.767	1.439	2.426	5.503	11.88	14.12	9.198	2.929	0.606	0.510	0.525	0.484	0.347	0.440	0.286	0.324	0.400	0.356	0.413	0.359	0.297	0.285	0.460	0.376	0.365	0.327	0.538	0.400	0.470	0.395
245.0	42.44	103.2	157.0	586.8	 5320	 7462	726.8	30.40	10.73	9.590	8.302	6.311	5.615	5.280	4.280	3.951	2.826	2.389	4.014	1.965	2.326	2.136	2.273	1.573	1.768	1.491	1.590	1.365	1.509	1.573	1.706	1.410	1.085	0.965	0.912	0.965	0.859	0.877	1.008	1.080	0.715	0.679	0.751	0.597	0.810	1.127	1.058	1.084	0.813	0.961	1.696	4.521	11.16	15.55	14.91	6.822	1.735	0.507	0.485	0.382	0.545	0.552	0.374	0.261	0.398	0.342	0.457	0.279	0.228	0.380	0.314	0.409	0.323	0.613	0.315	0.295	0.444
250.0	27.56	61.66	159.8	238.1	 1417	 4365	 7413	 2410	196.1	13.03	8.993	8.007	7.531	5.458	4.942	4.397	3.351	2.923	4.534	2.608	2.138	1.938	2.124	2.125	1.891	1.544	1.491	1.267	1.528	1.733	1.589	1.451	1.186	1.167	0.872	1.069	0.815	0.755	0.781	0.763	0.708	0.877	0.725	0.672	0.743	0.785	0.776	1.057	1.351	1.185	0.918	1.481	3.014	5.631	10.36	14.78	16.90	13.59	7.231	2.076	0.637	0.564	0.414	0.438	0.368	0.414	0.429	0.480	0.284	0.436	0.355	0.431	0.384	0.401	0.261	0.334	0.358
255.0	29.20	28.29	88.67	283.9	473.4	 1015	 3581	 6102	 3748	252.5	14.76	12.37	7.154	6.671	5.932	4.567	3.808	3.645	4.781	2.456	2.372	2.104	1.820	2.181	1.531	1.625	1.543	1.205	1.793	1.553	1.651	1.650	1.353	1.272	1.012	1.003	0.665	0.754	0.608	0.608	0.733	0.803	0.720	0.622	0.608	0.745	0.561	0.577	1.006	1.033	1.548	1.671	1.448	1.635	2.810	3.969	7.582	17.35	28.16	24.44	9.905	2.093	0.448	0.350	0.455	0.513	0.500	0.402	0.324	0.336	0.430	0.379	0.417	0.350	0.191	0.309	0.341
260.0	26.91	16.61	35.70	176.3	400.8	337.1	886.9	 3178	 8055	 3179	118.8	14.41	10.93	8.326	5.611	5.016	3.770	3.579	4.643	2.417	2.109	2.216	2.159	2.031	2.279	1.784	1.849	1.626	1.526	1.337	1.317	1.823	1.431	1.164	1.313	0.960	0.646	0.781	0.838	0.727	0.816	0.851	0.866	0.708	0.711	0.510	0.607	0.611	0.573	0.686	1.075	1.876	1.787	1.262	1.205	1.358	2.187	5.349	14.62	29.58	35.57	24.08	6.613	0.732	0.464	0.497	0.443	0.380	0.318	0.383	0.390	0.397	0.392	0.380	0.328	0.300	0.281
265.0	27.55	22.26	23.16	68.27	322.3	377.6	259.6	850.0	 5060	 9313	 2358	51.96	12.01	8.951	7.799	6.134	4.303	3.667	4.443	2.829	2.294	2.191	2.227	1.863	1.971	1.735	1.747	1.344	1.313	1.719	1.129	1.489	1.386	1.253	1.079	0.852	0.935	1.055	0.593	0.732	0.843	0.849	0.742	0.641	0.698	0.561	0.686	0.756	0.507	0.551	0.640	1.174	1.918	2.229	1.658	1.044	0.899	1.824	3.926	10.28	23.70	40.89	39.23	18.69	2.919	0.492	0.448	0.309	0.349	0.381	0.273	0.374	0.374	0.468	0.290	0.459	0.258
270.0	30.23	25.84	27.17	33.48	119.4	341.7	431.1	281.8	 1324	 4946	 9101	 4873	163.0	14.22	9.559	6.948	4.990	4.249	5.345	3.090	2.590	2.560	2.320	2.039	2.176	1.929	1.879	1.786	1.733	1.749	1.363	1.572	1.169	1.238	1.059	0.861	0.886	0.945	0.629	0.680	0.778	0.730	0.762	0.805	0.739	0.716	0.794	0.660	0.671	0.620	0.623	0.691	1.029	1.482	1.965	2.144	2.080	1.396	1.380	2.825	6.215	13.46	24.40	35.39	40.57	29.99	15.41	3.051	0.425	0.419	0.324	0.375	0.368	0.352	0.482	0.321	0.448
275.0	42.98	33.16	42.08	33.78	50.01	113.2	420.3	550.6	378.0	 1163	 3506	9999.9	 3034	189.7	15.10	8.925	6.951	4.892	5.747	3.920	3.138	2.668	2.415	2.400	2.476	1.941	2.083	2.203	1.848	1.760	1.306	1.364	1.543	1.228	0.910	1.090	0.867	0.995	0.822	0.986	0.780	0.672	0.716	0.700	1.100	0.841	0.679	0.723	0.576	0.588	0.579	0.615	0.807	0.772	0.909	1.274	2.612	3.286	2.672	1.543	1.853	3.345	6.078	9.119	16.11	35.96	61.07	46.29	18.53	2.322	0.542	0.426	0.451	0.368	0.482	0.436	0.511
280.0	57.74	46.71	56.03	45.29	39.74	47.95	180.6	654.7	461.8	328.0	898.2	 4652	9999.9	 2440	102.4	12.03	7.322	6.048	6.506	3.577	3.442	3.074	2.498	2.566	1.951	2.520	2.195	1.942	1.767	1.750	1.283	1.547	1.430	1.536	1.155	0.941	0.994	0.833	0.887	0.895	0.655	0.676	0.813	0.862	1.044	0.835	0.863	0.891	0.506	0.757	0.689	0.585	0.600	0.693	0.570	0.876	1.441	2.465	3.721	3.030	1.532	1.328	2.102	2.621	4.288	10.09	27.22	56.56	71.94	38.90	8.948	1.081	0.397	0.407	0.377	0.443	0.479
285.0	68.18	68.45	79.85	61.18	41.55	38.83	76.70	349.6	786.5	311.6	301.0	 1236	 6417	9999.9	 1766	45.14	10.22	8.759	7.598	4.341	4.274	2.945	2.690	2.638	2.267	2.547	2.271	1.768	2.023	2.213	1.362	1.864	1.593	1.700	1.360	1.208	0.914	0.882	1.044	0.776	0.716	0.860	0.865	0.857	0.794	0.841	0.866	0.874	0.843	0.635	0.800	0.773	0.612	0.624	0.556	0.720	0.907	1.216	2.165	4.136	3.974	2.523	1.020	1.243	1.569	2.984	7.053	17.45	40.90	71.69	53.95	27.61	3.197	0.557	0.387	0.444	0.434
290.0	93.79	111.7	118.3	98.66	71.10	49.97	65.20	146.3	484.9	715.1	381.5	451.7	 1716	 5558	9999.9	 5550	97.83	11.81	9.284	5.806	5.090	3.532	3.110	2.734	2.749	2.496	2.318	2.057	1.919	2.194	1.792	1.735	1.637	1.621	1.197	1.175	1.208	1.043	1.038	1.006	1.054	0.947	0.973	0.885	0.853	0.925	1.027	1.139	1.115	0.877	0.899	0.852	0.669	0.650	0.540	0.671	0.842	0.952	1.310	1.850	2.662	3.880	3.802	2.618	1.658	1.593	2.621	4.969	10.62	21.23	34.61	52.58	54.39	35.03	18.75	4.058	2.967
295.0	106.9	139.4	165.8	132.2	87.10	70.22	81.14	126.7	224.2	501.2	 1094	485.2	632.8	 1440	 3285	9999.9	 8035	123.8	12.80	7.397	6.758	3.734	3.760	2.741	3.213	2.478	2.673	1.997	2.082	2.235	2.190	1.988	1.510	1.598	1.179	1.432	1.021	1.135	1.238	0.904	1.055	0.947	0.983	1.094	0.878	1.092	1.099	1.327	1.305	0.967	0.923	0.949	0.738	0.629	0.591	0.513	0.876	0.840	0.925	1.111	1.339	1.858	2.809	4.775	5.249	2.979	2.169	2.305	3.582	6.018	8.814	13.02	18.66	40.64	75.04	53.85	53.83
300.0	126.0	151.0	178.0	141.3	111.4	88.50	102.7	132.8	177.4	308.7	929.0	 1112	484.0	569.2	921.7	 3897	9999.9	 1449	80.59	9.378	7.707	4.726	3.966	3.699	3.515	3.101	2.879	2.166	2.199	2.336	2.022	1.933	1.421	1.466	1.272	1.318	1.304	1.233	1.232	1.072	1.197	0.948	0.990	1.142	0.952	1.087	1.035	1.423	1.200	0.971	0.943	0.991	0.798	0.924	0.886	0.803	0.972	1.188	1.288	1.161	1.162	1.513	1.739	2.822	5.070	6.209	4.118	2.681	2.534	2.769	3.340	4.156	5.307	10.68	29.40	62.93	339.5
305.0	127.2	165.8	200.9	184.5	127.7	111.8	136.1	150.0	203.2	285.0	568.7	 1280	914.0	436.5	421.9	 1032	 5130	9999.9	 1184	40.20	8.710	5.877	4.957	3.395	4.110	3.423	2.905	2.437	2.220	2.802	2.171	1.998	1.827	1.435	1.433	1.190	1.561	1.245	1.057	1.066	1.171	0.908	1.280	1.248	1.008	1.288	1.237	1.329	1.106	1.220	0.957	1.038	0.967	0.933	0.965	0.863	0.993	1.198	1.058	1.255	1.198	1.341	1.889	1.834	2.457	4.795	6.184	5.500	3.257	2.365	2.347	2.283	2.396	3.392	7.401	17.83	109.0
310.0	130.2	179.0	216.2	203.6	144.4	138.1	149.5	176.8	221.4	313.0	462.1	780.3	 1216	856.3	395.0	391.6	 1291	 4705	9999.9	 4608	70.03	9.377	6.680	5.073	4.480	3.640	3.059	2.538	2.035	2.463	1.976	2.029	1.705	1.464	1.677	1.273	1.316	1.302	1.262	1.354	1.405	1.176	1.212	1.282	1.213	1.188	1.395	1.320	1.218	1.278	1.041	1.168	1.034	0.953	0.998	1.060	1.100	1.335	1.183	1.296	1.457	1.552	1.607	1.989	2.170	2.985	4.055	5.089	6.037	5.259	3.456	2.173	2.013	2.088	2.794	4.991	25.40
315.0	134.4	188.1	242.9	226.8	171.9	150.8	162.6	198.5	267.5	352.1	469.1	588.2	797.1	 1224	767.9	307.5	415.5	 1134	 2998	 9733	 6407	93.79	8.593	6.451	5.292	4.709	3.138	3.126	2.820	2.458	2.416	2.209	1.953	1.729	1.653	1.077	1.382	1.445	1.474	1.312	1.278	1.268	1.262	1.240	1.096	1.295	1.411	1.463	1.384	1.066	1.169	1.127	0.991	1.174	1.199	1.050	1.283	1.397	1.517	1.372	1.619	1.611	1.948	2.263	2.190	2.847	2.644	3.509	3.862	5.208	6.372	5.021	2.683	2.074	2.019	2.238	6.618
320.0	138.6	220.0	299.9	250.0	172.1	161.1	189.1	216.0	288.9	377.1	511.8	611.9	682.6	924.5	 1166	467.3	256.5	365.9	762.2	 3508	9999.9	 4647	61.81	8.364	6.688	4.875	3.582	3.317	2.959	2.647	2.438	2.371	2.185	2.121	1.473	1.425	1.516	1.118	1.473	1.243	1.135	1.234	1.222	1.433	1.158	1.214	1.461	1.592	1.608	1.292	1.068	1.004	1.056	1.097	1.068	1.241	1.301	1.459	1.521	1.672	1.757	1.629	1.796	2.027	2.452	2.639	2.582	2.691	2.831	3.526	4.704	6.013	5.616	3.339	1.845	1.827	2.467
325.0	151.0	230.7	344.3	281.5	209.2	184.5	196.7	250.2	305.1	404.6	531.3	624.7	687.5	715.8	 1035	860.5	298.4	220.3	271.8	881.3	 4780	9999.9	891.8	33.76	8.134	5.243	3.960	3.707	3.479	3.021	2.556	2.806	2.160	2.062	1.453	1.502	1.352	1.213	1.143	1.340	1.568	1.612	1.264	1.256	1.446	1.289	1.702	1.751	1.732	1.319	1.158	1.169	1.351	0.914	1.225	1.199	1.241	1.177	1.296	1.368	1.827	1.854	2.057	2.257	2.674	2.631	2.744	2.708	3.572	3.465	3.767	4.037	5.645	6.142	3.927	2.304	1.950
330.0	159.0	251.3	373.7	329.9	249.1	216.8	217.2	264.6	332.2	426.1	541.4	652.2	713.6	696.3	726.4	859.5	681.3	284.9	195.0	301.2	 1181	 4332	 6886	 3581	57.02	8.210	5.491	4.624	4.025	3.436	2.848	2.545	2.144	2.023	1.769	1.746	1.317	1.383	1.460	1.258	1.202	1.518	1.339	1.265	1.416	1.338	1.604	1.870	1.886	1.582	1.439	1.371	1.320	1.121	1.355	1.414	1.519	1.430	1.501	1.454	1.785	2.156	2.242	2.189	2.825	2.783	2.892	3.019	3.388	3.256	3.446	3.597	3.973	4.405	4.640	4.640	3.646
335.0	157.8	278.0	395.9	364.5	287.5	256.3	240.9	286.0	364.6	451.3	560.9	674.9	725.2	730.5	666.2	604.1	756.1	632.2	248.5	205.5	365.7	 1041	 2210	 8309	 5430	75.80	8.197	6.228	4.518	3.869	3.151	2.812	2.456	2.061	2.108	1.721	1.378	1.350	1.381	1.461	1.141	1.254	1.270	1.502	1.502	1.352	1.830	2.167	1.714	1.695	1.352	1.586	1.327	1.532	1.026	1.477	1.594	1.573	1.697	1.494	1.896	2.187	2.270	2.540	2.951	3.119	3.106	3.236	3.467	3.240	3.415	3.044	3.281	3.118	2.908	4.084	4.453
340.0	159.4	271.3	406.4	413.1	329.4	286.3	272.0	314.2	375.1	464.4	584.5	684.2	743.3	733.9	658.4	551.4	571.5	783.7	441.6	225.2	209.2	328.6	571.7	 3231	9999.9	 3878	52.30	7.472	5.462	4.332	3.117	3.279	2.612	2.168	2.227	1.632	1.515	1.636	1.301	1.322	1.346	1.379	1.533	1.793	1.640	1.368	1.698	2.117	1.871	1.532	1.779	1.653	1.713	1.501	1.256	1.600	1.321	1.491	1.629	1.820	2.173	1.894	2.253	2.916	2.746	2.840	3.055	3.537	3.544	3.308	3.376	3.548	3.195	3.982	2.660	3.172	3.309
345.0	174.9	255.2	407.3	404.4	346.7	307.0	296.8	328.9	375.5	468.4	609.3	688.9	743.5	739.9	663.5	552.7	480.0	634.5	696.1	316.0	203.8	195.4	219.1	816.0	 4976	 9683	736.7	29.82	6.667	5.793	3.792	3.680	2.481	2.670	2.058	1.739	1.588	1.548	1.417	1.407	1.354	1.286	1.585	1.396	1.594	1.318	1.836	2.017	1.947	1.721	1.788	1.830	1.839	1.506	1.600	1.607	1.442	1.699	1.773	2.093	2.306	2.340	2.427	2.684	2.934	2.969	2.748	3.576	3.496	3.172	3.663	3.415	3.260	4.485	2.737	3.163	2.978
350.0	166.4	247.7	387.7	403.5	380.6	345.8	332.2	358.5	405.8	498.9	607.7	693.1	738.0	734.3	678.6	575.4	493.0	499.0	627.6	605.4	335.4	226.3	192.0	293.6	 1240	 4361	 5998	 2989	48.93	7.628	4.909	4.131	3.017	2.658	2.529	1.825	1.581	1.494	1.464	1.406	1.354	1.382	1.284	1.382	1.453	1.418	1.541	1.917	1.872	1.894	1.709	1.649	2.012	1.797	1.556	1.610	1.561	1.912	1.887	2.038	2.064	2.354	2.465	2.526	2.811	2.846	2.814	3.177	3.116	3.541	3.876	3.450	3.540	3.863	3.057	3.188	3.041
355.0	157.0	243.6	360.4	403.1	386.9	394.9	381.9	411.1	447.9	532.0	620.3	702.9	733.4	737.0	694.3	612.0	545.9	497.5	509.6	626.8	634.9	356.0	258.6	244.4	413.7	 1077	 2151	 7461	 4358	68.16	7.695	5.159	3.420	2.925	2.544	1.759	1.792	1.670	1.330	1.443	1.233	1.277	1.331	1.366	1.334	1.603	1.499	1.749	1.693	1.669	1.773	1.846	1.925	1.903	1.561	1.527	1.865	1.666	2.343	2.432	2.359	2.617	2.552	2.767	2.780	3.218	3.155	2.962	3.205	3.498	3.871	3.793	3.718	3.472	3.065	3.295	3.355
360.0	154.2	238.4	352.2	414.8	416.8	427.4	414.0	446.8	495.0	593.1	666.0	717.2	761.0	745.9	714.8	639.2	580.7	538.1	518.1	544.5	734.9	564.1	341.3	284.0	277.6	383.8	591.4	 3202	 8603	 3193	41.62	6.845	4.021	3.680	2.583	2.271	2.008	1.477	1.297	1.419	1.354	1.447	1.171	1.377	1.317	1.475	1.477	1.651	1.798	1.972	1.740	1.901	1.787	1.723	1.736	1.929	1.947	2.163	2.225	2.141	2.488	2.518	2.776	2.936	3.091	3.247	3.473	3.321	3.382	4.216	3.902	3.585	3.557	3.349	3.390	2.959	3.668
365.0	149.2	241.6	365.9	420.0	433.4	451.1	448.2	486.9	528.8	624.9	703.6	746.6	751.7	750.1	715.4	656.5	617.3	570.7	556.9	539.0	646.9	746.4	483.9	345.8	295.4	266.2	264.8	839.3	 4611	 8584	641.6	22.81	5.794	4.693	3.299	2.234	1.951	1.622	1.738	1.596	1.315	1.668	1.370	1.406	1.507	1.487	1.479	1.571	1.613	1.885	1.879	2.229	1.912	1.969	2.048	2.085	2.368	2.375	2.173	2.341	2.461	2.697	3.066	3.187	3.392	3.239	3.421	3.487	3.479	3.388	3.604	3.548	3.723	3.507	3.403	3.598	3.659
370.0	162.1	235.9	365.8	433.3	461.7	478.4	483.2	525.5	563.7	648.7	706.7	755.4	764.4	755.9	730.0	681.9	640.2	620.4	608.3	593.1	606.7	697.9	715.5	503.3	370.5	303.5	244.0	313.7	 1172	 4210	 5658	 2578	40.65	6.828	4.194	2.945	2.069	1.972	1.827	1.728	1.194	1.417	1.437	1.428	1.580	1.448	1.575	1.640	1.653	1.802	1.887	2.103	1.975	2.158	2.080	2.195	2.423	2.342	2.278	2.428	2.481	2.863	2.989	3.152	3.405	3.136	3.525	3.528	3.586	3.562	3.314	3.735	3.434	3.549	3.524	3.682	3.765
375.0	186.2	223.0	354.7	426.9	456.4	506.7	501.8	550.5	592.9	662.6	735.7	782.0	765.9	762.2	725.2	689.9	666.1	653.5	655.4	645.5	640.1	650.3	725.3	749.6	496.4	375.0	294.5	242.7	369.2	 1012	 2188	 7117	 3671	51.99	5.797	4.026	2.964	2.299	1.908	1.659	1.628	1.606	1.319	1.352	1.502	1.553	1.660	1.890	1.859	1.932	1.765	2.094	2.091	2.140	2.358	2.367	2.634	2.269	2.424	2.698	2.367	3.044	3.094	3.469	3.580	3.229	3.480	3.345	3.909	3.501	3.183	4.296	3.840	3.771	3.546	3.714	3.571
380.0	179.2	224.9	326.9	437.4	462.6	522.6	520.3	545.7	612.6	675.3	757.3	770.1	767.8	752.4	741.9	686.5	676.0	675.7	669.8	677.1	681.0	667.9	677.1	786.6	659.2	440.0	341.9	260.1	219.3	317.2	564.4	 3274	 8143	 2678	31.49	5.282	3.417	2.483	2.169	1.890	1.811	1.485	1.646	1.514	1.362	1.544	1.832	2.087	1.850	1.800	1.738	2.149	2.293	2.081	2.158	2.319	2.666	2.594	2.648	2.795	2.649	3.117	2.827	3.190	3.119	3.319	3.348	3.315	3.639	3.395	3.493	3.610	3.655	3.943	3.222	3.686	3.987
385.0	169.9	234.8	338.6	429.6	480.7	518.1	546.4	587.0	636.9	688.1	750.7	764.8	770.6	761.9	722.9	679.6	679.4	689.7	688.9	705.4	699.1	685.0	676.7	723.1	776.7	551.0	384.0	291.4	216.6	188.7	205.3	837.8	 4740	 8296	496.6	15.02	4.451	3.555	2.439	1.979	2.092	1.595	1.711	1.673	1.651	1.690	1.637	1.799	1.952	1.710	1.888	1.728	2.268	2.458	2.234	2.342	2.541	2.188	2.940	3.015	3.047	2.705	2.995	2.869	3.366	3.301	3.279	3.231	3.600	3.662	3.769	3.434	3.385	4.201	3.591	4.109	3.646
390.0	178.5	239.6	342.5	439.9	494.3	534.7	576.3	599.1	635.5	694.4	761.8	767.8	774.1	757.0	710.4	688.1	678.3	684.6	699.1	708.4	717.1	707.1	698.8	683.1	726.9	708.1	511.2	359.4	271.6	207.6	166.3	273.7	 1206	 4572	 4589	 1802	31.51	5.669	3.551	2.855	2.301	1.940	1.950	1.628	1.792	1.900	1.868	1.831	1.961	1.854	1.896	2.140	2.179	2.307	2.419	2.416	2.761	2.600	2.760	3.008	3.015	2.791	3.054	3.081	3.531	3.497	3.253	3.242	3.577	3.660	3.526	3.341	3.575	3.545	3.555	3.773	3.903
395.0	169.4	250.0	357.6	453.0	515.5	562.2	603.0	636.9	673.3	732.9	761.6	786.8	787.9	753.4	726.2	679.0	667.1	679.3	704.6	719.6	737.5	732.4	722.0	699.9	684.8	708.6	694.4	477.6	351.6	278.0	219.0	197.3	360.6	 1087	 1907	 5890	 2623	41.99	5.694	3.565	2.762	2.321	1.826	1.698	1.859	1.929	1.906	1.935	1.881	1.888	1.741	2.259	2.339	2.416	2.438	2.637	2.600	3.031	2.923	2.884	2.928	3.469	3.395	3.180	3.812	3.939	3.332	3.459	3.430	3.884	3.912	3.311	3.932	3.386	3.727	3.818	4.258
400.0	166.9	232.9	371.0	471.3	523.3	598.8	646.7	665.2	737.8	790.2	812.4	828.6	808.7	768.9	720.0	676.0	677.2	676.9	693.5	726.3	738.6	752.7	739.5	733.5	710.3	694.1	742.2	642.8	445.8	353.3	285.1	226.6	208.7	330.6	504.2	 2921	 5706	497.0	24.01	5.250	3.219	2.552	2.001	1.676	1.722	1.830	1.851	2.103	1.997	2.036	1.875	2.147	2.784	2.558	2.643	2.647	2.745	3.088	2.937	3.154	3.059	3.272	3.454	3.322	3.366	3.875	3.676	3.573	3.665	3.802	3.608	3.488	3.504	3.251	3.834	3.910	3.698
405.0	168.0	234.1	389.0	469.5	559.4	632.9	685.4	735.3	797.2	848.7	863.0	856.4	852.3	791.3	716.6	670.8	668.6	673.4	693.5	724.9	744.2	769.2	769.9	773.6	751.3	731.8	739.2	771.4	591.9	458.3	369.2	290.2	227.4	196.7	197.8	769.6	 3489	 4019	403.0	12.80	4.276	3.217	2.263	1.944	1.793	2.009	1.918	2.056	1.805	2.085	1.825	2.314	2.740	2.861	2.712	3.198	3.036	3.063	3.115	3.365	3.446	3.534	3.569	3.866	3.633	3.841	3.723	3.994	3.573	4.375	4.037	3.766	3.668	3.276	3.625	3.748	3.860
410.0	183.3	264.9	390.3	503.5	633.4	717.2	815.5	868.4	943.9	960.0	978.8	986.4	934.7	841.3	724.6	669.7	662.7	664.1	700.5	731.9	763.3	794.0	818.0	831.7	835.0	832.9	818.2	843.8	829.3	681.1	541.7	436.1	336.2	248.9	184.9	266.9	913.0	 2560	 3642	 1442	27.13	5.103	3.201	2.209	2.054	2.223	1.960	2.174	2.079	2.127	2.112	2.322	2.873	2.981	3.048	3.248	3.525	3.452	3.892	3.805	4.185	4.118	3.899	4.022	4.162	4.355	3.913	4.121	4.065	3.892	3.959	3.491	3.399	3.699	3.964	3.834	3.890
