Sample:	'1
File name:	c090112袁家屋子南闸口入杏花河.FD3
Run date:	'12:17:26, 09/03/2024
Operator:	horiz
Comment:	'

Instrument
Model:	F-2700 FL Spectrophotometer
Serial number:	23B8-004
ROM Version:	4J14000 07

Instrument parameters
Measurement type:	3-D scan
Data mode:	Fluorescence
EX  Start WL:	220.0 nm
EX  End WL:	600.0 nm
EX Sampling interval:	5.0 nm
EM  Start WL:	230.0 nm
EM  End WL:	650.0 nm
EM Sampling interval:	5.0 nm
Scan speed:	12000 nm/min
EX Slit:	5.0 nm
EM Slit:	5.0 nm
PMT Voltage:	700 V
Response:	Auto 
Corrected spectra:	Off
Contour interval:	50.000

Peak integration
Integration method:	Rectangular
Sensitivity:	1
Threshold:	1.000

Peaks
No.	ApexEX/EM(nm)	Height(Data)
1	230.0/345.0	766.4
2	235.0/515.0	226.3
3	240.0/525.0	203.1
4	245.0/540.0	175.3
5	250.0/550.0	144.6
6	255.0/280.0	564.5
7	255.0/440.0	482.7
8	255.0/560.0	122.6
9	260.0/285.0	498.3
10	260.0/575.0	101.4
11	265.0/585.0	91.39
12	270.0/300.0	802.9
13	270.0/600.0	80.93
14	275.0/305.0	889.7
15	275.0/340.0	626.0
16	275.0/610.0	71.17
17	280.0/310.0	837.3
18	280.0/335.0	625.5
19	280.0/625.0	62.73
20	285.0/315.0	811.8
21	285.0/635.0	49.95
22	290.0/325.0	749.9
23	300.0/335.0	491.6
24	305.0/345.0	408.8
25	310.0/350.0	352.4
26	315.0/355.0	340.1
27	320.0/360.0	330.6
28	325.0/370.0	320.7
29	330.0/375.0	324.3
30	335.0/380.0	325.8
31	340.0/390.0	297.4
32	345.0/395.0	284.9
33	350.0/400.0	282.5
34	360.0/415.0	236.9
35	365.0/420.0	226.2
36	410.0/480.0	55.19
37	430.0/505.0	30.20
38	445.0/525.0	19.27
39	505.0/275.0	4.445
40	520.0/285.0	4.958
41	530.0/290.0	4.611
42	535.0/370.0	4.251
43	540.0/295.0	6.015
44	545.0/300.0	6.325
45	555.0/305.0	6.585
46	560.0/310.0	6.208
47	570.0/315.0	6.564
48	580.0/320.0	6.349
49	585.0/325.0	6.371

Wavelength data
No.	EX/EM(nm)	Height(Data)	

Data points
	220.0	225.0	230.0	235.0	240.0	245.0	250.0	255.0	260.0	265.0	270.0	275.0	280.0	285.0	290.0	295.0	300.0	305.0	310.0	315.0	320.0	325.0	330.0	335.0	340.0	345.0	350.0	355.0	360.0	365.0	370.0	375.0	380.0	385.0	390.0	395.0	400.0	405.0	410.0	415.0	420.0	425.0	430.0	435.0	440.0	445.0	450.0	455.0	460.0	465.0	470.0	475.0	480.0	485.0	490.0	495.0	500.0	505.0	510.0	515.0	520.0	525.0	530.0	535.0	540.0	545.0	550.0	555.0	560.0	565.0	570.0	575.0	580.0	585.0	590.0	595.0	600.0
230.0	97.33	1982	4671	1447	56.96	14.37	12.00	10.52	8.784	8.489	7.575	7.389	6.644	6.272	5.145	4.934	4.090	3.950	3.885	3.521	3.216	2.938	2.895	2.767	2.568	2.371	2.127	2.131	2.191	2.201	1.993	1.958	1.859	1.745	1.698	1.516	1.378	1.406	1.220	1.190	1.154	1.259	1.185	1.139	1.114	1.084	2.976	11.34	19.94	15.23	5.891	1.542	0.872	0.858	0.827	0.788	0.869	0.747	0.794	0.771	0.710	0.729	0.697	0.738	0.732	0.706	0.708	0.670	0.691	0.710	0.682	0.693	0.656	0.702	0.649	0.660	0.657
235.0	101.0	578.6	3585	5296	2170	108.1	15.30	12.87	9.750	9.337	8.125	7.836	7.094	7.042	5.907	5.549	4.419	4.024	3.996	3.519	3.291	3.044	3.137	2.708	2.558	2.600	2.280	2.342	2.246	2.089	2.098	1.896	1.825	1.793	1.743	1.583	1.499	1.418	1.173	1.128	1.160	1.084	1.223	1.296	1.234	1.079	1.427	3.469	8.395	17.08	26.06	23.18	13.22	3.003	0.920	0.863	0.908	0.800	0.755	0.856	0.757	0.716	0.684	0.785	0.843	0.742	0.727	0.720	0.757	0.770	0.685	0.658	0.670	0.635	0.654	0.674	0.648
240.0	139.2	207.8	1158	5874	7679	437.3	62.34	14.82	11.96	11.24	9.821	9.136	8.075	7.524	6.475	5.431	4.450	4.370	4.077	3.518	3.475	3.205	3.124	2.927	2.781	2.655	2.336	2.372	2.144	2.238	2.159	1.972	1.774	1.639	1.743	1.498	1.423	1.440	1.329	1.197	1.268	1.137	1.162	1.295	1.306	1.180	1.208	1.682	2.640	5.568	14.70	35.98	47.66	23.60	11.67	2.051	0.965	0.918	0.787	0.822	0.759	0.759	0.726	0.692	0.794	0.723	0.679	0.750	0.683	0.814	0.746	0.686	0.772	0.698	0.787	0.702	0.729
245.0	128.3	194.6	330.7	2184	9067	8089	349.2	31.52	16.30	13.45	11.22	9.924	8.950	7.576	6.529	5.466	5.053	4.379	4.131	3.960	3.973	3.099	3.189	2.944	2.887	2.705	2.421	2.305	2.161	2.353	2.081	2.211	1.694	1.742	1.811	1.411	1.527	1.457	1.399	1.303	1.322	1.225	1.180	1.156	1.228	1.278	1.453	1.534	1.390	2.059	4.059	12.77	34.02	55.73	57.76	22.00	8.272	1.299	0.908	0.834	0.905	0.795	0.839	0.706	0.858	0.767	0.683	0.749	0.879	0.750	0.727	0.670	0.671	0.672	0.781	0.683	0.726
250.0	86.65	164.2	268.3	587.7	2988	8971	9999.9	4015	102.4	19.19	15.56	12.04	10.74	9.046	7.429	6.363	5.568	5.167	4.850	3.914	3.933	3.315	3.489	3.070	3.041	2.962	2.631	2.485	2.352	2.413	2.231	2.205	1.895	1.827	1.784	1.574	1.605	1.475	1.384	1.452	1.303	1.276	1.243	1.162	1.166	1.148	1.242	1.542	1.709	1.726	1.889	3.584	8.751	18.33	36.09	54.15	74.11	61.44	16.98	8.422	1.615	0.912	0.879	0.827	0.858	0.795	0.775	0.747	0.874	0.742	0.781	0.809	0.714	0.706	0.664	0.675	0.732
255.0	71.90	86.03	194.1	392.0	761.1	2291	9813	9999.9	1918	127.2	21.80	17.11	14.05	10.79	8.829	7.064	5.982	5.562	5.359	4.113	4.093	3.691	3.609	3.296	3.140	2.872	2.825	2.588	2.472	2.438	2.399	2.097	1.919	1.915	1.893	1.435	1.592	1.350	1.468	1.361	1.451	1.269	1.329	1.168	1.189	1.137	1.058	1.099	1.293	1.758	2.087	2.561	2.893	4.908	8.884	13.58	26.94	63.13	112.7	116.8	26.79	10.96	1.461	1.037	0.933	0.789	0.795	0.880	0.862	0.752	0.794	0.771	0.779	0.837	0.727	0.749	0.751
260.0	73.96	66.49	94.74	307.5	422.0	585.3	3004	9999.9	9999.9	1607	89.64	24.30	18.10	14.24	10.90	8.552	7.295	6.003	5.573	5.011	4.218	3.659	3.621	3.661	3.307	3.037	2.788	2.872	2.695	2.690	2.747	2.163	1.921	2.049	1.740	1.601	1.594	1.545	1.501	1.379	1.509	1.324	1.272	1.273	1.322	1.225	1.071	1.147	0.993	1.199	1.515	2.612	2.850	2.562	2.971	3.898	7.016	17.08	48.12	110.7	152.6	127.6	22.86	6.416	1.274	0.939	0.967	0.857	0.885	0.759	0.812	0.787	0.841	0.910	0.786	0.794	0.767
265.0	80.20	67.08	59.50	154.9	404.4	328.5	742.3	4139	9999.9	9999.9	1245	49.36	24.65	17.55	12.45	9.974	8.750	7.044	5.758	5.383	4.785	3.944	4.169	3.769	3.881	3.525	3.217	3.228	2.763	2.985	2.666	2.578	2.305	2.148	1.617	1.696	1.643	1.613	1.486	1.450	1.481	1.448	1.503	1.243	1.304	1.221	1.144	1.178	1.027	1.076	1.113	1.671	2.658	3.260	2.557	1.912	2.581	4.752	11.88	31.94	82.24	167.0	185.5	32.53	17.47	2.741	1.108	1.104	0.960	0.877	0.909	0.860	0.827	0.870	0.895	0.848	0.853
270.0	86.58	67.20	52.12	72.97	206.4	398.9	393.6	1015	4190	9999.9	9999.9	4855	88.25	28.29	19.13	14.24	11.09	8.598	7.374	6.074	5.711	4.708	4.817	4.116	3.976	3.652	3.483	3.403	3.063	3.082	2.922	2.694	2.558	2.219	2.080	1.861	1.676	1.623	1.579	1.511	1.618	1.571	1.512	1.425	1.505	1.318	1.285	1.234	1.081	1.030	0.999	1.184	1.551	2.147	2.743	3.107	3.163	2.583	3.765	8.130	19.87	46.84	87.67	125.2	177.2	133.6	94.86	13.02	3.460	1.139	1.050	0.983	0.939	0.922	0.869	0.911	1.023
275.0	99.63	75.61	62.21	56.43	91.55	202.2	510.5	463.4	1004	2613	9999.9	9999.9	7292	105.9	30.76	20.06	15.37	11.11	9.722	7.696	6.774	5.772	5.615	4.934	4.551	3.733	3.767	3.462	3.148	3.359	3.200	3.089	2.765	2.561	2.362	2.132	1.924	1.697	1.544	1.605	1.629	1.689	1.619	1.445	1.584	1.511	1.178	1.332	1.184	1.087	1.025	1.145	1.195	1.404	1.649	2.081	3.242	4.445	3.777	3.269	5.470	11.55	20.63	29.41	50.01	100.9	227.6	246.5	33.20	18.18	2.525	1.119	1.151	1.016	1.052	0.979	1.078
280.0	121.8	89.92	69.73	60.21	67.21	105.1	322.7	564.5	383.6	658.2	3071	9999.9	9999.9	1033	78.10	29.08	20.48	14.05	11.89	9.289	7.682	6.961	6.143	5.353	4.968	4.340	3.871	3.776	3.574	3.381	3.175	2.945	2.558	2.656	2.448	2.204	2.164	1.912	1.748	1.766	1.701	1.668	1.622	1.602	1.640	1.459	1.444	1.398	1.291	1.099	1.054	1.080	1.138	1.273	1.399	1.456	1.856	3.167	4.753	4.493	3.137	3.730	5.555	7.623	12.32	25.12	73.72	177.6	277.7	237.5	30.54	13.02	1.729	1.249	1.213	1.092	1.124
285.0	132.1	113.8	84.16	69.51	61.99	78.57	146.3	473.1	498.3	255.3	780.8	4034	9999.9	9999.9	823.7	54.43	27.02	18.20	13.87	11.49	9.220	7.129	6.831	5.879	5.463	4.668	4.271	4.082	3.826	3.776	3.139	3.216	2.803	2.703	2.671	2.433	2.163	2.097	1.886	1.855	1.745	1.838	1.676	1.746	1.599	1.668	1.494	1.419	1.361	1.175	1.203	1.291	1.185	1.250	1.320	1.384	1.441	1.879	2.676	4.282	4.958	3.707	2.786	2.898	4.088	6.764	17.79	44.40	108.4	240.3	329.5	212.9	25.52	6.846	1.600	1.339	1.337
290.0	152.7	153.2	128.8	94.56	72.15	73.70	94.12	208.6	480.2	451.8	320.2	1033	4274	9999.9	9999.9	3329	64.54	29.69	20.50	14.63	11.69	9.284	8.098	6.789	6.079	5.573	4.978	4.590	4.177	3.870	3.567	3.408	3.280	2.926	2.837	2.525	2.342	2.062	2.017	1.905	1.833	1.779	1.679	1.757	1.749	1.756	1.709	1.699	1.551	1.309	1.346	1.370	1.347	1.247	1.371	1.385	1.413	1.462	1.752	2.213	3.161	4.049	4.611	3.986	2.984	2.927	5.383	11.43	25.81	59.79	117.7	188.2	208.0	251.7	136.2	17.87	7.899
295.0	178.3	197.5	170.6	126.5	87.40	82.43	92.45	134.0	225.7	533.7	637.3	396.6	1113	2547	9999.9	9999.9	5065	75.39	32.08	21.13	16.12	11.88	9.915	8.812	7.071	6.698	5.261	5.155	4.565	4.333	3.995	3.653	3.455	2.983	3.104	2.681	2.520	2.269	2.294	2.062	1.913	1.838	1.787	1.890	1.944	1.959	1.790	1.902	1.834	1.626	1.433	1.549	1.499	1.435	1.409	1.440	1.488	1.600	1.556	1.691	2.029	2.271	2.738	4.665	6.015	4.733	3.212	4.254	7.319	15.01	28.04	43.71	51.20	104.5	238.2	378.7	244.3
300.0	209.2	233.5	220.5	154.2	108.8	106.8	114.1	147.5	185.9	348.0	802.9	540.4	469.0	737.2	2888	9999.9	9999.9	3872	61.84	29.52	20.84	15.21	12.27	10.27	8.321	7.056	5.986	5.730	4.853	4.619	4.471	4.120	3.803	3.190	3.266	2.806	2.725	2.504	2.384	2.176	2.055	2.143	2.007	1.867	1.769	2.046	1.946	2.051	1.957	1.688	1.632	1.731	1.573	1.597	1.493	1.474	1.613	1.611	1.759	1.831	2.022	2.042	2.245	3.174	5.076	6.325	5.317	3.721	3.652	5.258	8.082	11.72	13.15	25.54	65.00	176.7	356.4
305.0	223.6	270.9	263.4	186.9	129.5	126.0	148.0	190.5	222.8	316.2	609.6	889.7	484.3	387.0	823.5	3746	9999.9	9999.9	553.6	48.16	27.07	19.86	14.73	11.57	9.420	8.400	7.155	6.456	5.678	5.195	4.732	4.384	4.182	3.362	3.468	2.776	2.896	2.720	2.511	2.326	2.436	2.119	2.012	2.004	1.828	2.012	2.067	2.225	2.088	1.843	1.753	1.790	1.651	1.793	1.566	1.639	1.661	1.915	2.070	2.166	2.494	2.420	2.477	2.824	3.589	4.496	5.994	6.585	4.526	3.749	4.032	4.849	4.928	7.683	16.45	42.37	107.6
310.0	262.0	318.4	310.2	217.5	157.0	152.3	181.3	251.1	276.9	349.9	484.5	745.4	837.3	474.1	405.7	999.5	4087	9999.9	9999.9	9999.9	52.87	29.17	20.55	15.34	11.77	9.782	8.350	7.237	6.537	5.723	5.388	4.619	4.433	3.854	3.658	3.195	3.022	2.944	2.832	2.426	2.510	2.253	2.178	2.181	2.130	2.374	2.189	2.392	2.297	2.042	1.812	1.886	1.863	1.958	1.784	1.886	2.056	2.154	2.319	2.316	2.579	2.721	2.899	3.292	3.370	3.592	4.165	5.297	6.208	5.972	5.109	3.992	3.442	4.017	5.676	11.15	25.87
315.0	296.4	376.6	361.5	255.3	184.8	173.5	207.4	288.6	312.2	390.9	482.4	580.9	744.4	811.8	424.8	404.4	1046	2500	9999.9	9999.9	3775	59.45	30.71	21.59	15.46	12.33	9.617	7.900	7.432	6.702	6.357	5.290	5.098	4.189	4.141	3.427	3.145	3.127	2.954	2.527	2.608	2.292	2.425	2.330	2.319	2.537	2.371	2.757	2.578	2.356	2.016	2.071	1.989	2.055	1.942	2.122	2.374	2.276	2.402	2.472	2.586	2.871	2.997	3.472	3.657	3.798	3.886	4.288	4.682	5.218	6.564	6.353	4.799	3.758	3.364	4.447	7.533
320.0	323.9	424.0	425.0	307.8	214.5	194.6	231.5	314.7	327.3	427.0	513.9	564.1	622.0	789.9	641.3	308.1	378.5	667.5	2813	9999.9	9999.9	3048	52.98	29.04	20.13	14.64	11.48	9.243	8.453	7.433	6.483	5.645	5.460	4.693	4.233	3.503	3.460	3.308	2.920	2.725	2.537	2.478	2.568	2.464	2.431	2.634	2.557	2.958	2.723	2.457	2.302	2.426	2.160	2.180	2.095	2.070	2.413	2.432	2.372	2.566	2.739	2.870	3.242	3.718	3.895	4.041	3.817	4.241	4.355	4.564	5.167	6.059	6.349	4.997	3.714	3.160	3.716
325.0	362.6	491.9	508.1	378.0	245.6	217.2	240.9	334.2	352.2	444.4	526.0	580.6	601.7	625.7	749.9	418.5	241.3	257.4	713.1	3737	9999.9	9999.9	437.2	43.57	25.27	18.94	13.91	11.36	9.158	8.173	6.936	6.092	5.606	4.999	4.515	3.996	3.705	3.324	3.242	2.752	2.709	2.671	2.675	2.606	2.528	2.823	2.738	3.211	2.991	2.692	2.606	2.561	2.343	2.430	2.259	2.140	2.415	2.559	2.513	2.641	2.756	3.128	3.258	3.918	3.881	4.026	3.844	4.205	4.179	4.317	4.357	4.563	5.270	6.371	5.149	3.794	2.713
330.0	376.6	564.0	622.6	501.3	323.6	259.7	267.2	351.0	362.4	459.1	548.2	605.9	615.3	563.3	580.9	563.6	337.4	185.1	246.0	912.4	4164	9999.9	9999.9	9177	45.99	27.02	19.44	14.25	11.51	9.610	8.294	7.075	6.198	5.136	4.871	4.032	3.893	3.445	3.318	3.108	2.777	2.787	2.769	2.666	2.708	3.040	2.975	3.511	3.385	3.113	2.870	2.930	2.767	2.656	2.482	2.371	2.484	2.610	2.772	2.809	3.067	3.085	3.370	3.991	3.947	4.061	4.176	4.347	4.187	4.365	4.440	4.305	4.244	4.480	4.829	4.882	4.493
335.0	427.9	615.8	721.8	617.0	424.5	316.5	294.4	366.5	382.0	470.6	552.1	623.7	625.5	560.0	495.9	443.3	491.6	272.1	158.7	286.8	1003	2485	9999.9	9999.9	3170	51.68	27.72	19.94	14.80	12.41	10.35	8.124	6.714	5.856	5.652	4.453	4.196	3.830	3.551	3.230	2.984	2.949	2.945	2.949	2.834	3.124	3.251	3.788	3.731	3.453	3.313	3.671	3.176	2.933	2.872	2.547	2.666	2.932	2.838	2.734	3.153	3.294	3.548	3.673	4.053	4.020	4.326	4.308	4.463	4.314	4.535	4.378	4.194	3.719	3.931	3.818	4.373
340.0	434.6	633.1	742.8	654.8	485.3	349.2	317.4	380.7	394.9	475.0	560.6	626.0	621.8	557.5	482.2	378.4	423.3	406.1	181.7	157.1	305.8	631.0	2990	9999.9	9999.9	2626	45.21	24.83	17.81	14.19	11.51	8.756	7.870	6.308	5.829	4.548	4.312	3.806	3.592	3.358	3.129	2.871	2.976	3.050	2.698	3.229	3.461	4.007	4.018	3.550	3.474	3.698	3.435	3.222	3.074	2.790	2.760	2.963	3.079	3.073	3.153	3.501	3.454	4.008	4.150	3.970	4.471	4.220	4.504	4.274	4.361	4.257	4.329	3.665	3.742	3.240	3.438
345.0	420.3	639.7	766.4	689.9	508.7	376.4	343.6	392.6	413.2	487.3	560.8	612.6	611.7	549.5	474.3	362.9	323.4	408.8	290.5	148.9	158.7	222.8	749.1	4108	9999.9	9999.9	379.2	36.37	21.95	17.28	12.98	9.797	8.446	6.996	6.167	4.957	4.359	3.958	3.706	3.462	3.041	2.783	2.936	3.040	2.966	3.342	3.281	4.055	4.001	3.709	3.512	3.900	3.837	3.249	3.292	2.830	3.135	2.998	3.001	3.091	3.205	3.238	3.431	3.867	4.090	3.956	4.098	4.282	4.347	4.309	4.052	4.375	4.126	3.931	3.630	3.216	3.166
350.0	408.3	609.3	741.0	694.0	538.3	415.5	372.6	416.8	438.3	504.3	562.6	610.3	588.4	527.3	462.8	361.1	294.5	302.0	352.4	257.1	155.0	145.7	253.8	999.7	4691	9999.9	9999.9	7777	40.45	23.65	17.01	12.59	9.765	7.691	6.863	5.508	4.791	4.310	3.846	3.539	3.131	2.961	2.978	3.014	3.110	3.214	3.381	3.950	3.799	3.766	3.548	3.942	3.767	3.403	3.482	3.012	3.190	3.221	3.118	3.295	3.316	3.507	3.797	4.026	4.053	4.116	4.037	4.123	4.179	4.267	4.058	3.935	3.847	3.796	3.588	3.070	3.138
355.0	377.5	565.9	696.9	681.4	556.8	450.6	411.8	442.4	465.6	525.1	563.3	598.7	557.8	508.4	449.6	363.3	298.5	265.0	272.9	340.1	245.5	152.7	155.6	305.8	1115	2544	9999.9	9999.9	2896	45.51	24.08	16.68	12.57	9.196	8.183	5.910	5.084	4.505	3.959	3.754	3.455	3.188	2.913	3.083	3.043	3.267	3.297	3.849	3.800	3.841	3.405	3.907	3.698	3.358	3.646	3.191	3.495	3.343	3.283	3.711	3.508	3.500	3.866	4.104	4.207	3.997	3.909	4.186	4.055	3.991	3.825	3.818	3.721	3.659	3.404	3.411	3.027
360.0	370.5	504.9	663.8	651.7	564.9	468.2	429.6	461.2	486.6	528.4	557.1	579.3	538.5	496.2	436.6	366.6	304.1	265.7	246.4	294.8	330.6	199.6	147.2	160.5	325.0	635.3	3123	9999.9	9999.9	2346	40.26	22.08	15.95	11.17	9.194	7.007	5.609	5.198	4.527	3.743	3.464	3.282	3.060	2.882	2.865	3.234	3.038	3.710	3.489	3.461	3.522	4.073	3.717	3.596	3.469	3.437	3.466	3.298	3.405	3.651	3.781	3.735	3.788	4.139	4.084	4.126	3.957	4.034	3.963	4.023	3.983	3.592	3.972	3.564	3.520	3.328	3.280
365.0	357.8	495.8	639.0	623.6	564.3	482.0	451.2	483.3	496.5	540.0	568.0	576.9	526.5	478.9	428.2	366.8	311.8	276.0	250.5	253.9	326.3	289.5	171.4	140.0	160.3	215.2	766.2	4584	9999.9	9999.9	347.6	31.70	20.12	13.72	10.99	7.682	6.470	5.403	4.994	3.999	3.726	3.459	3.273	3.156	3.096	3.055	3.171	3.618	3.795	3.301	3.471	3.869	3.685	3.647	3.529	3.402	3.506	3.433	3.412	3.765	3.703	3.659	3.588	4.194	4.228	4.206	4.155	3.947	4.130	3.684	3.783	3.840	3.669	3.575	3.497	3.272	3.167
370.0	333.1	485.8	594.4	606.9	570.2	499.8	470.7	495.4	509.4	547.6	564.7	569.2	508.9	467.8	417.4	364.5	323.0	292.1	268.1	255.0	274.1	320.7	270.0	173.2	142.0	135.9	243.2	1095	5087	9999.9	9999.9	6868	36.00	19.11	14.54	10.03	7.414	6.425	5.249	4.513	4.183	3.741	3.538	3.329	3.334	3.059	3.213	3.566	3.665	3.264	3.269	3.759	3.774	3.819	3.564	3.453	3.378	3.646	3.675	3.713	3.678	3.804	3.886	4.251	4.028	4.051	3.736	4.058	3.948	3.876	3.675	3.635	3.588	3.633	3.512	3.232	3.182
375.0	315.5	457.8	567.3	611.7	570.2	516.6	493.2	505.9	522.4	545.6	560.7	560.9	504.4	456.0	405.1	363.5	326.2	305.3	285.8	273.6	268.7	273.6	324.3	262.3	168.0	137.2	141.2	316.5	1196	2661	9999.9	9999.9	2521	37.74	20.02	13.21	9.933	7.626	6.135	5.393	4.462	4.162	3.958	3.555	3.291	3.181	3.293	3.518	3.559	3.332	3.394	3.919	3.993	3.757	3.659	3.703	3.638	3.606	3.629	3.666	3.673	3.902	3.846	4.139	3.910	4.131	3.717	4.044	3.714	3.821	3.749	3.393	3.398	3.660	3.580	3.216	3.313
380.0	323.9	437.5	551.9	592.8	575.0	543.1	496.6	511.9	512.5	532.1	555.8	549.1	502.0	453.2	399.9	357.1	326.4	309.8	297.4	283.3	274.0	262.7	294.4	325.8	220.8	156.4	135.6	156.0	338.5	658.6	3368	9999.9	9999.9	1938	32.78	15.96	12.02	8.995	7.000	5.717	4.885	4.512	4.246	3.498	3.342	3.222	3.343	3.419	3.493	3.560	3.478	3.916	3.837	3.769	3.714	3.579	3.788	3.605	3.843	3.553	3.627	3.873	4.045	3.882	3.950	3.903	3.899	3.928	3.650	3.834	3.736	3.383	3.449	3.484	3.593	3.108	3.180
385.0	314.8	423.6	546.2	572.9	569.4	544.6	505.7	501.4	513.9	529.6	549.5	533.5	491.8	440.9	392.5	353.6	326.4	313.1	298.8	289.2	282.4	269.1	269.9	313.7	289.5	187.4	148.1	131.9	156.9	214.0	818.9	4855	9999.9	9999.9	286.9	23.17	15.13	10.50	7.695	6.356	5.237	4.993	4.367	3.725	3.540	3.356	3.322	3.470	3.448	3.234	3.243	3.876	3.747	3.732	3.693	3.598	3.916	3.832	3.786	3.783	3.896	3.987	3.927	4.188	4.029	3.963	3.997	3.893	3.799	3.601	3.710	3.477	3.354	3.494	3.445	3.203	3.265
390.0	304.4	415.8	518.5	560.0	569.1	538.2	508.2	510.3	512.8	527.4	534.6	517.8	477.6	430.8	382.4	346.9	324.7	314.0	304.4	299.2	289.3	278.2	269.5	276.6	297.4	259.7	180.9	143.3	129.3	126.5	246.5	1149	4991	9999.9	9999.9	5381	27.71	14.58	10.24	8.019	6.252	5.441	4.644	4.185	4.058	3.732	3.421	3.673	3.596	3.230	3.210	3.908	3.785	3.845	3.852	3.539	3.963	3.886	3.841	3.855	3.814	3.907	3.754	3.954	3.901	3.854	3.838	3.777	3.699	3.591	3.543	3.488	3.402	3.304	3.359	3.245	3.339
395.0	300.0	398.6	509.1	550.7	559.3	539.0	509.3	506.7	504.8	508.6	514.0	502.9	467.0	416.4	374.9	343.0	322.8	313.8	306.9	303.4	292.9	287.9	277.2	269.7	263.5	284.9	248.6	169.9	138.8	117.5	128.3	312.5	1158	2606	9999.9	9999.9	2090	31.00	14.33	10.61	8.116	6.400	5.561	4.720	4.157	4.229	3.704	3.793	3.798	3.384	3.205	3.836	3.994	3.864	3.798	3.826	4.038	4.001	3.929	3.922	3.773	3.637	3.812	3.843	3.844	3.850	3.709	3.628	3.641	3.580	3.565	3.582	3.396	3.143	3.458	3.543	3.415
400.0	298.3	384.9	479.5	545.4	560.5	542.1	512.4	513.2	504.9	499.6	509.2	494.0	455.8	411.1	371.6	339.6	320.2	309.6	302.7	301.7	295.6	288.8	282.6	273.4	256.1	263.2	282.5	211.3	152.1	125.2	108.7	131.5	306.9	624.1	3238	9999.9	9999.9	1629	24.46	13.03	9.286	7.450	6.050	5.089	4.333	4.219	3.776	3.828	3.770	3.724	3.356	3.691	4.129	3.751	3.734	3.960	3.906	4.044	3.970	3.898	3.910	3.875	3.601	3.838	3.812	3.905	3.714	3.523	3.376	3.407	3.367	3.394	3.374	3.248	3.250	3.273	3.172
405.0	280.5	370.4	479.6	521.3	546.4	537.6	513.4	511.1	502.2	494.9	497.2	482.6	450.3	407.2	369.9	335.3	316.0	307.7	299.5	297.8	297.5	291.7	286.8	274.5	262.8	250.4	269.2	257.3	177.7	137.4	112.8	97.42	120.4	180.5	766.5	4283	9999.9	9999.9	248.4	18.54	11.62	8.712	6.968	5.391	4.618	4.509	3.920	4.077	3.801	3.426	3.439	3.864	3.878	3.931	3.657	3.801	3.901	3.918	3.610	3.714	3.636	3.589	3.737	3.564	3.675	3.690	3.652	3.352	3.574	3.503	3.451	3.502	3.408	3.260	3.219	2.965	3.178
410.0	267.3	363.4	466.0	514.7	532.6	525.1	503.2	508.2	496.8	486.5	483.4	469.1	432.1	401.3	356.5	325.1	307.3	300.4	293.3	292.1	292.4	288.5	284.6	276.1	263.8	249.3	240.6	255.7	228.2	162.0	124.3	99.31	85.96	85.43	208.3	996.7	4262	9999.9	9999.9	4438	23.21	11.58	8.730	6.607	5.436	4.774	4.166	4.246	4.001	3.643	3.429	3.727	3.846	3.879	3.660	3.750	3.977	3.883	3.704	3.723	3.836	3.632	3.707	3.714	3.640	3.494	3.449	3.471	3.421	3.396	3.266	3.276	3.267	3.157	3.183	3.079	3.068
