Sample:	'1
File name:	S2025080907Óý²ÅÂ·ÇÅ.FD3
Run date:	'14:56:21, 08/10/2025
Operator:	Administrator
Comment:	'

Instrument
Model:	F-2700 FL Spectrophotometer
Serial number:	3064-004
ROM Version:	4J14000 07

Instrument parameters
Measurement type:	3-D scan
Data mode:	Fluorescence
EX  Start WL:	220.0 nm
EX  End WL:	600.0 nm
EX Sampling interval:	5.0 nm
EM  Start WL:	230.0 nm
EM  End WL:	650.0 nm
EM Sampling interval:	5.0 nm
Scan speed:	12000 nm/min
EX Slit:	5.0 nm
EM Slit:	5.0 nm
PMT Voltage:	700 V
Response:	Auto 
Corrected spectra:	Off
Contour interval:	50.000

Peak integration
Integration method:	Rectangular
Sensitivity:	1
Threshold:	1.000

Peaks
No.	ApexEX/EM(nm)	Height(Data)
1	225.0/635.0	44.28
2	230.0/340.0	 1378
3	230.0/585.0	82.43
4	235.0/350.0	 1454
5	235.0/565.0	67.52
6	235.0/625.0	50.03
7	245.0/265.0	300.5
8	245.0/375.0	 1583
9	245.0/530.0	229.5
10	250.0/380.0	 1591
11	250.0/545.0	229.3
12	255.0/280.0	703.5
13	255.0/555.0	208.5
14	260.0/285.0	996.0
15	260.0/570.0	191.4
16	265.0/290.0	 1231
17	265.0/580.0	196.8
18	270.0/295.0	 1805
19	270.0/595.0	191.2
20	275.0/305.0	 2233
21	275.0/605.0	175.7
22	280.0/310.0	 2108
23	280.0/340.0	 1981
24	280.0/360.0	 1972
25	280.0/620.0	151.8
26	285.0/315.0	 1981
27	285.0/350.0	 1963
28	285.0/630.0	113.6
29	290.0/645.0	93.26
30	320.0/360.0	 1107
31	445.0/525.0	49.74
32	455.0/335.0	5.561
33	460.0/345.0	5.685
34	460.0/545.0	29.06
35	495.0/270.0	2.467
36	510.0/280.0	3.940
37	520.0/285.0	4.559
38	530.0/290.0	5.427
39	540.0/295.0	7.968
40	545.0/300.0	9.261
41	550.0/305.0	9.832
42	560.0/360.0	9.115
43	565.0/345.0	8.887
44	570.0/315.0	9.538
45	570.0/355.0	9.211
46	575.0/320.0	9.460
47	575.0/365.0	9.140
48	580.0/325.0	8.928

Data points
	220.0	225.0	230.0	235.0	240.0	245.0	250.0	255.0	260.0	265.0	270.0	275.0	280.0	285.0	290.0	295.0	300.0	305.0	310.0	315.0	320.0	325.0	330.0	335.0	340.0	345.0	350.0	355.0	360.0	365.0	370.0	375.0	380.0	385.0	390.0	395.0	400.0	405.0	410.0	415.0	420.0	425.0	430.0	435.0	440.0	445.0	450.0	455.0	460.0	465.0	470.0	475.0	480.0	485.0	490.0	495.0	500.0	505.0	510.0	515.0	520.0	525.0	530.0	535.0	540.0	545.0	550.0	555.0	560.0	565.0	570.0	575.0	580.0	585.0	590.0	595.0	600.0
230.0	20.99	331.1	 2135	 1345	89.57	11.95	9.988	7.725	8.202	6.241	6.536	6.640	5.718	5.175	4.973	4.069	3.523	3.154	2.988	2.838	2.230	2.425	2.383	2.060	1.978	1.992	1.933	1.759	1.860	1.817	1.577	1.505	1.389	1.224	1.337	1.248	1.262	1.221	0.936	0.927	0.988	1.093	0.851	0.970	0.731	0.821	1.323	4.846	8.639	7.009	3.018	0.956	0.598	0.634	0.526	0.600	0.581	0.578	0.502	0.495	0.516	0.412	0.426	0.394	0.442	0.481	0.478	0.458	0.365	0.309	0.366	0.373	0.337	0.432	0.396	0.362	0.484
235.0	41.12	94.33	914.3	 2608	 1067	150.1	11.37	7.942	6.619	7.488	7.658	8.291	7.967	5.200	4.528	4.411	3.786	3.450	3.034	3.283	2.468	2.304	1.946	2.115	2.500	1.827	2.204	1.780	1.835	1.672	1.450	1.347	1.275	1.438	1.149	1.117	1.381	1.013	1.093	0.931	1.016	0.715	1.007	1.240	0.736	0.800	0.947	1.724	3.184	6.239	8.416	9.078	4.774	1.393	0.644	0.683	0.681	0.563	0.506	0.436	0.434	0.509	0.467	0.322	0.399	0.433	0.302	0.328	0.400	0.375	0.286	0.385	0.317	0.482	0.380	0.236	0.293
240.0	43.85	65.03	241.7	 1438	 3354	927.2	78.79	9.164	8.627	7.433	8.428	6.996	6.361	5.522	4.276	4.254	3.616	3.606	3.746	2.791	2.586	2.481	2.464	1.817	2.172	1.967	1.986	1.745	1.716	1.793	1.624	1.565	1.348	1.162	1.072	1.212	1.262	1.013	0.890	1.143	0.852	0.854	0.838	1.014	0.915	0.771	0.999	1.158	1.195	2.125	4.249	10.44	12.95	9.321	3.471	0.895	0.514	0.610	0.339	0.604	0.549	0.330	0.391	0.450	0.385	0.530	0.444	0.303	0.521	0.386	0.391	0.469	0.409	0.395	0.285	0.457	0.330
245.0	37.68	90.59	108.9	389.3	 2216	 3932	758.7	37.24	14.08	10.38	9.131	6.508	7.680	4.909	5.468	4.316	3.977	3.305	3.706	2.804	2.654	2.541	2.245	2.054	1.930	2.133	2.155	1.835	1.790	1.569	1.621	1.730	1.396	1.130	1.327	1.196	1.327	1.294	0.953	0.949	0.920	0.954	0.928	1.033	0.871	0.957	1.249	1.158	0.987	0.967	1.321	3.793	8.486	14.84	14.64	8.839	2.631	0.715	0.593	0.449	0.473	0.300	0.514	0.444	0.510	0.708	0.400	0.309	0.483	0.388	0.372	0.380	0.452	0.434	0.352	0.371	0.424
250.0	21.35	50.70	136.4	185.1	587.1	 2295	 4148	 2500	221.6	13.02	10.93	9.706	7.391	6.058	5.311	4.866	4.559	4.309	3.777	2.846	2.630	2.814	2.426	2.156	2.378	1.902	2.043	1.865	1.827	1.816	1.750	1.543	1.404	1.378	1.097	1.118	1.250	1.053	0.951	1.030	1.017	0.906	0.830	0.945	0.888	0.838	0.928	1.164	1.130	1.105	1.071	1.379	2.443	4.874	8.322	12.39	16.37	13.98	8.570	2.856	0.785	0.506	0.431	0.419	0.587	0.537	0.408	0.360	0.414	0.375	0.434	0.326	0.397	0.404	0.447	0.382	0.386
255.0	14.95	26.90	70.30	231.6	254.0	543.5	 1740	 5746	 3927	286.8	14.71	11.69	8.870	7.729	6.634	5.416	4.408	4.466	3.932	3.193	2.544	2.856	2.891	2.388	2.227	1.990	1.825	2.186	1.789	2.186	1.822	1.340	1.402	1.392	1.105	0.984	1.011	1.131	1.029	0.946	1.208	1.270	0.920	0.980	0.784	0.702	0.793	0.902	0.893	1.010	1.543	1.384	1.276	1.653	2.310	3.401	6.371	13.58	24.69	27.17	13.60	3.142	0.581	0.575	0.571	0.463	0.532	0.416	0.335	0.433	0.473	0.445	0.448	0.427	0.481	0.403	0.482
260.0	14.71	17.98	31.68	145.7	309.4	205.6	437.9	 2762	 7675	 3399	181.1	15.25	12.94	8.061	7.272	6.762	4.553	4.640	3.895	3.278	3.127	3.113	3.138	2.590	2.543	2.643	2.188	2.275	1.852	2.188	1.899	1.669	1.554	1.409	1.299	1.151	1.282	1.352	1.013	0.934	1.058	0.963	1.003	0.885	0.893	0.677	0.723	0.876	0.753	0.753	1.250	1.577	1.762	1.447	1.032	1.344	2.068	3.829	10.54	23.01	33.90	27.32	10.92	1.840	0.647	0.450	0.684	0.439	0.503	0.423	0.477	0.548	0.428	0.494	0.369	0.451	0.534
265.0	20.45	25.17	24.16	52.34	253.6	300.5	152.1	723.2	 4392	 9220	 2643	77.69	15.35	11.45	7.488	7.310	4.436	4.848	4.134	3.701	3.736	3.493	2.817	2.393	2.630	2.733	2.418	2.108	1.380	2.162	2.018	1.712	1.743	1.872	1.101	1.111	1.375	1.125	1.153	1.086	0.965	1.050	1.086	0.864	0.911	0.869	0.880	0.786	0.837	0.745	0.773	0.999	1.758	2.178	1.850	1.091	1.224	1.423	2.944	6.996	17.57	35.11	43.02	26.01	6.719	0.904	0.814	0.517	0.439	0.477	0.426	0.582	0.366	0.478	0.518	0.477	0.482
270.0	58.24	56.03	37.98	37.48	97.23	288.4	366.5	286.0	 1175	 4518	 8896	 5212	183.1	17.59	9.856	8.086	5.789	5.249	4.315	3.760	3.527	3.267	3.170	2.909	2.827	2.506	2.375	2.399	2.117	2.009	2.010	1.997	1.753	1.634	1.227	1.208	1.282	1.178	1.113	1.064	1.051	1.029	1.169	1.074	1.188	1.057	0.979	0.735	0.793	0.741	0.744	0.796	1.048	1.294	1.655	2.467	1.994	1.376	1.443	2.171	4.709	10.50	20.24	32.11	41.63	38.43	20.46	6.138	0.734	0.546	0.463	0.486	0.397	0.512	0.488	0.545	0.409
275.0	141.6	122.3	90.97	72.08	61.40	118.6	404.1	577.1	470.5	 1224	 3250	9999.9	 8602	226.8	15.09	11.63	7.521	7.023	5.497	4.258	4.074	3.425	3.430	3.201	2.442	2.832	2.577	2.484	2.502	2.385	2.121	1.824	1.626	1.413	1.313	1.502	1.129	1.323	1.435	1.147	1.239	1.266	1.238	1.629	1.534	1.281	1.247	0.955	1.066	0.988	0.804	0.772	0.993	1.043	1.051	1.587	2.414	3.000	3.206	1.943	1.993	3.610	5.812	8.974	13.98	28.92	57.98	52.47	30.66	5.757	0.801	0.606	0.485	0.568	0.478	0.486	0.382
280.0	217.4	223.8	201.2	130.9	80.30	96.39	245.8	703.5	613.6	583.9	 1061	 4328	9999.9	 2528	136.4	15.17	9.442	7.788	6.228	4.957	4.919	4.388	3.853	3.891	2.948	3.362	2.951	2.310	2.545	2.636	2.002	2.168	1.856	1.817	1.712	1.454	1.096	1.321	1.356	1.378	1.290	1.517	1.427	1.979	2.056	1.895	1.546	1.531	1.634	1.083	1.159	0.901	1.022	1.049	0.842	0.987	1.680	2.758	3.940	3.387	2.543	2.423	2.895	3.648	4.897	8.516	21.89	47.77	79.32	48.14	19.39	2.046	0.558	0.690	0.665	0.412	0.460
285.0	297.1	307.1	315.4	220.2	129.5	121.2	187.3	484.8	996.0	622.1	677.7	 1376	 5796	9999.9	 1930	75.78	12.93	9.918	7.518	5.730	5.207	4.532	4.014	3.399	3.408	3.770	3.329	2.210	2.424	2.485	2.178	1.799	1.964	1.864	1.557	1.631	1.426	1.540	1.572	1.487	1.865	1.739	1.819	2.039	2.069	1.961	1.891	1.777	1.950	1.393	1.418	1.291	1.120	1.330	0.895	0.944	1.379	1.953	2.727	3.795	4.559	4.090	2.700	3.006	3.384	3.932	6.934	13.95	36.26	71.31	86.77	39.82	9.440	1.107	0.742	0.442	0.349
290.0	363.6	440.1	476.8	386.1	248.6	189.0	222.1	385.8	788.1	 1231	 1037	937.2	 1875	 5393	9999.9	 6980	111.4	15.19	10.46	7.261	6.056	5.020	4.446	3.532	3.554	3.363	3.002	2.603	2.573	2.492	2.290	1.955	1.904	1.814	1.667	1.799	1.515	1.763	1.649	1.445	1.749	1.737	2.188	2.308	2.220	2.587	2.506	2.325	2.290	1.967	1.845	1.713	1.396	1.394	1.285	1.238	1.534	1.815	2.120	2.634	3.587	5.226	5.427	5.247	4.199	3.826	4.240	5.801	10.45	20.34	37.42	57.56	58.71	63.41	25.86	8.690	1.030
295.0	373.3	534.3	639.0	574.8	388.0	263.7	304.4	425.8	689.3	 1120	 1805	 1297	 1199	 1735	 3246	9999.9	 9785	146.0	14.63	10.97	8.122	6.479	4.497	4.539	4.176	3.200	3.193	2.907	2.983	2.816	2.417	1.952	1.877	1.605	1.597	1.908	1.860	2.292	1.928	1.636	1.515	1.908	2.157	2.298	2.781	2.745	2.866	3.054	3.135	2.513	2.219	2.117	1.750	1.631	1.597	1.529	1.743	1.955	2.287	2.553	3.618	3.801	4.867	7.352	7.968	6.634	5.214	5.344	5.660	7.451	10.73	14.89	17.64	45.12	93.11	107.1	38.77
300.0	393.3	583.4	732.6	673.5	453.5	360.8	365.7	494.8	712.9	 1035	 1773	 1977	 1300	 1063	 1105	 3932	9999.9	 7252	103.8	14.99	10.92	6.886	5.783	5.127	5.285	4.119	4.428	2.961	3.114	3.096	2.427	2.287	2.280	2.041	1.785	1.935	1.692	2.109	1.963	1.866	1.598	2.052	2.058	2.454	2.652	2.907	2.801	3.299	3.209	2.664	2.437	2.309	2.078	1.890	1.809	1.717	1.986	2.493	2.685	2.770	3.562	4.151	3.868	5.864	7.018	9.261	8.300	5.948	5.382	5.401	5.955	5.702	5.629	12.14	32.25	80.28	123.2
305.0	421.0	611.6	756.3	708.4	508.3	404.2	416.3	550.6	758.8	 1057	 1528	 2233	 1758	 1050	722.8	 1160	 5506	9999.9	 1262	65.40	13.31	9.496	7.283	6.000	5.216	4.881	3.658	3.614	3.317	3.381	2.722	2.420	2.397	2.513	1.888	1.770	1.677	2.104	2.159	1.968	1.928	1.964	2.221	2.429	2.675	2.898	3.160	3.366	3.279	2.997	2.612	2.569	2.461	2.042	1.988	2.216	2.089	2.588	2.606	2.847	3.405	4.007	4.492	5.651	6.514	8.416	9.832	9.588	6.823	5.626	5.132	3.796	3.486	4.514	8.626	21.24	53.51
310.0	383.8	588.9	746.1	716.0	570.5	457.7	480.1	602.5	808.5	 1089	 1404	 1822	 2108	 1521	811.0	613.5	 1495	 5300	9999.9	 5073	82.43	14.50	8.815	7.500	5.963	5.467	4.519	4.258	3.498	3.177	2.771	2.515	2.574	2.323	1.859	1.855	1.932	2.082	2.062	1.993	1.877	1.958	2.304	2.415	2.702	2.957	3.006	3.397	3.559	2.954	2.736	2.812	2.601	2.406	2.365	2.181	2.282	2.845	2.757	3.235	3.527	4.010	4.892	5.543	6.262	6.958	7.621	9.198	8.982	8.479	6.603	4.546	3.653	3.304	3.860	6.585	13.97
315.0	386.0	613.8	814.5	728.4	616.3	519.6	533.5	659.1	833.2	 1106	 1432	 1683	 1828	 1981	 1269	638.9	660.3	 1399	 3109	9999.9	 7750	111.3	14.36	9.856	7.265	6.084	5.340	4.553	3.565	3.452	3.021	2.621	2.576	2.291	2.110	1.809	1.897	2.096	2.015	1.993	1.878	1.925	2.174	2.059	2.517	3.154	2.848	3.794	3.262	3.161	2.897	2.622	2.823	2.612	2.549	2.149	2.643	2.825	3.111	3.296	4.014	4.310	4.755	5.548	5.536	6.209	7.021	7.951	7.209	8.234	9.538	7.658	5.141	3.823	3.493	4.016	5.133
320.0	440.7	731.2	928.7	799.6	654.8	537.3	573.8	698.9	888.6	 1141	 1485	 1714	 1805	 1868	 1778	909.5	576.0	607.1	897.2	 4064	9999.9	 6241	80.24	13.24	9.607	7.456	5.752	5.160	4.376	3.976	3.516	2.859	2.751	2.378	2.305	1.952	2.009	2.398	2.017	1.982	1.939	1.985	2.036	2.125	2.632	3.485	4.015	4.221	3.922	3.700	3.079	3.143	2.978	2.953	2.629	2.258	2.967	3.159	3.363	3.728	4.096	4.214	5.198	5.710	5.645	6.857	7.733	7.623	7.406	7.448	8.674	9.460	8.161	6.199	3.807	4.129	3.437
325.0	451.2	835.7	 1074	959.4	728.9	588.3	614.4	727.7	928.3	 1175	 1503	 1769	 1858	 1789	 1789	 1351	690.4	505.8	448.4	 1102	 6024	9999.9	 4361	51.45	12.56	9.387	7.315	6.339	5.248	3.806	3.714	3.485	3.008	2.648	2.230	2.073	2.028	2.099	2.035	1.958	1.908	2.211	2.253	2.128	3.210	3.670	4.469	4.640	4.585	3.841	3.530	3.361	3.151	3.187	3.079	2.480	3.114	2.962	3.331	3.838	3.953	4.570	5.379	5.766	6.374	6.851	7.734	7.299	7.403	7.714	7.728	7.821	8.928	8.741	6.021	4.408	4.346
330.0	467.2	885.6	 1231	 1180	878.7	673.9	673.2	764.8	947.3	 1205	 1544	 1805	 1910	 1829	 1618	 1494	 1124	635.3	447.7	488.4	 1570	 5654	9999.9	 7393	67.41	14.34	9.286	6.743	6.068	4.231	4.276	3.635	3.302	2.716	2.500	2.480	2.150	2.294	2.105	2.105	1.862	2.370	2.302	2.511	3.020	3.960	4.427	4.856	5.046	4.501	3.992	3.690	3.391	3.218	3.073	2.893	3.066	3.244	3.685	3.657	4.367	4.647	5.168	5.836	6.143	6.929	7.390	7.731	8.124	8.296	8.043	7.333	7.380	7.677	7.440	7.190	6.029
335.0	488.1	906.2	 1322	 1324	 1036	802.0	754.2	836.3	996.1	 1236	 1545	 1869	 1965	 1949	 1671	 1376	 1321	 1033	586.1	448.5	599.6	 1435	 3383	9999.9	 6331	89.52	14.31	10.23	7.501	5.651	4.688	3.947	3.461	3.117	3.140	2.261	2.224	2.487	2.233	1.787	2.119	2.372	2.536	2.773	3.385	4.056	4.584	5.561	5.361	4.647	4.537	4.049	3.805	3.744	3.309	3.133	3.428	3.677	3.841	4.159	4.373	4.991	5.012	5.963	5.960	7.031	7.422	7.456	8.135	8.389	7.833	7.756	7.989	7.644	7.062	7.231	7.766
340.0	503.8	914.9	 1378	 1374	 1141	907.6	856.3	896.5	 1080	 1282	 1560	 1847	 1981	 1967	 1735	 1375	 1229	 1251	811.9	514.0	448.9	548.9	928.4	 4715	9999.9	 5226	68.42	13.82	9.424	7.336	4.998	4.765	3.398	3.502	2.852	2.746	2.308	2.355	2.070	2.068	2.166	2.391	2.535	2.426	3.344	4.158	4.713	5.204	5.502	5.132	4.312	4.947	4.115	3.829	3.855	3.574	3.507	3.946	4.181	4.181	4.620	5.370	5.228	6.472	6.110	7.295	7.774	8.242	8.218	8.781	8.064	8.246	7.798	7.955	6.970	6.994	6.790
345.0	471.5	892.6	 1331	 1451	 1229	 1038	948.1	987.1	 1110	 1334	 1580	 1839	 1969	 1941	 1762	 1416	 1186	 1171	 1082	656.7	490.3	410.4	420.0	 1254	 7002	9999.9	 3855	45.57	12.86	9.190	6.497	5.703	4.382	3.760	3.162	2.633	2.364	2.460	2.325	1.885	2.171	2.152	2.295	2.665	3.342	4.018	4.815	5.246	5.685	5.233	4.539	5.337	4.866	4.332	3.989	3.938	3.717	4.363	4.240	4.330	4.643	4.956	5.687	5.902	6.738	6.942	7.376	8.156	8.556	8.887	8.625	8.240	8.190	7.680	6.547	6.758	6.510
350.0	433.1	847.0	 1300	 1454	 1336	 1172	 1098	 1109	 1216	 1385	 1641	 1829	 1934	 1963	 1777	 1492	 1231	 1102	 1101	980.4	656.3	486.8	400.5	512.1	 1810	 6443	9999.9	 6908	59.14	13.02	8.598	6.539	5.153	3.904	3.339	3.001	2.655	2.486	2.487	2.217	2.436	2.143	2.221	2.681	3.028	3.786	4.352	5.072	5.288	5.041	4.922	5.325	4.988	4.764	4.490	4.741	4.528	4.578	4.351	4.927	4.980	5.392	5.838	6.490	6.529	7.204	7.338	8.046	8.660	8.295	8.843	8.098	8.088	7.636	7.194	7.387	7.009
355.0	420.6	769.3	 1213	 1419	 1412	 1302	 1258	 1253	 1355	 1484	 1698	 1836	 1942	 1956	 1794	 1553	 1321	 1160	 1053	 1064	983.3	647.6	495.4	435.4	637.7	 1600	 3806	9999.9	 5551	78.86	12.59	9.363	7.266	4.381	4.199	3.373	3.132	2.646	2.648	2.314	2.793	2.438	2.265	2.576	2.838	3.753	3.974	5.108	5.188	4.882	5.102	5.241	5.017	5.554	5.179	5.246	5.398	5.196	4.804	5.615	5.924	5.842	6.451	6.863	7.039	7.089	7.496	7.999	8.993	8.557	9.211	8.599	8.559	7.675	8.179	7.555	7.514
360.0	407.7	716.0	 1163	 1395	 1425	 1437	 1333	 1324	 1450	 1583	 1730	 1856	 1972	 1958	 1820	 1593	 1386	 1220	 1088	 1034	 1107	865.9	599.5	482.5	428.4	556.5	 1006	 5474	9999.9	 4614	56.88	11.39	8.717	5.624	4.817	3.181	3.618	3.074	2.849	2.640	2.578	2.506	2.511	2.410	2.788	3.333	3.736	5.168	5.075	4.815	4.838	5.617	5.364	5.497	5.596	5.633	5.387	5.423	5.561	5.878	6.212	6.184	6.585	7.380	6.574	7.608	7.685	8.285	9.115	8.723	8.826	9.004	8.304	8.141	7.901	7.305	8.091
365.0	412.2	699.5	 1130	 1385	 1498	 1507	 1420	 1424	 1508	 1647	 1778	 1875	 1945	 1932	 1814	 1619	 1424	 1273	 1147	 1062	 1072	 1077	745.4	556.4	445.5	376.8	404.3	 1420	 8125	9999.9	701.3	36.23	10.82	7.461	5.201	4.020	3.482	3.267	3.048	2.659	2.566	2.588	2.491	2.437	2.745	3.490	4.047	4.706	4.549	4.792	4.536	5.476	5.534	5.753	5.394	5.767	5.836	5.629	5.639	5.915	5.835	5.907	6.602	6.856	7.344	7.688	7.568	7.718	8.547	8.534	8.882	9.140	8.707	8.506	7.849	8.185	7.628
370.0	374.6	657.4	 1057	 1345	 1514	 1537	 1477	 1499	 1555	 1673	 1775	 1868	 1901	 1892	 1781	 1609	 1447	 1335	 1233	 1136	 1083	 1091	 1018	734.9	539.8	422.8	337.8	485.7	 2073	 7429	9999.9	 6456	47.94	11.76	7.068	5.003	4.369	3.647	3.151	3.072	2.763	2.523	2.503	2.689	2.764	3.606	3.778	4.181	4.468	4.687	4.791	5.837	5.526	6.101	5.651	5.952	5.905	5.644	6.314	6.108	6.258	6.007	7.010	7.019	7.114	7.447	7.457	7.864	8.416	8.588	8.770	8.709	8.638	8.356	8.053	8.184	8.208
375.0	373.5	630.8	973.3	 1284	 1565	 1583	 1533	 1540	 1593	 1682	 1786	 1843	 1890	 1870	 1753	 1609	 1478	 1392	 1319	 1230	 1157	 1088	 1069	 1014	715.6	547.8	409.3	351.8	630.0	 1776	 4412	9999.9	 4657	60.56	10.92	6.878	5.714	3.953	3.901	3.336	2.738	2.579	2.772	2.817	2.618	3.297	3.324	4.055	4.474	4.478	4.407	5.679	5.990	6.458	5.745	5.845	5.958	6.267	6.569	6.177	6.427	6.184	6.791	7.010	7.082	7.345	7.922	7.664	8.311	8.215	8.310	7.706	8.449	8.054	7.460	8.129	7.758
380.0	332.0	593.2	925.6	 1265	 1530	 1583	 1591	 1543	 1576	 1679	 1740	 1824	 1855	 1810	 1717	 1583	 1484	 1419	 1342	 1286	 1205	 1134	 1063	 1088	912.2	641.0	487.2	380.7	358.7	542.2	 1121	 6352	9999.9	 3662	42.99	10.11	6.632	5.254	4.081	3.690	2.947	2.877	2.986	2.870	2.839	3.524	3.598	3.808	4.269	4.204	4.179	5.479	5.472	5.832	6.141	6.001	6.241	6.297	6.245	5.834	6.546	6.437	6.845	6.842	6.880	7.389	7.655	7.697	8.394	8.860	8.462	7.600	8.404	7.911	7.462	8.379	8.260
385.0	322.9	588.2	908.6	 1259	 1505	 1577	 1576	 1544	 1548	 1660	 1747	 1797	 1808	 1784	 1689	 1574	 1483	 1435	 1382	 1317	 1245	 1169	 1084	 1059	 1040	773.3	562.7	437.6	338.2	304.9	377.6	 1635	 8882	9999.9	551.3	25.52	8.980	6.566	5.337	3.505	3.103	2.863	2.891	2.960	2.980	3.683	3.653	4.150	4.102	3.730	4.212	5.580	5.820	5.852	6.210	5.999	5.793	6.122	5.817	6.778	6.513	6.766	6.703	6.858	7.378	7.346	7.333	7.519	7.484	8.650	8.303	7.646	8.127	8.146	7.524	8.745	8.268
390.0	320.6	567.3	867.0	 1182	 1432	 1514	 1534	 1533	 1548	 1602	 1692	 1723	 1735	 1718	 1642	 1543	 1465	 1431	 1379	 1320	 1270	 1210	 1122	 1051	 1017	946.4	708.7	521.5	398.2	311.9	254.3	480.7	 2272	 7447	9999.9	 4909	37.50	9.096	6.097	4.726	3.871	3.351	3.139	2.959	2.937	3.635	3.612	4.052	3.855	4.021	3.984	5.152	5.651	6.028	5.839	5.656	5.916	6.022	6.207	6.454	6.252	6.227	6.771	6.613	6.842	7.125	7.413	7.216	7.116	7.730	7.476	7.458	7.681	7.446	7.814	8.186	8.207
395.0	298.2	539.6	838.7	 1124	 1327	 1474	 1498	 1509	 1502	 1527	 1616	 1622	 1662	 1652	 1587	 1491	 1436	 1401	 1369	 1334	 1284	 1232	 1145	 1080	998.9	956.1	891.9	643.7	474.6	372.0	278.0	266.6	614.4	 1743	 4387	9999.9	 3723	49.21	9.131	6.181	4.695	3.839	3.426	3.095	3.371	3.605	3.426	3.615	3.944	3.633	3.968	4.908	5.536	5.481	6.059	5.729	6.496	6.071	6.137	6.100	6.540	6.067	6.462	6.540	6.782	6.947	7.462	6.660	6.655	6.832	7.147	7.428	7.783	7.499	8.034	8.442	7.707
400.0	299.3	513.0	808.9	 1111	 1313	 1448	 1465	 1457	 1480	 1534	 1567	 1575	 1637	 1577	 1523	 1451	 1392	 1364	 1355	 1312	 1273	 1235	 1174	 1091	 1004	916.6	917.7	776.1	548.3	420.6	317.6	248.0	268.1	477.3	 1088	 6039	9999.9	 2918	33.66	8.190	5.464	4.209	3.755	3.008	3.189	3.503	3.244	3.997	3.785	3.779	3.865	4.559	5.522	6.196	5.906	6.051	6.285	6.067	6.013	6.016	6.190	5.954	6.283	6.241	6.170	6.814	7.029	6.333	6.729	6.834	6.982	7.163	7.128	7.259	7.911	8.158	7.728
405.0	291.7	498.7	801.2	 1057	 1245	 1423	 1435	 1460	 1472	 1471	 1504	 1522	 1546	 1518	 1480	 1381	 1344	 1341	 1318	 1284	 1257	 1216	 1158	 1093	 1018	926.3	882.8	852.7	645.5	473.2	361.8	275.5	216.6	212.9	319.3	 1551	 7944	9999.9	464.9	18.35	7.125	5.172	4.698	3.278	2.983	3.261	3.420	3.720	3.874	3.902	3.821	4.684	5.288	5.362	5.559	5.138	5.859	5.723	5.863	5.581	5.926	6.148	6.426	5.825	6.352	6.124	6.994	6.523	6.553	6.662	7.487	7.090	6.965	7.215	7.302	6.998	7.293
410.0	287.4	450.3	729.2	980.4	 1192	 1332	 1391	 1417	 1417	 1417	 1445	 1473	 1471	 1446	 1394	 1322	 1274	 1268	 1251	 1236	 1209	 1185	 1137	 1084	 1015	929.1	861.7	816.1	753.1	578.2	423.2	319.4	239.9	187.1	167.3	414.9	 2024	 6555	 9421	 2018	31.48	7.415	5.433	4.246	3.791	3.430	3.516	3.846	3.547	3.769	3.838	4.358	4.913	5.143	5.100	5.285	5.626	5.506	5.408	5.500	6.181	5.975	6.220	6.137	6.074	6.248	6.298	6.490	6.413	6.278	6.957	6.516	7.016	6.944	6.677	7.280	7.820
