Sample:	'1
File name:	¹àÄÏ2³¡Ë®·Ê.FD3
Run date:	'14:48:42, 02/20/2024
Operator:	Administrator
Comment:	'

Instrument
Model:	F-2700 FL Spectrophotometer
Serial number:	23B8-004
ROM Version:	4J14000 07

Instrument parameters
Measurement type:	3-D scan
Data mode:	Fluorescence
EX  Start WL:	220.0 nm
EX  End WL:	600.0 nm
EX Sampling interval:	5.0 nm
EM  Start WL:	230.0 nm
EM  End WL:	650.0 nm
EM Sampling interval:	5.0 nm
Scan speed:	12000 nm/min
EX Slit:	5.0 nm
EM Slit:	5.0 nm
PMT Voltage:	700 V
Response:	Auto 
Corrected spectra:	Off
Contour interval:	50.000

Peak integration
Integration method:	Rectangular
Sensitivity:	1
Threshold:	1.000

Peaks
No.	ApexEX/EM(nm)	Height(Data)
1	225.0/345.0	3702
2	255.0/560.0	157.2
3	270.0/600.0	283.8
4	275.0/305.0	4635
5	275.0/340.0	4653
6	275.0/605.0	285.7
7	455.0/345.0	11.98
8	550.0/305.0	21.94
9	560.0/310.0	22.02
10	560.0/345.0	22.63
11	565.0/340.0	22.59

Data points
	220.0	225.0	230.0	235.0	240.0	245.0	250.0	255.0	260.0	265.0	270.0	275.0	280.0	285.0	290.0	295.0	300.0	305.0	310.0	315.0	320.0	325.0	330.0	335.0	340.0	345.0	350.0	355.0	360.0	365.0	370.0	375.0	380.0	385.0	390.0	395.0	400.0	405.0	410.0	415.0	420.0	425.0	430.0	435.0	440.0	445.0	450.0	455.0	460.0	465.0	470.0	475.0	480.0	485.0	490.0	495.0	500.0	505.0	510.0	515.0	520.0	525.0	530.0	535.0	540.0	545.0	550.0	555.0	560.0	565.0	570.0	575.0	580.0	585.0	590.0	595.0	600.0
230.0	63.41	3030	8424	2758	85.20	11.02	7.956	8.408	7.024	7.281	6.995	6.581	6.198	5.723	4.437	3.754	3.429	3.205	2.752	2.781	2.176	2.194	1.938	1.828	1.799	1.592	1.366	1.264	1.306	1.205	1.136	1.040	1.052	0.966	0.859	0.792	0.685	0.676	0.646	0.550	0.611	0.670	0.702	0.548	0.499	0.485	3.872	19.81	34.36	23.91	8.387	1.443	0.391	0.262	0.267	0.257	0.243	0.187	0.237	0.184	0.179	0.198	0.185	0.165	0.163	0.139	0.114	0.115	0.079	0.081	0.102	0.091	0.068	0.051	0.053	0.050	0.054
235.0	86.31	773.8	4667	8760	2982	163.3	11.82	9.638	8.043	7.617	7.642	8.343	6.766	5.621	5.034	4.098	3.731	3.096	2.510	2.617	2.270	2.240	2.162	1.926	1.929	1.649	1.595	1.402	1.260	1.202	1.209	1.013	0.949	1.012	0.871	0.894	0.626	0.662	0.719	0.538	0.503	0.522	0.519	0.638	0.730	0.584	1.252	5.053	12.20	21.88	31.34	23.80	15.59	3.455	0.357	0.348	0.328	0.248	0.302	0.230	0.184	0.187	0.226	0.159	0.170	0.143	0.123	0.125	0.111	0.051	0.087	0.087	0.065	0.060	0.092	0.049	0.058
240.0	111.1	243.1	1290	6734	9999.9	2426	88.20	14.17	10.70	9.144	10.45	8.872	7.593	6.656	5.250	4.489	3.865	3.466	3.091	3.034	2.260	2.339	2.321	2.040	2.035	1.913	1.737	1.490	1.243	1.444	1.192	1.134	1.028	0.819	1.011	0.877	0.736	0.625	0.658	0.499	0.537	0.497	0.520	0.574	0.762	0.680	0.812	1.519	3.124	6.102	15.81	38.75	55.14	24.36	13.01	1.725	0.329	0.327	0.265	0.245	0.247	0.189	0.174	0.172	0.182	0.184	0.170	0.126	0.110	0.125	0.131	0.089	0.075	0.043	0.076	0.078	0.091
245.0	83.76	179.9	344.0	2115	9959	9999.9	386.9	36.66	15.32	12.24	12.64	9.500	9.117	7.670	6.166	4.573	3.879	3.887	3.287	3.192	2.414	2.552	2.388	2.073	1.938	1.837	1.988	1.541	1.438	1.377	1.317	1.282	1.049	0.918	1.039	0.813	0.820	0.682	0.593	0.506	0.624	0.475	0.581	0.502	0.460	0.783	0.924	1.022	1.106	1.681	3.866	12.33	35.25	60.01	68.70	22.56	8.761	0.792	0.328	0.289	0.284	0.231	0.203	0.187	0.205	0.120	0.183	0.137	0.158	0.120	0.120	0.108	0.070	0.119	0.075	0.107	0.100
250.0	45.80	110.7	210.6	543.9	2960	9407	9999.9	5319	118.4	20.71	17.38	13.74	11.26	9.070	6.855	5.398	4.812	4.205	3.752	3.419	2.938	2.475	2.487	2.395	2.118	2.006	1.990	1.604	1.569	1.450	1.237	1.215	1.081	1.079	1.005	0.812	0.892	0.812	0.639	0.595	0.589	0.563	0.560	0.514	0.461	0.539	0.652	0.842	1.037	1.043	1.368	3.139	8.520	18.43	37.86	55.62	78.24	65.03	16.59	7.909	1.013	0.301	0.314	0.278	0.258	0.203	0.200	0.145	0.206	0.135	0.144	0.157	0.107	0.110	0.116	0.103	0.115
255.0	41.25	53.64	122.0	297.7	733.0	2266	8300	9999.9	8164	145.2	28.21	19.23	14.91	11.53	8.500	7.217	5.759	4.988	4.104	3.975	3.337	2.953	2.791	2.513	2.184	2.094	1.946	1.891	1.883	1.735	1.408	1.291	1.229	1.174	1.062	0.965	0.939	0.793	0.785	0.750	0.664	0.651	0.565	0.581	0.508	0.590	0.544	0.564	0.628	0.828	1.261	1.641	2.551	4.469	8.791	13.23	26.60	63.61	117.4	126.9	26.15	9.700	0.783	0.393	0.370	0.336	0.292	0.257	0.228	0.238	0.177	0.226	0.159	0.166	0.143	0.132	0.134
260.0	43.43	45.91	58.93	192.0	339.1	566.7	2326	9999.9	9999.9	1766	104.5	27.43	20.40	14.97	10.39	8.430	6.905	5.584	4.853	4.154	3.463	3.046	2.903	2.823	2.437	2.246	1.984	2.059	1.951	1.692	1.529	1.399	1.369	1.343	1.130	1.002	0.866	0.796	0.878	0.824	0.733	0.591	0.656	0.688	0.575	0.554	0.539	0.546	0.545	0.578	0.862	1.354	1.753	1.806	2.385	3.418	6.501	16.43	48.33	116.3	163.3	134.6	22.20	4.968	0.512	0.407	0.358	0.316	0.252	0.264	0.223	0.228	0.224	0.156	0.168	0.133	0.115
265.0	63.47	47.97	38.16	93.84	271.3	281.9	579.0	3459	9999.9	9999.9	1402	60.51	27.55	19.77	13.02	9.769	8.394	6.517	5.041	4.566	3.873	3.543	2.875	3.237	2.615	2.619	2.533	2.157	2.289	1.961	1.809	1.701	1.418	1.344	1.390	0.970	1.022	0.837	1.019	0.878	0.823	0.736	0.732	0.896	0.659	0.659	0.623	0.701	0.560	0.566	0.553	0.937	1.590	1.785	1.612	1.429	1.964	4.138	11.64	32.19	85.38	176.4	208.8	30.78	15.58	1.631	0.577	0.508	0.392	0.396	0.324	0.251	0.261	0.233	0.207	0.211	0.172
270.0	199.7	99.78	57.01	57.60	141.4	292.8	351.2	887.4	3824	9999.9	9999.9	5746	93.27	32.33	20.64	14.08	10.74	8.122	7.043	5.523	4.780	4.232	3.627	3.465	3.103	2.731	2.510	2.390	2.267	2.083	2.074	1.995	1.727	1.729	1.522	1.355	1.401	1.239	1.448	1.266	1.347	1.489	1.238	1.330	1.026	0.850	0.769	0.692	0.598	0.523	0.541	0.589	0.865	1.125	1.530	1.929	2.139	1.937	3.351	7.945	20.27	48.81	97.52	136.9	184.5	131.4	91.51	11.02	2.007	0.637	0.438	0.459	0.324	0.313	0.271	0.285	0.239
275.0	414.8	193.5	99.12	63.42	87.14	172.7	425.4	485.8	1039	2625	9999.9	9999.9	7872	108.3	34.67	22.20	15.84	11.50	8.984	6.913	6.068	5.224	4.199	3.702	3.460	3.429	3.052	2.718	2.481	2.240	2.299	1.996	2.221	2.100	1.986	1.802	1.802	1.970	1.997	2.049	2.160	2.372	2.154	2.183	1.607	1.378	1.046	1.024	0.747	0.633	0.647	0.685	0.746	0.820	1.006	1.384	2.246	3.090	2.952	3.074	5.559	12.07	22.90	32.14	52.89	111.2	253.4	237.4	30.60	15.68	1.429	0.782	0.535	0.517	0.399	0.457	0.374
280.0	665.1	345.7	181.5	104.8	94.37	140.9	317.4	618.8	490.8	899.6	3117	9999.9	9999.9	5573	81.66	32.28	20.82	14.63	11.37	8.363	7.135	5.857	5.045	4.474	3.962	3.811	3.205	2.924	2.811	2.599	2.486	2.539	2.266	2.539	2.543	2.379	2.469	2.388	2.656	2.931	2.706	3.029	3.115	2.878	2.125	1.736	1.457	1.422	1.075	0.913	0.743	0.823	0.741	0.825	0.933	1.130	1.558	2.421	3.688	3.780	3.368	4.222	6.810	8.889	13.77	28.37	83.62	191.3	299.1	224.7	27.99	10.24	0.923	0.801	0.522	0.537	0.482
285.0	1048	672.5	394.8	213.4	141.5	162.6	284.8	621.3	839.9	827.4	1396	4327	9999.9	9999.9	824.8	56.38	28.70	19.83	14.20	10.32	8.860	7.210	5.888	4.980	4.548	3.978	3.411	3.267	3.192	2.785	2.471	2.430	2.515	2.907	2.875	2.998	3.142	3.260	3.392	3.683	3.661	3.592	3.880	3.681	3.449	2.799	2.454	2.355	1.873	1.376	1.161	1.097	1.068	1.002	1.042	1.199	1.533	1.923	2.983	4.134	4.929	4.610	4.791	5.359	6.504	9.960	22.56	50.31	123.2	260.1	338.0	196.2	22.57	4.674	0.886	0.797	0.585
290.0	1869	1478	1010	540.9	291.8	261.2	382.1	671.3	1216	1665	1956	2611	5222	9999.9	9999.9	9999.9	65.50	32.06	20.94	14.63	11.49	8.830	7.347	6.175	5.400	4.776	4.282	3.734	3.457	3.335	2.922	2.787	2.788	3.235	3.849	4.108	4.500	4.663	4.927	5.024	5.062	5.265	5.287	5.592	5.388	5.074	4.877	4.699	3.810	2.892	2.280	2.108	1.654	1.410	1.509	1.600	2.049	2.326	2.989	4.080	5.460	7.280	8.603	9.316	9.459	10.09	13.13	19.52	35.34	70.50	130.1	201.6	211.5	186.6	128.2	15.84	6.163
295.0	2675	2392	1762	944.1	465.9	385.1	533.7	866.0	1462	2394	3250	3274	3343	3497	9999.9	9999.9	4976	73.16	32.32	23.07	14.82	11.45	9.393	7.265	6.609	5.806	4.880	4.326	3.949	3.394	3.391	3.188	3.567	3.845	4.558	5.296	5.763	6.329	6.024	6.523	6.523	6.990	6.812	7.248	7.596	7.864	7.196	7.299	6.395	4.664	3.641	3.301	2.480	2.107	2.306	2.133	2.656	3.136	3.805	4.997	6.285	8.554	10.38	13.17	15.81	15.54	15.93	17.31	20.10	26.33	36.53	50.71	55.34	103.0	258.9	373.0	220.2
300.0	3158	2923	2186	1226	606.8	471.8	621.0	1006	1667	2625	3916	4052	3361	2184	3204	9999.9	9999.9	3843	59.87	30.86	20.87	14.70	11.72	9.086	7.702	6.727	5.517	4.944	4.727	4.103	3.814	3.440	3.763	4.324	5.298	5.689	6.831	7.139	7.184	7.086	7.314	7.757	8.048	8.274	8.950	9.292	8.869	8.951	7.739	5.735	4.553	4.071	3.093	2.468	2.367	2.351	2.961	3.559	4.591	5.326	7.190	9.500	11.68	14.13	17.69	20.01	20.07	19.33	19.39	18.52	17.57	18.08	16.98	26.42	72.33	186.0	351.1
305.0	3410	3196	2460	1398	695.3	528.6	687.8	1078	1774	2747	3983	4635	3711	2110	1395	3737	9999.9	9999.9	540.4	48.38	27.40	19.65	14.47	11.50	9.337	7.470	6.585	5.478	5.065	4.458	4.293	3.746	3.967	4.625	5.774	5.847	7.086	7.777	7.588	7.622	8.015	8.084	8.479	8.588	9.827	10.16	9.653	9.982	8.367	6.733	5.054	4.667	3.669	2.830	2.561	2.668	3.439	3.929	4.984	6.072	7.582	9.834	12.25	14.45	17.44	19.94	21.94	21.87	20.92	17.83	15.09	11.92	9.276	9.599	18.96	44.85	110.7
310.0	3354	3310	2579	1487	768.3	578.1	747.8	1139	1812	2780	3867	4496	4096	2402	1194	1201	4101	9999.9	9999.9	9999.9	52.14	29.19	20.00	14.81	11.21	8.897	7.685	6.340	5.996	5.264	4.736	4.259	4.212	4.438	5.544	6.173	7.079	7.648	7.525	7.651	7.566	7.813	8.292	8.708	9.449	10.22	10.11	10.20	8.887	7.158	5.455	4.871	3.796	3.022	2.900	3.046	3.678	4.171	5.190	6.428	7.962	10.29	12.72	14.82	17.17	19.19	21.09	21.50	22.02	20.06	16.36	11.74	8.936	6.764	7.748	12.43	26.76
315.0	3238	3238	2630	1552	819.6	656.6	829.9	1209	1860	2784	3767	4285	4010	2895	1475	802.0	1170	2516	9999.9	9999.9	3758	58.70	30.54	20.71	15.71	11.19	9.677	7.591	7.228	5.906	5.489	4.829	4.711	4.815	5.656	6.257	6.825	7.408	7.481	7.413	7.031	7.640	8.166	8.439	9.480	10.38	9.800	9.948	9.125	7.284	5.587	5.192	4.273	3.271	3.313	3.334	3.778	4.554	5.690	6.582	8.239	10.10	12.78	14.79	16.67	18.46	20.24	20.33	20.40	19.59	17.88	14.63	10.82	8.252	6.342	6.065	8.386
320.0	3128	3213	2674	1566	900.1	751.3	922.7	1325	1959	2844	3760	4248	3969	3058	1915	888.3	614.8	760.7	2801	9999.9	9999.9	3124	50.05	27.38	19.28	14.30	11.03	9.026	8.318	7.043	5.688	5.230	4.851	5.036	5.631	5.943	6.612	6.880	6.761	7.098	7.039	7.511	7.952	8.349	9.294	10.21	10.04	10.52	9.265	7.511	5.792	5.248	4.461	3.804	3.664	3.701	4.582	5.357	5.889	7.496	9.005	10.69	13.08	15.00	16.79	18.38	19.76	19.96	20.09	18.94	17.03	15.38	13.45	10.82	7.312	5.950	5.359
325.0	3133	3263	2689	1622	974.6	865.6	1034	1475	2104	2975	3838	4324	4072	3144	2246	1195	612.9	437.8	794.5	3548	9999.9	9999.9	439.8	43.33	25.11	18.40	13.21	10.78	9.287	7.793	6.530	5.795	5.291	5.164	5.470	5.745	6.284	6.791	6.703	6.951	6.904	7.271	7.671	8.438	9.337	9.911	10.15	10.67	9.695	7.473	5.976	5.484	4.742	4.096	4.079	4.203	4.900	5.993	6.526	7.958	9.522	11.34	13.97	15.63	17.25	18.96	19.63	20.22	20.60	20.46	17.93	15.66	13.93	12.91	10.10	7.371	5.688
330.0	3272	3421	2776	1725	1122	1025	1227	1681	2324	3177	4000	4463	4286	3444	2465	1570	884.4	486.2	407.9	943.7	3858	9999.9	9999.9	9906	45.75	26.85	18.50	14.07	11.50	9.155	7.754	6.605	5.918	5.589	5.691	5.945	6.191	6.538	6.502	6.558	6.620	7.192	8.088	8.807	9.851	10.80	10.49	11.02	10.00	7.459	6.057	5.696	5.187	4.719	4.670	4.916	5.963	6.790	7.571	8.843	10.69	12.31	14.77	16.54	17.91	19.57	20.03	20.68	21.44	21.03	19.15	17.34	15.38	13.89	11.59	9.657	7.993
335.0	3408	3615	2899	1815	1251	1185	1398	1875	2541	3366	4192	4621	4521	3751	2753	1725	1188	683.8	401.6	410.5	988.1	2438	9999.9	9999.9	9999.9	51.94	27.58	20.07	14.89	11.93	9.479	7.984	6.652	6.272	5.803	6.218	6.449	6.819	6.645	6.531	6.830	7.366	8.168	9.539	10.27	11.42	11.09	11.45	10.15	7.815	6.353	6.075	5.762	5.316	5.379	5.613	6.546	7.402	8.603	9.627	11.17	13.46	15.91	17.32	18.42	20.57	20.86	22.14	22.45	22.38	20.72	19.18	16.93	15.41	12.43	10.14	9.094
340.0	3521	3690	2943	1860	1336	1281	1507	1961	2641	3434	4208	4653	4572	3899	2922	1825	1223	886.8	488.7	329.4	377.0	654.6	2741	9999.9	9999.9	2880	46.35	25.48	18.31	14.14	10.76	8.444	7.323	6.677	6.120	6.329	6.429	6.414	6.357	6.508	6.899	7.849	8.237	9.606	10.47	11.50	11.31	11.95	10.40	8.117	6.657	6.697	6.033	5.551	5.703	6.095	6.705	7.624	9.181	10.34	11.85	13.75	16.20	17.39	18.63	20.61	21.36	22.02	22.16	22.59	20.71	20.11	18.42	16.29	13.09	10.69	9.517
345.0	3503	3702	2905	1857	1367	1304	1562	2008	2657	3422	4140	4601	4545	3932	2999	1884	1216	930.8	636.9	366.8	278.3	281.4	720.5	3496	9999.9	9999.9	2310	38.66	22.54	16.98	11.73	9.465	8.309	6.969	6.306	6.185	6.309	6.368	6.318	6.241	6.446	7.414	8.309	9.455	10.43	11.58	11.37	11.98	10.57	7.986	6.628	6.640	6.418	5.680	6.061	6.232	7.010	7.764	8.913	10.80	12.00	13.49	15.87	17.27	18.69	20.03	21.03	21.82	22.63	22.28	21.19	20.16	18.79	16.68	13.42	11.08	9.769
350.0	3414	3606	2826	1833	1370	1340	1566	1996	2575	3300	3978	4417	4391	3846	2995	1925	1254	892.9	721.6	526.3	332.0	251.2	307.9	897.9	3944	9999.9	9999.9	9106	41.34	23.52	16.61	11.73	9.186	7.463	6.964	6.463	6.368	6.360	6.047	6.354	6.437	7.459	8.044	9.090	10.09	11.01	11.18	11.79	10.02	7.525	6.378	6.389	6.318	5.689	6.118	6.286	7.019	8.032	9.112	10.07	11.51	13.22	14.99	16.64	18.39	19.17	19.88	20.91	21.82	21.56	21.08	19.80	18.58	16.63	13.32	11.06	9.876
355.0	3334	3497	2695	1784	1373	1348	1528	1921	2456	3119	3744	4142	4134	3663	2923	1911	1283	911.2	709.8	641.8	484.0	318.2	269.9	356.4	994.8	2436	9999.9	9999.9	9999.9	46.87	23.62	15.67	11.60	9.112	7.791	6.590	6.550	6.629	6.081	6.221	6.548	7.281	7.953	8.833	9.748	11.01	10.66	11.09	9.618	7.410	6.020	6.328	5.949	5.588	6.007	5.934	6.676	7.858	9.029	9.868	11.50	12.50	14.28	15.73	16.98	18.56	18.91	19.61	20.00	20.15	19.61	18.92	17.65	16.30	13.05	11.36	9.668
360.0	3192	3321	2589	1750	1354	1323	1494	1853	2365	2946	3523	3902	3915	3512	2821	1868	1291	950.0	741.3	647.9	606.0	423.3	309.3	273.7	364.2	647.2	2747	9999.9	9999.9	2748	41.42	20.67	15.13	10.82	8.519	7.318	6.583	6.687	5.910	6.216	6.347	7.220	7.828	8.872	9.492	10.78	10.19	10.57	9.157	7.164	5.830	6.329	5.968	5.845	5.965	5.981	6.837	7.416	8.225	9.292	10.83	11.73	13.30	14.65	16.06	16.74	18.22	18.71	18.97	19.47	18.57	17.64	16.75	15.57	13.38	11.46	9.936
365.0	3007	3156	2526	1687	1347	1315	1483	1801	2238	2790	3333	3673	3706	3348	2697	1837	1306	988.3	790.9	672.0	635.3	546.6	383.8	300.3	260.0	269.6	704.9	3480	9999.9	9999.9	2219	33.58	19.31	13.51	9.683	8.347	7.368	6.508	6.451	6.224	6.172	6.986	7.481	8.070	9.203	10.39	9.996	10.09	8.791	7.007	5.664	6.000	5.896	5.530	5.832	6.095	6.688	7.101	7.940	9.312	10.29	11.51	12.70	14.03	14.85	16.29	16.53	17.48	18.02	18.57	17.61	17.21	16.53	15.15	12.74	11.17	9.733
370.0	2898	2994	2379	1635	1329	1300	1446	1723	2106	2585	3062	3369	3398	3091	2544	1783	1315	1037	864.9	752.5	675.5	641.3	546.7	393.1	293.9	230.3	275.4	864.8	3874	9999.9	9999.9	8435	35.72	19.27	13.21	9.952	8.568	7.388	6.710	6.802	6.231	6.898	7.363	8.115	9.037	9.734	9.482	9.736	8.609	6.720	5.850	6.101	6.137	5.717	5.829	6.070	6.575	7.100	7.636	8.779	9.521	10.61	11.91	13.18	13.78	14.60	15.34	16.19	16.60	16.71	16.25	15.88	15.35	13.99	12.10	10.99	9.745
375.0	2726	2816	2284	1580	1304	1284	1425	1653	1957	2353	2775	3048	3085	2849	2380	1724	1324	1094	950.5	848.4	764.4	691.8	658.5	548.2	376.2	275.3	218.5	303.8	945.0	2442	9999.9	9999.9	9999.9	40.34	18.62	12.87	10.24	8.552	7.394	6.854	6.394	7.158	7.245	7.881	8.797	9.684	9.311	9.352	8.071	6.648	5.510	6.244	6.058	5.568	5.833	5.906	6.598	7.007	7.426	8.099	9.025	9.887	11.02	12.31	12.63	13.05	13.55	14.63	14.97	15.37	15.25	14.37	13.81	12.96	11.36	10.57	9.886
380.0	2707	2643	2215	1601	1338	1310	1424	1613	1874	2196	2569	2808	2865	2660	2263	1694	1330	1131	1012	919.4	834.5	745.9	687.2	643.7	466.4	326.9	239.2	204.9	311.9	623.7	2815	9999.9	9999.9	2315	33.46	16.71	12.25	9.866	8.073	7.139	6.946	7.231	7.278	7.879	8.587	9.285	8.810	9.107	7.905	6.509	5.600	6.183	6.018	5.973	6.127	5.959	6.634	6.850	7.573	8.163	8.773	9.493	10.70	11.34	12.00	12.56	12.51	12.99	13.82	14.51	13.74	13.80	13.70	12.25	11.16	10.42	9.655
385.0	2544	2597	2121	1581	1358	1328	1407	1581	1805	2085	2394	2630	2690	2505	2155	1657	1347	1171	1064	982.1	896.1	806.6	723.3	672.0	576.7	396.7	283.1	213.4	195.8	234.3	705.2	3520	9999.9	9999.9	1789	26.56	15.41	11.59	8.807	8.191	7.360	7.187	7.382	8.034	8.499	8.959	9.002	8.720	7.653	6.443	5.526	6.166	6.241	5.987	6.045	6.121	6.570	6.834	7.226	7.777	8.461	8.931	9.978	10.30	11.14	11.55	11.72	12.83	12.69	13.17	13.23	13.02	13.11	11.99	10.70	9.962	9.571
390.0	2393	2499	2093	1590	1396	1368	1429	1558	1736	1951	2208	2413	2476	2329	2040	1624	1362	1219	1121	1047	975.2	889.7	795.7	703.9	631.7	516.4	367.9	271.2	215.8	183.8	256.9	863.2	3761	9999.9	9999.9	6472	29.24	15.66	11.50	9.862	8.232	7.797	7.659	8.125	8.415	8.970	8.328	8.820	7.675	6.398	5.738	6.237	6.188	6.071	6.179	6.121	6.553	6.813	7.295	7.764	8.192	8.471	9.298	9.637	10.29	10.71	10.96	11.89	11.95	12.33	12.40	12.10	12.09	11.55	10.68	9.888	9.273
395.0	2329	2391	2033	1606	1444	1405	1454	1541	1685	1841	2053	2221	2276	2178	1942	1604	1380	1266	1173	1104	1028	953.0	862.2	765.3	660.2	583.6	489.1	348.6	268.6	217.7	188.1	286.8	905.8	2420	9999.9	9999.9	8845	33.85	16.55	12.30	9.673	8.914	8.590	8.634	8.490	9.163	8.318	8.291	7.700	6.429	5.707	6.470	6.442	6.281	6.332	6.190	7.019	7.225	7.338	7.526	8.284	8.289	8.853	9.148	9.319	9.894	10.20	10.92	10.95	11.53	11.22	11.45	11.25	10.68	10.35	10.13	9.691
400.0	2280	2370	1999	1618	1471	1448	1478	1540	1643	1781	1960	2102	2157	2074	1875	1578	1389	1273	1193	1134	1061	985.7	899.4	799.5	693.3	600.2	553.0	427.0	321.0	256.4	200.2	180.1	284.8	600.8	2697	9999.9	9999.9	1979	28.94	14.74	11.20	10.07	8.967	8.610	8.827	9.482	8.193	8.531	7.713	6.614	5.828	6.756	6.493	6.490	6.710	6.518	7.130	6.906	7.337	7.480	7.800	8.038	8.556	8.833	8.961	9.446	9.541	10.64	10.51	10.77	11.02	10.82	10.68	10.44	9.713	9.693	9.440
405.0	2254	2344	2014	1618	1480	1468	1491	1557	1613	1713	1867	2002	2055	1992	1820	1559	1382	1276	1210	1139	1080	1010	922.2	826.6	718.0	618.9	560.4	500.2	379.3	294.9	229.8	177.9	161.3	205.2	656.8	3193	9999.9	9999.9	1567	23.66	12.99	11.24	9.516	8.853	8.787	9.089	8.335	8.509	7.888	6.546	5.873	6.529	6.626	6.233	6.678	6.696	6.947	7.159	7.405	7.327	7.727	8.088	8.212	8.816	8.810	8.822	9.066	9.544	9.872	10.49	10.62	10.29	10.59	10.27	9.589	10.07	9.810
410.0	2204	2262	1985	1630	1485	1477	1486	1553	1580	1649	1765	1872	1936	1877	1739	1516	1356	1269	1196	1132	1074	1009	928.2	846.7	746.7	648.5	573.7	529.1	462.2	359.1	271.2	205.3	158.5	134.3	211.5	765.5	3257	9999.9	9999.9	5674	26.18	14.43	11.38	10.34	9.369	9.053	8.308	8.410	7.857	6.369	6.171	6.555	6.766	6.629	6.651	6.438	7.072	7.261	7.361	7.537	7.696	7.936	8.164	8.323	8.335	8.273	8.562	9.098	9.399	9.743	10.06	9.703	10.34	9.916	9.408	9.335	9.524
415.0	2114	2133	1900	1606	1482	1449	1470	1519	1530	1575	1655	1738	1808	1771	1644	1456	1320	1234	1157	1100	1043	981.4	917.0	843.1	756.7	665.2	591.7	534.0	496.4	432.0	320.9	238.7	182.4	137.5	128.3	230.9	773.0	2363	8247	9999.9	2011	31.28	14.98	12.21	10.01	9.403	8.661	8.486	7.737	6.199	5.954	6.738	6.812	6.623	6.817	6.639	7.234	7.075	7.360	7.314	7.652	7.780	7.709	7.740	8.036	7.812	8.481	8.362	8.758	8.860	9.256	9.441	9.379	9.753	8.860	9.311	9.197
420.0	2011	2064	1839	1565	1447	1418	1457	1473	1491	1523	1590	1654	1705	1685	1567	1391	1271	1190	1113	1067	1014	957.4	894.8	826.7	750.3	666.8	600.7	538.8	491.6	459.6	363.3	263.3	198.9	151.7	120.8	121.1	226.9	569.2	2135	9999.9	9999.9	1847	27.57	14.06	11.24	10.29	8.813	8.372	7.566	6.489	6.029	6.841	6.587	6.651	6.357	6.616	6.916	7.355	7.417	7.154	7.269	7.203	7.359	7.508	7.920	7.591	8.145	7.890	8.335	8.617	8.831	8.805	9.276	9.550	8.844	8.911	8.480
425.0	1978	1994	1798	1531	1405	1389	1412	1439	1443	1463	1516	1568	1625	1599	1506	1341	1223	1145	1075	1020	977.1	922.7	866.7	807.2	736.3	665.6	600.9	542.3	493.3	457.3	403.6	293.0	217.3	168.9	131.0	107.7	112.7	173.8	516.5	2859	9999.9	9999.9	1459	22.84	12.38	10.73	9.116	8.534	7.714	6.488	5.843	6.816	6.899	6.478	6.383	6.763	6.930	7.029	7.249	7.009	7.098	7.133	7.362	7.343	7.375	7.249	7.698	7.463	8.104	8.302	8.537	8.427	8.798	9.155	8.652	8.557	8.332
