Sample:	'1
File name:	Default_20230217_094751.FD3
Run date:	'09:41:30, 02/17/2023
Operator:	user
Comment:	'

Instrument
Model:	F-2700 FL Spectrophotometer
Serial number:	2190-003
ROM Version:	4J14000 07

Instrument parameters
Measurement type:	3-D scan
Data mode:	Fluorescence
EX  Start WL:	220.0 nm
EX  End WL:	600.0 nm
EX Sampling interval:	5.0 nm
EM  Start WL:	230.0 nm
EM  End WL:	650.0 nm
EM Sampling interval:	5.0 nm
Scan speed:	12000 nm/min
EX Slit:	5.0 nm
EM Slit:	5.0 nm
PMT Voltage:	700 V
Response:	Auto 
Corrected spectra:	Off
Contour interval:	50.000

Peak integration
Integration method:	Rectangular
Sensitivity:	1
Threshold:	1.000

Peaks
No.	ApexEX/EM(nm)	Height(Data)
1	225.0/300.0	150.2
2	240.0/260.0	138.7
3	240.0/520.0	4.696
4	245.0/265.0	129.0
5	245.0/365.0	 8129
6	245.0/530.0	0.158
7	250.0/270.0	176.3
8	250.0/545.0	16.50
9	255.0/555.0	24.44
10	270.0/295.0	 3272
11	270.0/505.0	29.10
12	270.0/590.0	225.0
13	275.0/300.0	 3193
14	295.0/545.0	-1.984
15	305.0/340.0	501.4
16	310.0/345.0	441.4
17	320.0/360.0	300.3
18	320.0/605.0	-6.486
19	325.0/365.0	273.9
20	325.0/500.0	29.39
21	330.0/300.0	-4.087
22	330.0/370.0	218.4
23	330.0/575.0	-2.362
24	335.0/375.0	218.1
25	340.0/385.0	219.1
26	345.0/390.0	186.5
27	350.0/395.0	180.9
28	355.0/405.0	176.0
29	360.0/410.0	143.4
30	360.0/635.0	-4.467
31	365.0/415.0	137.2
32	370.0/425.0	124.9
33	375.0/430.0	105.2
34	380.0/435.0	90.84
35	385.0/445.0	85.21
36	385.0/545.0	7.062
37	390.0/450.0	65.91
38	395.0/455.0	58.20
39	400.0/465.0	50.48
40	405.0/470.0	38.31
41	410.0/475.0	32.18
42	415.0/485.0	28.47
43	420.0/490.0	22.00
44	425.0/495.0	20.60
45	435.0/510.0	14.19
46	440.0/515.0	10.93
47	445.0/525.0	10.50
48	450.0/530.0	8.502
49	455.0/540.0	6.473
50	460.0/545.0	4.968
51	465.0/550.0	4.076
52	490.0/365.0	12.12
53	490.0/585.0	-0.687
54	495.0/360.0	12.36
55	535.0/295.0	2.982
56	540.0/300.0	3.734
57	550.0/305.0	3.520

Data points
	220.0	225.0	230.0	235.0	240.0	245.0	250.0	255.0	260.0	265.0	270.0	275.0	280.0	285.0	290.0	295.0	300.0	305.0	310.0	315.0	320.0	325.0	330.0	335.0	340.0	345.0	350.0	355.0	360.0	365.0	370.0	375.0	380.0	385.0	390.0	395.0	400.0	405.0	410.0	415.0	420.0	425.0	430.0	435.0	440.0	445.0	450.0	455.0	460.0	465.0	470.0	475.0	480.0	485.0	490.0	495.0	500.0	505.0	510.0	515.0	520.0	525.0	530.0	535.0	540.0	545.0	550.0	555.0	560.0	565.0	570.0	575.0	580.0	585.0	590.0	595.0	600.0
230.0	-277.5	-98.65	798.9	617.6	-65.61	-88.33	-73.91	-64.88	-57.91	-54.25	-47.42	-41.97	-35.95	-29.48	-21.14	-19.05	-17.00	-14.01	-12.73	-10.88	-9.802	-8.446	-8.106	-7.393	-7.059	-6.973	-6.560	-6.077	-6.351	-5.842	-5.333	-5.708	-5.232	-4.673	-4.318	-3.685	-3.507	-3.755	-3.553	-3.590	-3.353	-3.002	-3.441	-3.169	-3.125	-3.013	-2.804	-2.405	-1.041	-0.732	-1.401	-2.559	-2.339	-2.606	-2.453	-2.623	-2.647	-2.642	-2.815	-2.826	-2.830	-3.016	-2.861	-2.817	-2.846	-3.099	-2.991	-3.120	-3.235	-3.174	-3.054	-3.147	-3.041	-3.114	-2.919	-3.180	-3.353
235.0	-241.6	-183.1	209.2	 1112	843.1	-7.661	-77.04	-69.29	-57.88	-55.35	-51.46	-47.44	-34.11	-31.13	-24.32	-19.30	-15.31	-15.02	-12.98	-10.80	-9.472	-9.021	-7.591	-8.066	-7.867	-7.258	-5.760	-5.867	-6.310	-5.520	-5.343	-5.680	-5.043	-4.390	-4.713	-3.607	-3.257	-3.254	-3.083	-3.746	-3.439	-3.040	-3.361	-3.046	-3.517	-3.216	-2.741	-2.460	-1.981	-0.858	-0.196	0.022	-1.309	-2.509	-2.471	-2.621	-2.694	-3.100	-2.717	-3.160	-2.676	-3.004	-2.867	-3.130	-2.538	-3.269	-3.040	-3.094	-3.265	-3.318	-3.005	-3.084	-3.001	-3.001	-2.722	-3.335	-3.363
240.0	-243.8	-202.4	-85.94	561.8	 1753	809.2	-51.88	-66.49	-64.98	-61.77	-44.62	-43.20	-35.12	-28.63	-18.90	-15.27	-16.23	-13.32	-12.74	-10.41	-10.05	-7.579	-7.496	-7.608	-7.130	-7.122	-6.594	-6.417	-5.888	-6.522	-4.570	-5.180	-5.298	-4.843	-4.595	-4.171	-3.419	-3.210	-3.132	-3.643	-3.585	-3.086	-3.179	-3.069	-3.135	-2.802	-2.610	-2.668	-2.148	-1.969	-1.101	0.162	1.184	-0.157	-1.900	-2.372	-2.454	-2.794	-2.688	-3.217	-2.784	-2.874	-2.817	-3.071	-2.829	-3.073	-2.953	-2.982	-2.906	-3.094	-2.414	-3.062	-2.904	-2.985	-2.762	-3.355	-3.254
245.0	-251.3	-213.5	-130.4	54.69	 1047	 2098	660.5	-61.93	-59.40	-51.37	-49.38	-43.81	-37.09	-27.15	-24.90	-17.75	-15.42	-13.46	-11.10	-9.932	-8.935	-8.679	-7.365	-7.343	-7.687	-6.578	-6.835	-6.439	-6.885	-6.059	-5.677	-5.017	-5.771	-4.903	-4.436	-3.920	-3.633	-3.659	-3.475	-3.816	-3.738	-3.269	-2.872	-3.206	-3.062	-2.969	-2.375	-2.879	-2.478	-2.085	-1.974	-1.923	-0.326	1.670	1.708	-0.989	-2.570	-2.400	-2.841	-3.085	-3.196	-2.817	-3.058	-3.049	-2.674	-3.245	-2.683	-3.126	-3.041	-3.036	-2.803	-2.888	-3.247	-3.140	-2.833	-3.516	-3.141
250.0	-295.1	-205.6	-84.03	-10.78	189.3	 1079	 2166	 1143	127.5	-49.91	-48.15	-40.63	-37.28	-27.75	-23.97	-20.27	-14.95	-12.41	-12.24	-10.93	-9.461	-9.240	-7.236	-7.670	-6.862	-6.580	-6.302	-6.143	-6.010	-5.559	-5.874	-6.017	-5.180	-4.353	-4.332	-4.063	-3.766	-3.928	-3.474	-3.500	-3.374	-3.100	-3.261	-2.834	-3.128	-3.112	-2.581	-2.659	-2.233	-1.904	-1.976	-2.473	-2.002	-1.456	0.080	1.230	1.369	1.003	-0.995	-2.492	-3.184	-2.669	-2.816	-3.196	-2.843	-3.283	-2.745	-2.943	-2.760	-3.145	-3.284	-3.025	-3.076	-3.125	-3.384	-3.555	-3.157
255.0	-231.4	-211.7	-123.1	29.50	56.89	192.1	780.1	 2715	 1672	155.5	-45.66	-36.30	-36.02	-27.56	-21.69	-17.97	-17.84	-14.35	-12.53	-10.26	-8.769	-9.750	-7.090	-7.372	-7.522	-6.906	-5.549	-6.245	-6.408	-5.845	-4.988	-5.442	-4.995	-4.662	-4.271	-4.235	-4.021	-3.888	-3.219	-3.763	-2.902	-3.271	-3.552	-3.028	-3.266	-2.815	-2.630	-2.826	-2.377	-1.813	-1.998	-2.491	-2.247	-2.663	-1.950	-2.002	-1.661	1.448	4.338	3.348	-0.035	-2.675	-2.954	-2.726	-2.703	-3.181	-2.776	-3.020	-2.994	-2.921	-3.246	-3.493	-3.150	-3.499	-2.942	-3.650	-3.457
260.0	-267.5	-228.9	-145.6	-31.12	138.7	41.78	127.1	 1255	 3631	 1389	45.50	-37.80	-31.91	-24.55	-24.31	-16.68	-15.09	-13.86	-12.16	-9.295	-9.836	-9.409	-7.721	-7.185	-7.820	-6.129	-5.644	-6.407	-6.493	-6.169	-5.397	-5.381	-5.160	-5.079	-4.123	-3.804	-3.730	-4.109	-3.851	-3.934	-3.190	-3.555	-3.498	-3.305	-2.635	-2.866	-2.845	-2.706	-2.538	-2.191	-1.759	-2.289	-1.902	-2.349	-2.113	-2.547	-2.562	-1.617	0.608	4.128	6.445	2.919	-1.718	-3.019	-2.675	-3.069	-2.711	-2.632	-2.823	-3.158	-2.920	-3.554	-3.118	-3.195	-2.979	-3.738	-3.741
265.0	-279.5	-232.5	-152.4	-102.1	86.14	129.0	5.592	272.1	 1874	 4417	 1089	-1.036	-30.35	-25.04	-24.38	-16.14	-15.99	-13.31	-10.88	-9.183	-9.160	-9.095	-8.266	-7.801	-6.088	-6.584	-5.403	-5.826	-6.364	-6.047	-6.066	-5.408	-4.628	-5.073	-4.167	-4.034	-4.082	-3.937	-3.068	-3.653	-3.156	-3.226	-3.643	-3.413	-3.145	-2.800	-2.664	-2.562	-2.510	-2.214	-1.912	-2.324	-1.959	-1.937	-2.070	-2.474	-2.649	-2.454	-2.245	-1.111	2.673	7.159	6.370	1.579	-2.102	-3.127	-2.682	-2.467	-3.086	-2.942	-2.987	-3.061	-3.371	-3.032	-3.008	-3.312	-3.226
270.0	-244.4	-205.7	-154.9	-117.4	-51.78	109.8	176.3	82.26	431.7	 2029	 3807	 2637	240.3	-24.95	-23.00	-16.07	-16.10	-13.20	-10.94	-9.131	-9.288	-8.970	-8.114	-7.961	-6.459	-6.499	-5.385	-6.159	-5.569	-6.346	-5.312	-5.025	-4.677	-4.711	-4.025	-3.742	-4.267	-3.588	-3.846	-3.211	-3.499	-2.952	-3.342	-2.948	-3.084	-2.759	-2.587	-2.671	-2.508	-2.136	-2.127	-2.444	-2.203	-2.425	-2.081	-1.849	-2.103	-2.638	-2.406	-2.241	-1.443	0.207	2.411	5.253	5.939	4.590	0.396	-2.261	-3.052	-3.229	-3.214	-2.713	-3.226	-3.021	-3.036	-3.208	-3.316
275.0	-220.0	-216.4	-148.4	-115.9	-68.50	-24.24	164.7	362.3	228.5	598.1	 1478	 4919	 4070	277.1	-19.03	-16.43	-14.24	-13.94	-10.63	-10.36	-8.279	-8.081	-7.864	-6.623	-7.429	-6.606	-5.918	-4.906	-4.670	-5.533	-5.233	-5.061	-5.003	-4.686	-4.698	-3.767	-4.465	-3.733	-4.009	-3.665	-3.374	-3.262	-3.218	-3.200	-3.202	-2.682	-2.386	-2.787	-2.310	-2.277	-2.149	-2.478	-2.432	-2.295	-2.407	-2.530	-1.874	-1.556	-1.479	-2.305	-2.232	-1.845	-1.488	0.168	0.554	6.105	11.24	9.442	0.177	-3.125	-2.695	-2.923	-3.437	-3.251	-3.337	-3.022	-3.210
280.0	-173.2	-159.4	-121.1	-114.3	-81.04	-31.64	89.50	529.7	599.7	625.5	998.9	 2538	 6081	 3317	90.68	-15.15	-13.81	-12.79	-10.94	-10.52	-8.603	-9.071	-7.812	-7.306	-7.071	-6.239	-6.301	-5.647	-5.739	-5.973	-5.574	-5.628	-4.558	-4.683	-4.491	-3.850	-4.318	-3.666	-3.801	-3.474	-3.076	-3.566	-3.036	-2.911	-2.616	-3.145	-2.560	-2.592	-2.252	-2.304	-2.011	-2.544	-2.562	-2.400	-2.519	-2.546	-2.419	-1.976	-1.070	-1.265	-1.788	-1.658	-1.748	-1.327	-1.176	0.355	4.883	11.71	11.93	5.704	-1.612	-2.828	-2.998	-3.085	-3.194	-3.211	-3.395
285.0	-147.4	-90.50	-93.81	-79.46	-69.51	-2.046	110.2	483.3	 1080	 1179	 1452	 1697	 3373	 6532	670.5	20.80	-13.50	-11.28	-11.48	-10.36	-8.773	-9.549	-7.076	-6.693	-7.531	-7.487	-6.393	-6.012	-6.165	-6.405	-5.617	-5.787	-4.439	-4.559	-4.144	-3.799	-3.874	-3.398	-3.604	-3.523	-3.533	-3.763	-3.007	-2.987	-2.112	-2.483	-2.701	-2.526	-2.107	-1.856	-2.111	-2.713	-2.214	-2.645	-2.408	-2.194	-2.052	-2.068	-1.113	-0.094	-0.010	-0.972	-0.620	-0.411	-0.543	-0.232	0.993	3.148	7.767	13.72	11.25	1.411	-2.392	-3.469	-3.296	-3.012	-3.271
290.0	-45.69	21.36	-20.23	-33.54	-18.90	37.29	191.7	545.5	 1195	 1937	 2401	 2194	 1885	 2877	 4327	 2368	156.6	-10.83	-9.883	-9.238	-8.739	-8.388	-7.029	-7.221	-6.869	-6.538	-5.726	-5.431	-5.302	-5.770	-5.122	-5.273	-4.431	-4.229	-4.315	-3.637	-3.776	-3.446	-3.334	-3.669	-3.350	-3.441	-3.501	-3.080	-2.603	-2.785	-2.349	-2.339	-2.405	-1.680	-2.064	-2.355	-2.244	-2.356	-2.367	-2.414	-2.377	-1.887	-1.431	-1.072	0.230	1.000	1.145	1.281	1.109	0.857	0.778	0.682	0.632	2.813	5.652	9.920	10.21	5.735	0.150	-2.856	-3.409
295.0	36.53	115.8	43.03	31.72	32.28	111.2	288.6	643.8	 1280	 2146	 3272	 2759	 1710	979.7	 1376	 4439	 3317	194.6	-7.349	-6.642	-7.477	-8.587	-6.730	-7.342	-6.455	-6.235	-6.059	-6.037	-4.937	-5.627	-5.716	-5.235	-3.754	-4.160	-3.955	-3.777	-3.890	-3.234	-3.399	-3.498	-3.209	-3.964	-3.505	-2.683	-2.913	-2.524	-2.014	-2.513	-2.278	-1.898	-1.874	-2.361	-1.951	-2.208	-2.254	-2.407	-1.880	-1.526	-1.127	-1.114	-0.149	1.142	1.857	2.982	2.922	2.370	1.133	0.446	-0.601	-0.921	-0.707	0.270	2.772	8.803	15.63	11.86	1.010
300.0	1.616	150.2	117.2	65.76	58.94	142.0	302.6	669.1	 1265	 2114	 3159	 3193	 1794	611.2	401.9	 1682	 5280	 2552	107.2	-4.859	-7.854	-8.649	-4.087	-6.807	-6.317	-6.350	-5.808	-5.815	-4.867	-5.857	-4.827	-4.905	-3.895	-3.795	-4.288	-3.754	-3.641	-3.425	-3.978	-2.969	-2.678	-3.891	-3.112	-3.271	-2.640	-3.108	-2.329	-2.202	-2.356	-1.563	-1.638	-1.925	-1.839	-2.153	-1.929	-2.106	-1.970	-1.786	-1.076	-0.900	0.126	0.450	1.919	2.674	3.734	3.449	2.941	0.588	-0.037	-1.593	-1.815	-1.995	-1.023	0.063	6.193	16.02	19.11
305.0	41.50	126.7	130.9	120.7	92.91	152.5	300.7	658.0	 1218	 1972	 2737	 3103	 1980	535.5	210.0	437.3	 2395	 5436	 1860	44.93	-7.433	-7.381	-6.073	-7.437	-6.699	-6.197	-5.942	-5.270	-5.140	-5.855	-5.089	-3.563	-4.274	-3.713	-3.931	-3.661	-3.885	-3.527	-3.513	-3.001	-3.048	-3.553	-3.331	-3.276	-2.532	-2.546	-2.271	-1.814	-2.128	-1.555	-1.710	-1.965	-1.947	-2.314	-1.921	-2.070	-2.078	-1.983	-1.248	-0.460	-0.465	0.246	0.990	1.742	2.847	2.637	3.520	1.738	-0.476	-1.904	-2.409	-1.966	-2.299	-2.496	-0.739	3.369	12.25
310.0	-11.49	102.4	149.9	150.1	164.2	186.4	301.6	602.6	 1031	 1656	 2265	 2395	 1902	793.9	227.9	170.0	600.1	 2271	 4352	 3236	115.1	-4.802	-4.816	-5.758	-6.060	-5.987	-5.994	-6.040	-5.700	-5.523	-5.262	-4.206	-4.531	-4.365	-3.980	-3.588	-3.906	-3.766	-3.310	-3.162	-3.004	-3.634	-3.388	-3.057	-2.657	-2.717	-2.229	-2.038	-1.914	-1.558	-1.476	-2.164	-1.934	-2.031	-1.981	-2.112	-1.834	-1.511	-1.862	-1.017	-0.511	0.126	0.727	1.300	1.494	1.596	1.667	0.960	0.080	-1.125	-1.860	-2.274	-2.482	-2.449	-2.397	-1.194	0.512
315.0	-61.85	92.24	235.7	254.8	270.1	275.8	345.2	528.0	868.6	 1304	 1795	 1825	 1366	922.8	495.6	156.4	196.8	548.8	 1295	 5845	 2273	158.9	-4.566	-4.256	-5.786	-5.518	-6.325	-5.654	-5.521	-5.834	-4.952	-4.667	-4.422	-3.887	-4.354	-4.103	-3.813	-3.688	-3.462	-3.339	-3.472	-2.795	-3.149	-3.054	-2.753	-2.858	-2.503	-2.359	-1.833	-1.584	-1.686	-1.538	-1.600	-1.823	-1.923	-2.091	-1.793	-1.148	-1.648	-0.908	-0.895	-0.706	-0.127	0.960	0.996	0.361	0.411	0.408	-0.570	-0.775	-0.782	-1.607	-2.439	-2.434	-2.473	-2.700	-2.101
320.0	-45.72	242.1	526.2	508.3	408.0	429.7	494.6	607.1	857.5	 1232	 1556	 1579	 1190	773.4	762.4	305.9	146.4	189.0	325.8	 2148	 4617	 1891	91.64	-4.059	-4.240	-5.009	-6.184	-6.133	-4.859	-5.415	-4.692	-4.371	-4.414	-3.792	-3.509	-3.978	-3.700	-3.567	-3.026	-3.684	-3.387	-3.465	-3.491	-3.125	-3.124	-2.710	-2.191	-1.731	-1.333	-1.190	-1.381	-1.371	-1.315	-1.559	-1.326	-1.420	-1.410	-1.585	-1.242	-0.726	-0.791	-0.555	0.326	0.256	0.019	0.036	0.000	0.194	-0.966	-1.573	-1.555	-0.860	-1.628	-2.028	-2.544	-3.072	-2.957
325.0	-8.000	423.9	947.2	869.0	717.6	817.0	847.9	846.6	957.8	 1196	 1416	 1431	 1110	737.9	737.2	576.6	208.4	132.4	123.7	531.9	 2166	 4930	 1464	29.10	-3.929	-4.114	-5.110	-5.283	-5.382	-4.795	-4.926	-5.332	-4.544	-3.657	-4.151	-3.827	-3.206	-4.046	-3.779	-3.480	-3.328	-3.589	-3.273	-2.757	-2.704	-2.493	-1.653	-1.095	-0.993	-0.369	-1.060	-0.929	-1.110	-0.921	-0.566	-1.197	-0.857	-1.054	-0.846	-0.640	-0.403	-0.628	-0.103	0.374	0.118	-0.402	-0.303	-0.501	-1.222	-1.517	-1.521	-0.813	-0.629	-1.164	-1.933	-2.627	-2.825
330.0	58.95	591.2	 1306	 1593	 1633	 1810	 1742	 1530	 1346	 1391	 1337	 1263	 1033	739.7	568.8	571.0	439.0	192.4	108.2	170.7	542.5	 2115	 4078	 2001	89.80	-2.426	-3.977	-4.132	-4.960	-4.547	-4.488	-5.108	-4.307	-3.539	-4.101	-3.531	-3.615	-3.667	-3.247	-3.665	-3.378	-2.941	-3.417	-2.819	-2.655	-1.900	-1.501	-0.849	-0.101	0.089	0.009	0.463	0.580	0.544	1.266	0.580	0.640	0.317	0.591	0.055	0.139	0.099	-0.223	-0.048	-0.225	-0.470	-0.409	-0.796	-1.139	-1.630	-1.306	-1.693	-1.534	-1.568	-1.229	-1.851	-2.225
335.0	124.0	937.1	 2020	 2546	 3082	 3093	 3196	 2633	 2004	 1791	 1432	 1203	 1031	772.8	580.7	452.2	493.1	410.4	169.4	116.1	176.2	506.1	 1275	 3824	 1700	126.7	-4.094	-4.002	-4.681	-4.695	-3.783	-4.872	-3.859	-4.618	-3.738	-3.911	-3.655	-3.711	-3.366	-2.876	-2.883	-3.181	-3.252	-2.876	-2.409	-1.718	-0.263	-0.066	1.617	0.913	1.294	2.519	2.607	3.259	2.960	3.763	3.223	3.351	2.751	1.555	1.655	0.774	0.696	0.163	-0.167	-0.366	-0.684	-0.766	-0.835	-1.597	-1.147	-1.592	-1.417	-2.118	-2.092	-2.013	-1.086
340.0	283.5	 1182	 2734	 3421	 4184	 4388	 4509	 3546	 2678	 2160	 1520	 1183	996.4	788.0	590.6	444.1	398.9	501.4	305.8	125.1	106.0	151.8	309.4	 1502	 4315	 1510	75.70	-2.961	-3.418	-4.120	-4.081	-4.070	-4.084	-4.303	-3.494	-3.455	-3.595	-3.859	-3.544	-3.180	-3.226	-3.091	-2.785	-3.123	-2.535	-1.779	-0.532	0.480	1.632	2.846	3.313	4.263	5.500	5.164	6.407	5.873	5.911	4.525	4.245	2.831	2.673	2.254	1.314	1.119	-0.201	-0.456	-0.682	-0.685	-1.011	-0.908	-1.088	-1.598	-1.455	-2.227	-2.208	-2.259	-1.290
345.0	377.2	 1290	 3026	 4319	 5293	 5702	 5572	 4426	 3133	 2498	 1596	 1118	919.5	761.6	600.8	426.9	356.6	400.3	441.4	194.1	97.99	78.36	95.03	367.8	 2147	 4516	 1193	26.53	-2.664	-4.153	-3.459	-3.734	-4.213	-3.425	-3.579	-3.308	-3.050	-3.537	-3.297	-3.674	-2.876	-3.090	-3.101	-2.386	-2.479	-1.406	0.044	1.014	2.287	3.330	3.729	5.628	6.810	7.297	7.862	7.532	7.876	7.257	5.853	3.566	3.386	2.930	2.191	0.922	0.062	0.039	-1.045	-0.594	-0.620	-0.664	-1.638	-1.589	-1.097	-1.966	-2.168	-2.133	-1.702
350.0	471.1	 1508	 3201	 4737	 6248	 7079	 6739	 5290	 3750	 2817	 1676	 1062	846.0	724.9	576.7	424.1	357.0	324.3	366.8	335.9	156.8	72.83	56.95	105.5	523.6	 2031	 3538	 1804	78.37	-2.422	-3.524	-3.491	-4.104	-3.292	-3.843	-2.881	-2.841	-3.108	-3.347	-3.499	-3.173	-2.809	-2.860	-2.328	-1.974	-1.212	0.168	1.722	3.096	4.058	4.755	6.600	8.408	10.04	10.54	10.43	9.439	8.712	7.260	5.555	4.351	3.717	2.375	1.188	-0.128	-0.582	-1.293	-0.971	-1.110	-1.094	-1.719	-1.540	-1.321	-1.749	-1.689	-2.221	-2.173
355.0	493.9	 1572	 3486	 5220	 6837	 7874	 7449	 5803	 4147	 2960	 1715	 1010	798.8	678.4	549.6	421.2	358.3	307.6	276.6	296.9	293.6	119.8	56.32	57.92	138.7	469.5	 1166	 3708	 2840	105.5	-1.704	-2.693	-3.647	-3.844	-3.531	-2.638	-2.726	-3.534	-3.671	-3.061	-2.881	-3.171	-2.651	-2.394	-1.664	-1.292	0.321	2.010	3.397	4.388	5.786	7.451	8.596	10.81	10.97	11.65	11.45	9.648	7.628	6.390	5.589	3.364	3.037	1.512	0.919	-0.961	-1.553	-0.887	-1.638	-1.303	-1.469	-1.669	-1.442	-2.243	-1.840	-2.062	-2.241
360.0	564.0	 1637	 3744	 5268	 6875	 8101	 7562	 6107	 4321	 3089	 1732	961.0	734.8	650.2	524.6	403.4	355.8	312.8	253.9	228.9	300.3	212.1	74.95	51.71	58.77	125.3	278.8	 1565	 4528	 1311	64.93	-2.057	-3.288	-2.466	-3.522	-3.451	-2.836	-3.576	-2.840	-3.194	-3.538	-3.498	-2.889	-2.226	-2.043	-1.170	-0.039	1.329	3.084	4.421	5.588	8.580	8.817	11.45	12.08	12.36	11.12	9.837	8.431	5.963	4.990	4.298	2.648	1.583	0.245	-0.659	-0.858	-0.956	-1.206	-1.930	-1.314	-2.023	-1.240	-1.826	-1.658	-1.938	-1.846
365.0	473.9	 1768	 3356	 5274	 7090	 8129	 7699	 6039	 4280	 3037	 1704	898.4	698.2	607.9	498.1	404.4	354.4	311.1	256.2	200.5	221.6	273.9	135.3	56.76	44.57	53.52	81.42	379.9	 2296	 4594	 1072	19.52	-2.225	-2.238	-3.612	-3.343	-3.451	-3.059	-2.746	-3.324	-3.326	-2.788	-2.860	-2.191	-1.898	-1.111	0.221	1.425	3.565	3.870	5.603	8.515	9.073	11.47	12.12	12.07	11.49	10.51	8.988	6.946	4.131	4.996	2.489	1.777	0.055	-0.590	-1.066	-1.381	-1.365	-1.580	-1.723	-1.928	-1.716	-1.850	-1.834	-1.866	-1.915
370.0	426.1	 1632	 3241	 5152	 6729	 7837	 7494	 5774	 4081	 2877	 1579	826.6	636.8	556.4	476.2	389.9	339.9	308.7	252.6	194.7	162.9	196.4	218.4	118.9	56.17	44.62	42.25	102.2	561.1	 2206	 3885	 1772	58.64	-1.327	-2.233	-2.381	-3.119	-3.021	-3.298	-3.206	-2.707	-2.639	-2.524	-2.373	-1.637	-1.307	0.276	1.207	2.678	3.700	5.598	8.386	9.042	10.77	11.95	11.74	10.74	9.829	8.201	6.444	4.723	4.627	2.712	1.342	-0.342	-0.512	-1.228	-1.491	-1.554	-1.813	-1.646	-1.752	-1.903	-1.700	-2.219	-2.009	-2.101
375.0	355.2	 1419	 3149	 4615	 6348	 7165	 6981	 5441	 3684	 2651	 1453	728.9	569.5	506.6	438.1	368.2	311.7	293.0	253.0	197.0	153.6	141.3	182.1	218.1	104.4	53.80	42.44	46.35	142.7	503.6	 1364	 3994	 1176	74.88	-1.631	-2.383	-2.375	-3.057	-3.089	-3.521	-2.878	-2.549	-2.877	-2.411	-2.203	-1.778	-0.007	0.865	2.563	3.197	4.695	7.678	8.518	10.11	11.05	10.62	9.846	8.760	7.115	5.009	4.720	3.728	1.929	0.866	-0.092	-0.977	-1.362	-1.953	-1.093	-1.829	-2.299	-1.780	-2.046	-1.779	-2.376	-2.063	-2.397
380.0	350.0	 1198	 2839	 4238	 5739	 6578	 6203	 4856	 3361	 2458	 1305	654.4	521.2	461.8	396.6	342.0	307.8	289.4	250.5	187.5	152.3	129.1	141.3	204.6	178.8	75.96	48.21	38.29	51.03	125.8	322.3	 1808	 4193	 1023	37.10	-1.478	-2.167	-2.504	-2.771	-3.014	-3.091	-3.395	-2.586	-2.747	-1.794	-1.847	0.013	0.929	1.823	2.514	4.336	6.761	7.186	9.070	9.993	9.891	8.316	7.459	6.882	4.839	3.532	3.036	1.224	0.584	-1.088	-0.927	-1.547	-1.869	-1.866	-2.094	-1.837	-2.018	-2.132	-2.227	-2.189	-2.355	-2.235
385.0	302.1	 1061	 2265	 3643	 5272	 6064	 5641	 4446	 3110	 2207	 1186	599.6	463.4	424.4	381.1	319.1	298.9	277.9	234.3	197.1	154.0	129.6	123.7	151.1	219.1	133.6	57.68	41.57	36.47	46.41	86.46	442.5	 2440	 3992	749.6	8.458	-2.406	-2.399	-2.835	-2.831	-2.714	-3.207	-2.705	-2.492	-2.029	-2.016	-0.869	0.728	1.455	2.305	3.243	5.832	6.102	7.785	8.115	8.249	7.510	6.235	5.544	3.949	3.133	1.943	1.072	-0.183	-0.550	-1.053	-1.494	-1.990	-2.131	-1.847	-2.052	-2.333	-2.157	-2.228	-1.793	-2.262	-2.329
390.0	205.9	917.3	 2044	 3334	 4355	 5007	 4819	 3720	 2619	 1847	 1018	529.0	415.1	377.8	330.2	282.7	264.8	256.5	224.2	191.6	154.6	134.3	118.5	120.4	158.1	186.5	113.7	55.62	39.71	34.04	36.85	110.3	603.3	 2078	 3078	 1349	42.43	-1.299	-2.046	-2.325	-2.878	-3.087	-2.618	-2.459	-2.217	-2.040	-1.210	-0.192	1.380	1.873	2.605	4.260	5.131	6.055	6.391	6.324	6.494	5.701	4.214	3.136	2.219	1.245	0.652	-0.517	-0.936	-1.574	-1.453	-1.683	-1.956	-1.885	-2.041	-2.239	-2.490	-2.412	-2.030	-2.647	-2.300
395.0	122.5	724.2	 1593	 2700	 3644	 4258	 3827	 3018	 2167	 1503	857.0	458.0	350.5	330.6	297.2	247.0	234.1	238.7	219.0	187.1	156.6	135.8	121.4	115.7	114.5	148.7	180.9	101.1	48.14	38.15	28.47	39.33	143.6	472.1	 1222	 3419	913.1	53.50	-2.026	-1.904	-1.841	-2.780	-2.719	-2.840	-2.020	-2.189	-0.847	-0.583	0.197	1.000	2.417	3.224	3.148	4.560	5.892	4.694	4.792	4.315	2.873	1.846	1.050	1.145	0.194	-0.807	-0.939	-2.104	-1.912	-1.484	-2.206	-2.064	-2.266	-2.325	-2.504	-2.194	-2.466	-2.793	-2.404
