Sample:	'1
File name:	t2025052207 058ÏçµÀÇÅ.FD3
Run date:	'14:14:47, 05/23/2025
Operator:	Administrator
Comment:	'

Instrument
Model:	F-2700 FL Spectrophotometer
Serial number:	23B8-004
ROM Version:	4J14000 07

Instrument parameters
Measurement type:	3-D scan
Data mode:	Fluorescence
EX  Start WL:	220.0 nm
EX  End WL:	600.0 nm
EX Sampling interval:	5.0 nm
EM  Start WL:	230.0 nm
EM  End WL:	650.0 nm
EM Sampling interval:	5.0 nm
Scan speed:	12000 nm/min
EX Slit:	5.0 nm
EM Slit:	5.0 nm
PMT Voltage:	700 V
Response:	Auto 
Corrected spectra:	Off
Contour interval:	50.000

Peak integration
Integration method:	Rectangular
Sensitivity:	1
Threshold:	1.000

Peaks
No.	ApexEX/EM(nm)	Height(Data)
1	225.0/615.0	35.18
2	230.0/340.0	1217
3	230.0/610.0	34.50
4	230.0/625.0	31.96
5	235.0/595.0	35.46
6	240.0/265.0	300.6
7	240.0/385.0	1020
8	240.0/520.0	258.6
9	245.0/270.0	338.1
10	245.0/405.0	981.6
11	250.0/275.0	432.0
12	250.0/545.0	167.3
13	255.0/280.0	520.8
14	255.0/560.0	141.3
15	260.0/285.0	494.1
16	260.0/570.0	105.8
17	265.0/410.0	883.6
18	265.0/585.0	98.26
19	270.0/300.0	862.3
20	270.0/385.0	853.4
21	270.0/405.0	888.3
22	270.0/600.0	84.69
23	275.0/305.0	1174
24	275.0/610.0	87.50
25	280.0/310.0	1154
26	280.0/385.0	856.8
27	280.0/625.0	82.48
28	285.0/315.0	1121
29	285.0/635.0	60.46
30	290.0/325.0	1079
31	315.0/355.0	505.4
32	320.0/365.0	503.1
33	325.0/370.0	496.7
34	330.0/375.0	505.7
35	335.0/385.0	521.6
36	475.0/345.0	3.827
37	505.0/275.0	2.809
38	510.0/280.0	3.104
39	520.0/285.0	3.409
40	530.0/290.0	3.093
41	540.0/295.0	4.273
42	545.0/300.0	5.168
43	555.0/305.0	5.667
44	560.0/310.0	5.840
45	570.0/315.0	6.084
46	580.0/320.0	6.465
47	585.0/325.0	6.331

Data points
	220.0	225.0	230.0	235.0	240.0	245.0	250.0	255.0	260.0	265.0	270.0	275.0	280.0	285.0	290.0	295.0	300.0	305.0	310.0	315.0	320.0	325.0	330.0	335.0	340.0	345.0	350.0	355.0	360.0	365.0	370.0	375.0	380.0	385.0	390.0	395.0	400.0	405.0	410.0	415.0	420.0	425.0	430.0	435.0	440.0	445.0	450.0	455.0	460.0	465.0	470.0	475.0	480.0	485.0	490.0	495.0	500.0	505.0	510.0	515.0	520.0	525.0	530.0	535.0	540.0	545.0	550.0	555.0	560.0	565.0	570.0	575.0	580.0	585.0	590.0	595.0	600.0
230.0	31.29	282.1	695.6	241.0	16.38	6.432	4.940	4.369	3.549	3.410	3.065	2.796	2.543	2.110	1.907	1.485	1.369	1.270	1.043	0.984	0.973	0.909	0.815	0.832	0.738	0.686	0.624	0.670	0.611	0.600	0.592	0.546	0.471	0.482	0.446	0.438	0.449	0.415	0.413	0.419	0.404	0.409	0.386	0.343	0.339	0.338	0.525	1.321	2.190	1.789	0.796	0.355	0.287	0.251	0.267	0.277	0.299	0.300	0.306	0.324	0.272	0.304	0.294	0.321	0.323	0.290	0.282	0.341	0.304	0.300	0.302	0.331	0.286	0.289	0.296	0.298	0.307
235.0	40.42	101.0	525.0	857.8	353.9	27.42	5.854	4.416	3.980	3.514	3.521	2.698	2.516	2.431	1.894	1.760	1.374	1.092	1.181	0.971	0.969	1.022	0.756	0.802	0.672	0.700	0.605	0.659	0.565	0.562	0.580	0.550	0.501	0.490	0.423	0.489	0.478	0.400	0.396	0.440	0.356	0.419	0.328	0.394	0.441	0.325	0.376	0.579	1.104	1.991	3.128	3.250	1.970	0.516	0.294	0.294	0.272	0.329	0.313	0.297	0.341	0.364	0.292	0.293	0.284	0.305	0.267	0.339	0.277	0.259	0.319	0.287	0.284	0.320	0.326	0.282	0.310
240.0	69.88	73.95	175.6	868.3	1219	314.8	15.31	5.270	4.187	3.795	3.826	2.909	2.833	2.112	1.879	1.861	1.383	1.207	1.166	1.120	0.961	0.965	1.087	0.732	0.757	0.681	0.607	0.704	0.598	0.561	0.530	0.539	0.504	0.439	0.442	0.422	0.420	0.388	0.452	0.376	0.348	0.402	0.380	0.386	0.457	0.472	0.407	0.433	0.526	0.776	1.987	4.420	6.009	4.005	1.587	0.470	0.268	0.335	0.298	0.286	0.379	0.420	0.260	0.310	0.285	0.296	0.278	0.305	0.274	0.315	0.308	0.306	0.278	0.308	0.305	0.291	0.286
245.0	57.67	105.2	79.76	310.1	1354	1315	233.2	9.491	4.331	4.291	3.426	2.871	3.012	2.635	2.057	1.935	1.643	1.339	1.133	1.040	1.104	0.945	1.046	0.803	0.717	0.783	0.654	0.785	0.612	0.606	0.540	0.556	0.580	0.433	0.432	0.515	0.360	0.418	0.495	0.360	0.390	0.418	0.325	0.373	0.442	0.489	0.553	0.493	0.431	0.415	0.681	1.760	4.261	7.144	7.440	3.865	1.137	0.381	0.369	0.302	0.330	0.315	0.282	0.330	0.279	0.288	0.295	0.312	0.353	0.338	0.309	0.381	0.291	0.295	0.343	0.324	0.333
250.0	39.63	87.49	144.0	143.8	443.4	1281	1655	622.2	42.21	4.896	3.839	3.440	2.845	2.583	2.121	1.821	1.557	1.407	1.247	0.990	1.137	0.953	0.920	0.842	0.849	0.799	0.684	0.768	0.666	0.662	0.597	0.597	0.525	0.463	0.467	0.472	0.445	0.407	0.426	0.401	0.378	0.440	0.363	0.391	0.390	0.411	0.434	0.651	0.792	0.648	0.572	0.709	1.231	2.391	4.761	6.469	8.604	7.506	3.887	1.236	0.378	0.318	0.272	0.348	0.274	0.303	0.345	0.311	0.318	0.387	0.301	0.310	0.375	0.330	0.315	0.323	0.328
255.0	30.10	40.00	112.5	241.3	181.9	337.3	1234	2488	305.3	43.67	4.443	3.938	3.757	2.976	2.177	1.958	1.606	1.389	1.283	1.198	1.120	1.063	0.769	0.925	0.776	0.816	0.757	0.731	0.732	0.558	0.586	0.622	0.531	0.540	0.453	0.466	0.439	0.459	0.364	0.379	0.412	0.391	0.387	0.375	0.386	0.375	0.320	0.437	0.471	0.672	0.947	1.050	0.781	0.835	1.350	1.830	3.379	7.695	13.15	13.34	6.114	1.287	0.346	0.340	0.301	0.332	0.357	0.305	0.299	0.352	0.324	0.391	0.349	0.288	0.317	0.331	0.337
260.0	32.22	26.07	50.15	211.1	251.9	138.6	379.9	1954	2319	259.0	21.42	5.687	3.950	2.958	2.316	1.931	1.726	1.538	1.427	1.183	1.108	1.070	0.813	0.940	0.825	0.859	0.729	0.846	0.813	0.663	0.708	0.605	0.654	0.566	0.487	0.434	0.498	0.448	0.400	0.373	0.411	0.394	0.358	0.429	0.342	0.402	0.318	0.409	0.314	0.431	0.702	1.376	1.475	0.957	0.739	0.708	1.101	2.409	6.089	12.22	17.26	12.73	4.904	0.811	0.349	0.376	0.351	0.361	0.306	0.334	0.302	0.318	0.307	0.327	0.339	0.321	0.348
265.0	29.69	26.85	29.31	100.4	300.6	223.4	134.2	649.8	2577	2044	199.7	10.88	4.960	3.529	3.005	2.084	1.982	1.749	1.362	1.384	1.472	1.114	1.070	0.981	0.800	0.922	0.767	0.730	0.741	0.595	0.647	0.637	0.658	0.537	0.553	0.436	0.495	0.479	0.430	0.359	0.441	0.438	0.461	0.439	0.438	0.399	0.324	0.399	0.301	0.313	0.416	0.742	1.330	1.815	1.393	0.738	0.638	0.972	1.754	3.891	9.672	17.20	20.02	11.76	2.828	0.509	0.350	0.343	0.292	0.288	0.336	0.400	0.310	0.313	0.315	0.310	0.424
270.0	37.65	29.33	30.91	44.35	154.6	338.1	271.1	209.7	807.1	2259	2750	765.8	44.34	4.964	3.383	2.821	2.109	1.903	1.444	1.339	1.320	1.188	1.122	1.006	0.979	0.832	0.751	0.756	0.738	0.683	0.621	0.648	0.583	0.581	0.551	0.444	0.499	0.450	0.489	0.431	0.392	0.418	0.434	0.430	0.402	0.415	0.334	0.330	0.316	0.316	0.323	0.462	0.692	1.141	1.650	1.826	1.710	1.150	0.896	1.305	2.626	5.220	9.932	15.27	18.52	16.89	9.739	2.858	0.504	0.325	0.349	0.371	0.356	0.352	0.368	0.319	0.391
275.0	55.99	51.42	50.15	44.83	79.08	182.1	432.0	315.6	233.9	571.3	1857	4370	1064	41.84	4.808	3.193	2.719	1.933	1.612	1.432	1.350	1.138	1.163	1.131	0.965	0.930	0.710	0.893	0.714	0.677	0.658	0.667	0.720	0.574	0.540	0.467	0.557	0.455	0.446	0.510	0.447	0.409	0.386	0.404	0.439	0.484	0.360	0.409	0.383	0.333	0.375	0.426	0.466	0.720	0.807	1.128	2.221	2.809	2.330	1.218	1.066	1.596	2.650	3.888	5.813	12.48	23.52	27.13	14.46	3.239	0.514	0.409	0.344	0.319	0.312	0.367	0.398
280.0	75.30	78.56	84.75	65.95	74.09	113.6	286.2	520.8	231.6	183.6	542.4	2879	4428	744.3	17.86	4.603	3.430	2.352	1.816	1.568	1.272	1.156	1.204	1.166	0.954	0.889	0.772	0.919	0.759	0.691	0.691	0.694	0.657	0.601	0.550	0.503	0.597	0.484	0.482	0.473	0.411	0.446	0.443	0.422	0.529	0.489	0.462	0.451	0.421	0.446	0.446	0.486	0.477	0.591	0.675	0.805	1.190	1.939	3.104	2.825	1.589	0.985	1.089	1.381	1.807	3.442	8.463	19.18	27.93	26.39	10.64	1.810	0.398	0.456	0.330	0.341	0.341
285.0	90.27	110.5	121.9	96.40	83.23	96.22	152.8	411.0	494.1	168.8	204.8	867.3	3613	3848	122.9	8.201	4.053	2.884	1.976	1.918	1.461	1.381	1.159	1.116	1.047	0.959	0.901	0.880	0.781	0.796	0.674	0.748	0.647	0.636	0.597	0.536	0.613	0.468	0.505	0.441	0.424	0.437	0.442	0.394	0.477	0.509	0.614	0.569	0.566	0.573	0.538	0.648	0.531	0.640	0.713	0.647	0.804	1.071	1.603	3.049	3.409	2.280	1.011	0.894	0.981	1.336	2.547	5.356	11.39	23.93	30.69	21.86	7.130	0.894	0.350	0.377	0.359
290.0	114.8	155.3	168.9	138.6	110.6	108.6	124.5	207.2	453.1	462.1	216.8	322.5	1067	2795	3300	461.4	29.37	4.115	2.775	2.181	1.759	1.581	1.398	1.254	1.188	0.990	0.994	0.904	0.813	0.755	0.690	0.711	0.660	0.635	0.614	0.592	0.549	0.558	0.514	0.509	0.460	0.427	0.505	0.455	0.521	0.554	0.654	0.751	0.735	0.737	0.617	0.691	0.641	0.724	0.701	0.663	0.712	0.843	1.004	1.408	2.096	2.774	3.093	2.760	1.601	1.280	1.368	2.015	3.308	6.547	11.71	18.03	22.81	22.78	15.77	6.322	1.139
295.0	150.9	190.8	227.9	181.5	144.7	135.8	147.8	173.7	255.1	514.6	683.8	329.2	400.6	756.1	1703	3967	684.9	30.36	3.977	2.492	2.042	1.954	1.553	1.544	1.315	1.114	1.025	0.978	0.978	0.710	0.847	0.752	0.676	0.699	0.584	0.570	0.567	0.558	0.516	0.535	0.479	0.510	0.513	0.496	0.632	0.653	0.650	0.906	0.876	0.884	0.700	0.733	0.780	0.813	0.931	0.847	0.937	0.994	0.986	1.128	1.252	1.519	2.021	3.516	4.273	3.030	1.915	1.630	1.918	2.425	3.528	4.925	6.198	10.23	22.34	31.85	24.07
300.0	155.2	230.6	270.6	228.7	191.0	187.7	194.7	225.0	279.6	425.3	862.3	696.1	391.3	382.2	557.6	2436	3847	508.3	14.38	3.838	2.533	2.085	1.567	1.609	1.278	1.090	1.043	0.988	1.102	0.781	0.860	0.725	0.744	0.721	0.666	0.674	0.593	0.539	0.512	0.551	0.519	0.583	0.511	0.650	0.593	0.771	0.818	0.960	1.018	0.923	0.911	0.933	0.989	1.007	1.033	0.972	1.286	1.167	1.238	1.312	1.443	1.603	1.759	2.527	3.790	5.168	4.305	2.858	2.093	2.088	2.310	2.469	2.561	3.264	7.138	15.59	29.73
305.0	169.0	233.2	302.8	275.3	243.2	247.0	292.5	348.4	418.0	539.9	816.4	1174	721.7	462.6	407.5	824.6	3108	3324	78.36	6.956	3.164	2.460	1.886	1.693	1.404	1.341	1.143	1.044	0.858	0.781	0.877	0.770	0.707	0.689	0.635	0.674	0.578	0.506	0.513	0.591	0.540	0.619	0.476	0.558	0.700	0.694	0.775	1.138	1.097	1.029	1.028	1.171	1.175	1.160	1.313	1.165	1.400	1.599	1.743	1.988	2.185	2.334	2.515	2.949	3.355	4.371	5.447	5.667	4.367	2.999	2.620	2.592	2.402	2.511	3.083	5.033	10.14
310.0	178.3	288.4	345.3	335.7	304.3	301.0	363.2	429.9	517.1	635.7	783.7	1050	1154	737.5	480.4	445.8	1022	2412	2757	318.0	20.27	3.191	2.385	1.848	1.714	1.342	1.266	1.079	0.891	0.905	0.867	0.865	0.725	0.709	0.724	0.703	0.550	0.565	0.579	0.604	0.543	0.617	0.569	0.628	0.670	0.791	0.907	1.064	1.265	1.097	1.122	1.369	1.323	1.319	1.514	1.439	1.860	1.921	2.066	2.174	2.563	2.733	2.930	3.478	3.520	3.956	4.388	5.376	5.840	5.829	4.680	3.577	2.997	2.820	2.525	2.798	3.990
315.0	193.4	350.0	414.4	388.2	360.3	373.3	430.5	496.0	583.5	695.7	827.8	947.9	1058	1121	673.4	430.4	496.1	713.6	1442	3159	492.0	19.61	3.173	2.627	1.923	1.442	1.463	1.228	0.992	0.972	0.897	0.841	0.740	0.776	0.746	0.666	0.706	0.635	0.629	0.493	0.625	0.623	0.663	0.635	0.699	0.843	0.993	1.271	1.378	1.248	1.285	1.372	1.643	1.529	1.651	1.689	1.840	2.051	2.563	2.522	2.791	2.981	3.531	3.542	3.919	4.304	4.220	4.715	4.855	5.193	6.084	6.079	4.649	3.634	3.050	2.615	2.850
320.0	248.6	426.4	543.2	485.2	414.5	424.2	474.3	551.3	627.4	752.0	881.9	980.8	1017	1112	972.0	517.6	423.2	354.5	426.0	1952	2950	372.0	8.361	3.191	2.418	1.660	1.498	1.335	1.222	1.098	1.107	0.968	0.758	0.678	0.725	0.653	0.684	0.613	0.608	0.563	0.542	0.567	0.587	0.667	0.824	0.975	1.202	1.503	1.795	1.539	1.510	1.657	1.733	1.821	1.899	1.869	2.094	2.213	2.543	2.775	2.871	3.078	3.681	3.702	4.176	4.180	4.139	4.846	4.999	4.953	5.144	5.945	6.465	5.252	4.006	3.077	2.875
325.0	329.8	560.7	759.4	659.9	489.8	464.9	498.1	564.3	654.0	767.2	913.2	993.1	1020	994.9	1079	705.4	434.3	294.9	197.4	573.1	2409	2461	58.92	4.773	2.603	1.955	1.654	1.360	1.330	1.094	1.048	1.102	0.824	0.679	0.765	0.756	0.653	0.604	0.698	0.648	0.651	0.612	0.550	0.727	0.987	1.183	1.450	2.027	2.164	2.071	1.960	2.208	1.980	1.935	1.943	2.140	2.311	2.277	2.661	2.895	2.842	3.296	3.853	3.894	4.171	4.375	4.337	4.755	5.014	5.238	4.940	4.928	5.805	6.331	5.700	4.104	3.112
330.0	365.9	684.6	965.9	880.6	641.1	541.7	542.3	598.3	668.0	772.6	913.4	997.0	1016	954.5	909.6	846.8	596.9	326.1	186.5	223.6	700.0	1855	2149	251.3	15.99	2.964	1.997	1.570	1.507	1.220	1.164	1.055	0.942	0.869	0.795	0.694	0.668	0.669	0.665	0.586	0.660	0.662	0.616	0.808	0.995	1.267	1.807	2.349	2.842	2.839	2.543	2.797	2.619	2.391	2.313	2.224	2.429	2.584	2.860	3.065	3.081	3.239	3.645	3.976	4.175	4.341	4.488	4.695	5.014	5.201	4.761	4.686	4.879	4.946	5.181	5.049	4.820
335.0	370.9	744.2	1112	1060	801.5	648.4	578.8	617.2	688.4	777.2	901.6	995.7	1009	946.5	845.8	737.4	754.0	469.5	234.8	185.1	253.3	487.8	1245	2569	389.0	15.01	2.942	2.274	1.691	1.340	1.309	1.174	0.917	0.965	0.786	0.758	0.637	0.662	0.601	0.686	0.599	0.764	0.648	0.808	1.031	1.399	1.863	2.493	3.421	3.419	3.071	3.367	3.268	2.953	2.709	2.529	2.777	2.744	2.669	3.009	3.200	3.321	3.837	3.825	3.991	4.325	4.564	4.590	4.799	4.901	4.744	4.637	4.748	4.501	4.394	4.053	4.457
340.0	384.8	772.8	1217	1136	888.9	703.6	612.0	644.8	703.0	780.1	889.4	980.3	988.0	936.6	817.4	683.5	674.5	624.7	314.7	203.9	178.0	195.4	365.7	1739	2358	295.3	6.887	2.552	1.788	1.503	1.265	1.082	0.925	0.930	0.802	0.770	0.673	0.700	0.645	0.650	0.719	0.672	0.609	0.761	1.027	1.347	2.063	2.516	3.386	3.674	3.315	3.685	3.388	3.201	2.965	2.625	2.773	2.758	2.888	3.032	3.218	3.589	3.718	4.030	4.123	4.369	4.426	4.573	4.684	4.829	4.538	4.511	4.501	4.301	4.485	4.003	3.796
345.0	395.3	748.7	1204	1162	941.0	737.0	637.1	650.5	717.1	776.6	878.4	942.2	953.2	900.6	797.4	666.7	590.7	612.8	459.0	250.8	190.0	156.7	161.1	526.9	2093	1921	49.62	4.058	2.394	1.715	1.317	1.278	0.955	0.866	0.749	0.873	0.822	0.799	0.704	0.615	0.685	0.628	0.631	0.777	0.969	1.415	1.881	2.649	3.429	3.686	3.428	3.827	3.574	3.506	3.247	2.717	2.903	2.827	3.182	3.191	3.218	3.610	3.844	3.966	4.169	4.352	4.365	4.394	4.695	4.962	4.852	4.430	4.619	4.366	4.504	3.876	3.838
350.0	359.9	697.0	1094	1150	977.5	777.4	681.9	679.1	721.2	774.5	845.9	888.3	893.0	858.1	770.1	661.1	569.3	526.3	522.6	400.7	250.3	188.8	152.2	200.0	629.3	1570	1667	216.6	13.37	2.596	1.729	1.342	1.112	0.954	0.921	0.908	0.728	0.686	0.683	0.605	0.657	0.613	0.607	0.762	0.951	1.274	1.733	2.469	3.110	3.259	3.252	3.747	3.667	3.466	3.284	2.895	3.017	3.037	3.199	3.299	3.332	3.568	3.709	3.884	3.856	3.973	4.111	4.032	4.248	4.382	4.455	4.394	4.461	4.143	4.177	3.746	3.834
355.0	341.4	665.1	1016	1084	998.2	803.6	698.6	701.8	730.5	765.7	811.8	835.9	843.7	819.2	748.1	659.4	579.8	513.2	464.9	505.4	385.7	246.8	191.3	160.9	221.0	412.4	1080	2041	331.9	10.83	2.559	1.686	1.289	0.936	1.061	0.820	0.737	0.765	0.690	0.730	0.591	0.624	0.755	0.800	0.875	1.121	1.601	2.133	2.907	3.019	3.049	3.698	3.588	3.522	3.283	3.009	3.194	3.288	3.131	3.128	3.187	3.442	3.655	3.808	3.885	3.901	3.948	3.826	4.026	4.332	4.250	4.273	4.158	4.037	4.137	4.013	3.838
360.0	293.1	624.2	940.7	1054	978.7	811.6	734.2	729.8	744.7	768.9	801.1	809.4	814.5	798.3	733.8	663.2	593.3	528.8	464.7	477.0	495.9	327.6	227.8	178.9	153.1	161.1	315.3	1519	1889	53.12	5.366	2.303	1.412	1.193	1.041	0.898	0.795	0.825	0.683	0.655	0.732	0.677	0.684	0.766	0.923	1.214	1.482	1.978	2.678	2.804	2.922	3.407	3.695	3.787	3.497	2.996	3.302	3.312	3.222	3.195	3.388	3.607	3.534	3.803	3.816	3.703	3.832	4.006	3.826	4.258	4.142	4.200	4.065	3.951	4.223	4.044	3.987
365.0	289.0	562.1	888.6	1011	963.4	847.8	765.3	750.9	753.1	769.0	783.9	795.9	797.1	777.9	724.6	665.7	607.8	550.6	492.0	461.7	503.1	444.8	286.9	214.2	166.2	125.9	127.8	467.7	1856	1521	43.96	4.263	2.207	1.333	1.245	0.944	0.853	0.868	0.546	0.621	0.693	0.658	0.620	0.700	0.875	1.123	1.366	1.893	2.417	2.803	2.690	3.429	3.677	3.661	3.592	3.240	3.249	3.276	3.181	3.360	3.580	3.671	3.753	3.874	3.838	3.767	3.624	4.191	3.496	3.979	3.846	4.101	4.087	3.803	4.344	3.985	4.026
370.0	272.1	536.7	826.6	980.6	972.8	899.3	813.8	790.9	784.0	784.3	787.2	790.6	793.4	771.8	721.3	666.4	625.9	577.8	535.1	495.1	480.6	496.7	426.8	287.0	214.8	159.8	123.1	169.6	570.9	1409	1469	192.2	13.72	2.794	1.563	1.101	0.939	0.886	0.662	0.741	0.635	0.680	0.709	0.712	0.882	1.150	1.365	1.934	2.353	2.668	2.729	3.446	3.709	3.682	3.577	3.339	3.523	3.425	3.516	3.500	3.611	3.652	3.820	3.734	3.743	3.677	3.824	3.820	3.867	3.982	3.854	4.050	3.969	3.777	3.874	3.852	3.890
375.0	286.0	523.3	774.7	960.3	991.2	930.6	838.3	814.3	806.6	809.8	813.4	814.9	825.0	792.5	708.3	671.4	637.4	607.5	571.7	539.1	505.7	484.8	505.7	423.2	291.9	222.6	180.5	161.3	211.8	392.0	1071	1802	281.9	12.64	2.792	1.595	1.130	0.976	0.700	0.748	0.723	0.695	0.698	0.725	0.948	1.191	1.284	1.975	2.104	2.438	2.453	3.328	3.669	3.964	3.469	3.435	3.792	3.603	3.639	3.594	3.861	3.712	3.975	3.704	3.696	4.083	3.847	3.884	3.923	4.178	4.242	3.900	4.256	3.937	3.869	3.983	4.157
380.0	276.8	489.1	757.1	947.6	1019	961.3	877.4	847.3	827.8	827.6	832.1	834.8	850.3	814.2	712.6	673.0	646.0	625.5	594.3	564.2	532.8	497.6	495.8	512.6	376.1	279.8	237.0	201.1	163.6	178.9	378.9	1428	1535	45.43	5.133	1.988	1.321	0.905	0.928	0.765	0.781	0.759	0.684	0.769	0.873	1.196	1.239	1.832	2.352	2.430	2.625	3.302	3.752	4.103	3.825	3.634	3.700	3.590	3.694	3.827	3.863	3.802	3.708	4.187	3.823	4.137	3.970	3.843	3.854	4.370	4.557	3.780	4.300	4.127	3.812	3.764	3.969
385.0	265.2	504.9	764.1	934.0	1020	989.7	896.6	866.1	851.5	840.8	853.4	839.1	856.8	817.9	713.3	668.4	649.2	635.0	607.5	585.2	560.1	523.1	497.5	521.6	474.5	339.1	281.2	243.8	181.0	155.1	204.6	514.9	1533	1162	36.40	3.049	1.739	1.126	0.994	0.909	0.765	0.616	0.751	0.735	0.881	1.140	1.258	1.857	2.055	2.400	2.555	3.382	3.666	3.880	3.889	3.709	3.755	3.621	3.964	3.772	3.880	4.059	3.878	4.147	3.855	4.003	4.190	3.843	4.013	4.371	4.632	3.787	4.349	4.030	3.858	4.011	4.109
390.0	265.7	466.9	738.1	905.4	986.5	975.5	904.3	878.7	856.3	842.7	851.0	829.3	841.0	792.7	703.0	663.3	646.1	637.0	619.1	602.0	579.3	550.4	517.7	501.9	496.6	435.6	333.7	272.2	204.9	166.1	167.9	214.7	481.3	1071	1145	150.2	8.800	1.642	1.221	0.920	0.754	0.726	0.762	0.767	0.880	1.165	1.357	1.763	2.063	2.394	2.494	3.210	3.562	3.809	3.864	3.496	3.790	3.926	3.931	4.060	3.790	3.968	3.938	4.018	3.937	4.169	4.048	3.891	4.079	4.304	4.143	4.021	4.107	4.135	3.796	3.949	4.028
395.0	254.6	462.5	716.8	895.5	970.5	966.8	911.7	889.2	875.5	852.3	851.3	831.5	835.5	779.2	692.0	661.1	641.1	628.3	621.4	607.2	593.0	568.0	541.3	515.9	484.5	477.1	425.5	322.1	243.0	196.9	181.1	165.0	167.3	279.0	784.6	1268	224.1	7.254	1.853	1.063	0.862	0.817	0.744	0.728	0.979	1.079	1.402	1.664	2.111	2.321	2.361	3.198	3.438	3.862	3.942	3.533	4.007	3.889	4.050	4.034	3.955	4.152	4.018	3.903	4.078	4.168	3.888	4.083	3.724	4.129	4.235	3.966	4.131	3.887	3.978	3.957	3.883
400.0	254.1	465.6	697.6	869.9	955.6	976.6	919.0	893.8	875.7	872.0	871.2	841.4	838.9	778.7	691.0	647.0	634.0	622.5	620.5	613.5	601.3	584.2	557.2	535.4	494.2	471.7	483.4	390.0	281.2	232.2	211.9	177.3	111.7	102.2	227.0	952.9	1118	37.75	3.762	1.551	1.006	0.919	0.838	0.861	1.159	1.073	1.191	1.704	2.121	2.197	2.398	3.295	3.643	3.754	3.927	3.923	4.059	4.061	4.131	3.955	3.826	3.927	4.051	3.952	4.102	3.951	3.887	3.884	4.009	3.890	4.380	3.963	3.874	3.902	3.657	3.922	4.166
405.0	234.0	449.6	684.3	878.3	938.2	981.6	929.5	901.4	895.2	877.4	888.3	855.1	838.1	776.3	681.1	642.5	627.2	614.3	619.3	610.6	602.5	583.2	566.6	555.3	506.9	472.2	478.8	454.6	326.7	261.2	236.5	195.7	115.2	75.40	82.62	289.9	1051	868.7	31.31	2.583	1.276	0.866	0.759	0.988	1.178	1.089	1.171	1.612	2.015	2.325	2.306	3.216	3.530	3.613	3.986	4.059	3.990	4.182	4.075	4.023	3.817	4.054	3.881	4.162	4.180	4.055	3.978	4.111	3.991	4.078	4.205	3.862	3.648	3.900	3.656	3.899	4.029
410.0	242.1	438.3	655.6	842.8	923.8	943.0	928.7	899.8	876.0	883.6	876.2	838.9	814.8	747.3	667.0	625.2	606.2	596.3	594.6	590.8	588.8	579.2	565.2	554.0	515.1	475.7	456.5	449.1	387.0	298.4	250.7	201.6	126.1	81.39	60.53	93.41	310.8	767.4	799.7	139.6	7.727	1.398	0.974	1.000	1.056	1.065	1.280	1.627	1.922	2.228	2.287	3.095	3.576	3.577	3.784	3.625	3.816	3.878	4.030	3.928	4.034	4.012	3.921	3.855	3.986	3.828	3.902	3.940	3.816	4.153	3.936	3.688	3.926	3.776	3.665	3.733	3.773
415.0	237.1	404.0	629.4	785.4	887.3	903.1	901.8	891.0	878.4	863.2	849.1	817.8	774.3	717.8	643.9	602.5	577.1	570.5	568.3	566.7	566.1	564.0	554.5	537.9	516.7	476.8	446.6	417.1	395.7	347.1	269.4	209.2	139.7	97.05	69.00	58.83	94.77	194.0	507.6	924.2	201.3	6.611	1.522	1.143	1.078	1.157	1.304	1.501	1.685	2.143	2.239	2.926	3.239	3.600	3.723	3.371	3.803	3.671	3.689	4.040	4.048	4.052	3.946	3.904	3.687	3.924	3.946	3.753	3.520	4.003	4.003	3.595	3.747	3.607	3.607	3.456	3.822
