Sample:	'1
File name:	F2025070421兴忠循环回用水.FD3
Run date:	'11:17:52, 07/11/2025
Operator:	Administrator
Comment:	'

Instrument
Model:	F-2700 FL Spectrophotometer
Serial number:	23B8-004
ROM Version:	4J14000 07

Instrument parameters
Measurement type:	3-D scan
Data mode:	Fluorescence
EX  Start WL:	220.0 nm
EX  End WL:	600.0 nm
EX Sampling interval:	5.0 nm
EM  Start WL:	230.0 nm
EM  End WL:	650.0 nm
EM Sampling interval:	5.0 nm
Scan speed:	12000 nm/min
EX Slit:	5.0 nm
EM Slit:	5.0 nm
PMT Voltage:	700 V
Response:	Auto 
Corrected spectra:	Off
Contour interval:	50.000

Peak integration
Integration method:	Rectangular
Sensitivity:	1
Threshold:	1.000

Peaks
No.	ApexEX/EM(nm)	Height(Data)
1	225.0/565.0	31.83
2	225.0/600.0	31.24
3	225.0/625.0	31.65
4	230.0/560.0	32.02
5	230.0/575.0	32.21
6	230.0/615.0	31.07
7	230.0/640.0	35.05
8	235.0/515.0	189.3
9	240.0/265.0	423.0
10	240.0/355.0	2044
11	240.0/525.0	198.8
12	245.0/270.0	438.5
13	245.0/535.0	179.1
14	250.0/275.0	576.8
15	250.0/550.0	152.1
16	255.0/280.0	649.2
17	255.0/560.0	135.3
18	260.0/290.0	671.7
19	260.0/575.0	119.3
20	265.0/295.0	847.1
21	265.0/365.0	1744
22	265.0/585.0	116.1
23	270.0/600.0	105.2
24	275.0/325.0	1772
25	275.0/615.0	114.4
26	280.0/315.0	1816
27	280.0/625.0	113.2
28	285.0/320.0	1819
29	285.0/635.0	90.07
30	330.0/375.0	481.4
31	335.0/380.0	479.7
32	345.0/395.0	334.0
33	350.0/400.0	328.9
34	365.0/420.0	210.4
35	380.0/440.0	133.7
36	395.0/460.0	77.19
37	400.0/465.0	66.34
38	410.0/480.0	42.44
39	415.0/485.0	36.66
40	425.0/500.0	26.25
41	430.0/505.0	22.17
42	440.0/520.0	15.34
43	455.0/540.0	9.202
44	470.0/560.0	4.423
45	480.0/355.0	8.166
46	485.0/265.0	2.566
47	485.0/360.0	8.148
48	485.0/580.0	2.256
49	495.0/270.0	2.439
50	505.0/275.0	3.691
51	510.0/280.0	4.142
52	520.0/285.0	4.324
53	530.0/290.0	3.845
54	540.0/295.0	5.191
55	560.0/310.0	8.073
56	570.0/315.0	9.003
57	580.0/320.0	8.338
58	585.0/325.0	8.286

Data points
	220.0	225.0	230.0	235.0	240.0	245.0	250.0	255.0	260.0	265.0	270.0	275.0	280.0	285.0	290.0	295.0	300.0	305.0	310.0	315.0	320.0	325.0	330.0	335.0	340.0	345.0	350.0	355.0	360.0	365.0	370.0	375.0	380.0	385.0	390.0	395.0	400.0	405.0	410.0	415.0	420.0	425.0	430.0	435.0	440.0	445.0	450.0	455.0	460.0	465.0	470.0	475.0	480.0	485.0	490.0	495.0	500.0	505.0	510.0	515.0	520.0	525.0	530.0	535.0	540.0	545.0	550.0	555.0	560.0	565.0	570.0	575.0	580.0	585.0	590.0	595.0	600.0
230.0	32.48	739.8	1740	521.2	22.99	5.253	5.116	4.549	3.803	3.404	3.423	3.011	2.473	2.242	1.855	1.633	1.450	1.192	1.189	0.888	0.882	0.779	0.698	0.683	0.629	0.591	0.533	0.511	0.425	0.453	0.455	0.366	0.382	0.345	0.331	0.344	0.325	0.322	0.300	0.316	0.304	0.283	0.320	0.255	0.239	0.252	0.949	3.674	5.730	4.151	1.632	0.400	0.203	0.234	0.216	0.205	0.187	0.241	0.234	0.223	0.198	0.220	0.196	0.224	0.207	0.236	0.185	0.215	0.202	0.200	0.230	0.215	0.234	0.213	0.217	0.228	0.223
235.0	37.04	224.0	1295	3061	497.6	32.23	6.598	4.900	4.844	4.224	3.915	3.805	2.338	2.151	1.825	1.590	1.427	1.293	1.025	0.961	0.833	0.842	0.727	0.783	0.635	0.617	0.635	0.535	0.484	0.515	0.431	0.352	0.378	0.401	0.364	0.361	0.298	0.327	0.333	0.315	0.306	0.284	0.276	0.326	0.305	0.292	0.442	1.141	2.597	5.284	7.888	7.975	3.344	0.696	0.217	0.195	0.208	0.231	0.215	0.210	0.177	0.262	0.235	0.220	0.215	0.246	0.216	0.191	0.214	0.207	0.201	0.209	0.247	0.229	0.217	0.237	0.246
240.0	61.91	91.82	418.9	3306	2663	390.0	20.10	6.394	5.358	4.192	3.768	3.433	2.675	2.551	1.825	1.990	1.647	1.296	1.145	0.850	0.921	0.765	0.683	0.681	0.679	0.638	0.570	0.498	0.486	0.441	0.469	0.372	0.422	0.317	0.391	0.381	0.258	0.327	0.440	0.294	0.283	0.221	0.273	0.276	0.383	0.412	0.343	0.477	0.808	1.801	5.103	12.14	12.92	8.295	2.803	0.527	0.214	0.237	0.249	0.219	0.189	0.261	0.222	0.227	0.210	0.245	0.199	0.168	0.246	0.236	0.221	0.201	0.219	0.183	0.236	0.254	0.227
245.0	63.36	100.7	147.3	1224	3246	2732	278.8	8.882	6.043	4.836	4.500	4.681	3.106	2.376	2.049	1.987	1.607	1.274	1.415	1.000	0.932	0.699	0.739	0.652	0.639	0.570	0.573	0.508	0.620	0.555	0.500	0.391	0.435	0.385	0.383	0.346	0.318	0.345	0.331	0.335	0.244	0.302	0.350	0.260	0.310	0.396	0.524	0.501	0.372	0.624	1.420	4.527	10.85	17.39	15.84	7.420	1.794	0.311	0.248	0.300	0.224	0.224	0.199	0.204	0.230	0.202	0.263	0.205	0.213	0.229	0.262	0.178	0.232	0.217	0.246	0.231	0.200
250.0	34.55	93.08	193.7	362.5	1110	3091	3513	1013	49.84	6.736	5.249	4.799	4.043	2.789	2.196	1.984	1.759	1.537	1.172	1.215	0.894	0.885	0.730	0.670	0.688	0.626	0.572	0.559	0.536	0.499	0.458	0.388	0.394	0.386	0.413	0.356	0.315	0.305	0.302	0.305	0.278	0.281	0.335	0.278	0.274	0.285	0.394	0.638	0.856	0.810	0.775	1.316	2.879	6.155	11.14	16.05	19.32	15.92	7.699	1.878	0.325	0.243	0.236	0.203	0.237	0.220	0.246	0.262	0.225	0.222	0.272	0.234	0.223	0.236	0.243	0.245	0.209
255.0	26.81	39.64	159.5	355.2	334.9	820.3	3170	5327	1323	40.57	7.432	5.916	4.317	3.435	2.992	2.284	1.750	1.640	1.179	1.126	1.039	0.864	0.819	0.809	0.630	0.768	0.580	0.601	0.604	0.502	0.517	0.427	0.429	0.491	0.388	0.333	0.354	0.287	0.257	0.290	0.292	0.343	0.318	0.318	0.316	0.304	0.289	0.339	0.497	0.964	1.477	1.482	1.134	1.716	2.745	4.249	8.738	19.74	30.23	24.93	11.16	1.892	0.329	0.273	0.325	0.242	0.232	0.223	0.231	0.228	0.245	0.274	0.228	0.208	0.257	0.249	0.286
260.0	23.08	20.90	64.75	319.1	330.9	240.4	1005	4857	5385	264.4	20.04	6.580	5.259	4.325	3.272	2.572	2.206	1.958	1.305	1.415	0.940	0.983	0.921	0.853	0.671	0.780	0.632	0.517	0.598	0.499	0.519	0.499	0.452	0.445	0.391	0.359	0.328	0.327	0.298	0.300	0.364	0.359	0.279	0.326	0.259	0.280	0.241	0.276	0.315	0.480	1.010	2.008	2.062	1.236	0.950	1.300	2.280	5.814	15.14	29.27	33.40	22.36	7.367	0.977	0.351	0.297	0.279	0.253	0.230	0.248	0.243	0.236	0.253	0.220	0.245	0.207	0.265
265.0	27.95	20.35	27.18	149.1	423.0	252.9	266.3	1731	6403	4749	199.5	10.47	5.837	4.959	3.326	2.725	2.420	2.100	1.640	1.319	1.161	0.934	0.947	0.914	0.725	0.759	0.665	0.575	0.606	0.454	0.608	0.554	0.458	0.453	0.416	0.389	0.328	0.405	0.332	0.297	0.301	0.331	0.330	0.327	0.327	0.295	0.235	0.257	0.230	0.340	0.450	1.122	2.189	2.566	1.479	0.769	0.883	1.673	3.837	9.270	21.85	38.38	31.78	18.10	3.641	0.466	0.282	0.340	0.276	0.283	0.230	0.277	0.225	0.279	0.254	0.240	0.304
270.0	29.86	28.88	22.61	53.80	212.2	438.5	299.1	443.2	2139	5613	4923	797.6	37.48	6.658	4.384	3.642	2.702	2.239	1.813	1.443	1.281	1.182	0.963	0.937	0.886	0.786	0.621	0.708	0.673	0.539	0.555	0.612	0.489	0.468	0.457	0.411	0.379	0.416	0.302	0.377	0.308	0.342	0.382	0.279	0.318	0.284	0.284	0.310	0.291	0.274	0.295	0.444	0.843	1.458	2.280	2.439	2.166	1.319	1.230	2.409	5.436	11.92	19.64	30.48	32.02	28.17	12.81	3.218	0.473	0.281	0.279	0.269	0.262	0.275	0.295	0.212	0.284
275.0	44.76	39.78	35.99	36.81	70.97	218.6	576.8	353.8	531.9	1461	4964	8101	1057	28.84	6.682	4.476	3.369	2.615	2.153	1.623	1.394	1.273	1.013	1.170	0.879	0.758	0.817	0.736	0.688	0.578	0.587	0.577	0.476	0.446	0.416	0.551	0.405	0.384	0.303	0.398	0.416	0.384	0.382	0.339	0.380	0.417	0.341	0.399	0.318	0.305	0.283	0.362	0.387	0.682	0.852	1.400	2.973	3.691	2.338	1.170	1.561	3.028	4.794	7.413	11.04	25.07	44.30	32.10	18.60	3.182	0.470	0.310	0.281	0.292	0.265	0.268	0.275
280.0	68.93	75.93	64.79	45.72	46.61	91.43	391.9	649.2	277.6	398.6	1548	7405	7075	156.0	14.00	5.646	4.203	3.418	2.534	1.834	1.538	1.460	1.136	1.179	0.941	1.003	0.848	0.776	0.671	0.656	0.497	0.546	0.512	0.463	0.508	0.606	0.529	0.410	0.379	0.447	0.435	0.303	0.392	0.361	0.421	0.463	0.440	0.469	0.407	0.379	0.263	0.350	0.371	0.429	0.458	0.646	1.327	2.750	4.142	3.176	1.597	1.156	1.610	2.200	3.066	6.819	17.66	35.49	50.49	29.28	11.40	1.405	0.331	0.332	0.317	0.276	0.288
285.0	87.37	112.5	106.6	76.93	49.78	58.36	171.8	622.4	555.0	224.0	469.0	2563	8694	5151	113.9	8.674	4.999	3.983	2.763	2.208	1.749	1.436	1.262	1.153	0.931	0.992	0.815	0.688	0.658	0.693	0.659	0.607	0.563	0.563	0.665	0.564	0.555	0.481	0.354	0.463	0.389	0.341	0.398	0.375	0.409	0.539	0.573	0.592	0.617	0.513	0.484	0.459	0.440	0.431	0.396	0.491	0.698	1.109	2.320	4.010	4.324	2.193	1.199	1.086	1.420	2.143	4.636	10.19	24.18	43.11	35.97	23.30	5.938	0.597	0.336	0.352	0.318
290.0	111.8	167.6	186.9	136.3	83.09	72.34	105.1	286.5	671.7	570.2	347.9	760.8	2862	6361	5510	447.2	21.71	5.488	3.417	2.709	2.017	1.579	1.352	1.136	1.066	0.993	0.871	0.896	0.687	0.770	0.724	0.677	0.591	0.570	0.644	0.551	0.525	0.447	0.391	0.458	0.357	0.410	0.403	0.425	0.459	0.651	0.690	0.792	0.746	0.696	0.645	0.565	0.551	0.533	0.520	0.557	0.612	0.739	1.117	1.766	3.062	3.640	3.845	2.920	1.700	1.549	1.996	3.264	6.332	12.38	19.37	31.31	32.28	31.28	15.16	4.715	0.569
295.0	163.0	223.9	271.4	195.3	123.1	103.1	122.5	190.0	349.5	847.1	785.2	465.8	842.5	1677	4923	6489	592.4	17.39	5.163	3.466	2.448	1.815	1.674	1.533	1.141	1.106	0.909	0.890	0.738	0.784	0.757	0.704	0.681	0.661	0.613	0.529	0.548	0.462	0.482	0.433	0.410	0.404	0.402	0.432	0.492	0.637	0.740	0.960	1.005	0.866	0.781	0.738	0.723	0.699	0.604	0.708	0.691	0.855	0.905	1.057	1.384	1.793	2.923	4.656	5.191	3.368	2.014	1.935	2.540	3.871	5.207	7.645	9.760	21.50	39.33	35.29	22.25
300.0	146.1	253.9	310.9	237.8	156.7	137.1	152.7	202.4	297.3	605.5	1174	699.2	485.2	556.7	1520	6286	5253	90.04	10.81	4.245	3.272	2.317	2.052	1.736	1.389	1.177	1.029	0.918	0.705	0.896	0.763	0.813	0.602	0.621	0.607	0.505	0.559	0.525	0.487	0.464	0.457	0.381	0.436	0.468	0.533	0.685	0.776	1.047	1.082	0.964	0.980	1.011	0.870	0.762	0.739	0.799	0.971	1.004	0.981	1.267	1.232	1.553	2.074	2.993	5.140	6.089	4.570	2.526	2.297	2.287	2.375	2.741	3.097	5.898	13.56	29.12	47.87
305.0	167.9	280.5	350.9	277.0	202.9	183.4	232.8	315.0	361.3	640.6	1160	1362	738.2	503.5	621.4	2255	7053	3919	70.39	7.736	4.064	2.960	2.346	2.048	1.473	1.466	0.927	1.136	0.778	0.937	0.683	0.867	0.662	0.697	0.614	0.600	0.535	0.592	0.575	0.415	0.512	0.450	0.532	0.515	0.578	0.639	0.937	1.081	1.261	1.077	1.190	1.235	1.084	0.936	0.985	0.967	1.120	1.269	1.441	1.791	1.931	1.984	2.654	3.022	3.917	5.314	7.113	6.217	4.274	3.152	2.820	2.364	2.285	2.820	4.436	8.717	20.12
310.0	199.1	326.8	436.1	385.8	307.4	297.5	370.8	507.9	687.9	948.6	1260	1679	1593	942.0	713.9	943.3	2539	5133	4284	305.0	16.79	4.145	2.885	2.223	1.706	1.465	1.200	1.201	1.076	1.035	0.872	0.944	0.746	0.837	0.665	0.650	0.498	0.576	0.569	0.526	0.531	0.498	0.538	0.544	0.689	0.768	0.998	1.283	1.477	1.367	1.461	1.490	1.408	1.307	1.264	1.406	1.697	2.033	2.144	2.748	3.047	3.496	3.931	4.408	4.884	5.380	6.459	7.528	8.073	7.353	5.632	4.068	3.655	3.392	3.665	4.387	6.682
315.0	224.3	377.7	523.8	486.3	411.6	386.2	473.0	642.4	878.7	1159	1412	1626	1816	1604	969.3	791.3	1037	1590	3802	4628	425.4	12.26	3.965	3.007	2.139	2.029	1.718	1.465	1.140	0.987	0.963	1.096	0.906	0.737	0.711	0.675	0.633	0.637	0.589	0.630	0.539	0.500	0.557	0.644	0.709	0.945	1.045	1.599	1.575	1.731	1.759	2.162	1.895	1.782	1.817	1.789	2.199	2.346	2.794	3.459	3.716	4.424	4.627	5.414	5.498	6.062	6.487	6.907	7.150	7.991	9.003	7.887	5.672	4.468	4.392	4.088	4.285
320.0	242.7	434.4	627.3	582.8	505.3	457.5	536.1	733.1	987.0	1287	1525	1703	1751	1819	1240	861.4	776.9	766.7	1229	4518	3885	65.93	7.951	3.884	2.640	2.237	1.712	1.500	1.291	1.182	1.074	1.174	0.953	0.861	0.650	0.639	0.587	0.680	0.628	0.604	0.563	0.629	0.533	0.635	0.738	0.935	1.123	1.557	1.833	1.959	2.113	2.400	2.266	2.121	2.131	2.269	2.428	2.591	3.032	3.729	4.090	4.790	5.470	5.894	6.156	6.554	6.888	7.108	7.577	7.694	7.915	8.274	8.338	6.830	5.455	4.484	3.995
325.0	278.1	512.3	763.2	767.7	595.9	533.2	593.9	788.2	1039	1350	1565	1772	1754	1665	1611	1036	760.8	623.0	505.7	1505	4931	2979	52.81	5.793	3.489	2.726	1.784	1.434	1.359	1.224	1.094	1.192	1.038	0.850	0.732	0.705	0.661	0.693	0.596	0.588	0.590	0.663	0.667	0.714	0.699	1.073	1.356	1.869	2.449	2.366	2.560	2.989	2.581	2.411	2.365	2.405	2.789	2.987	3.405	3.604	4.557	4.872	5.730	5.926	6.379	6.732	7.121	7.416	7.495	7.705	7.553	7.547	7.956	8.286	7.321	5.533	4.581
330.0	328.6	642.6	1031	1139	864.8	672.7	665.5	828.4	1052	1326	1552	1735	1735	1565	1472	1324	918.1	628.8	396.1	483.8	1569	3487	3197	242.5	14.42	3.632	2.532	1.953	1.572	1.462	1.216	1.147	0.971	0.922	0.800	0.671	0.698	0.780	0.608	0.619	0.555	0.613	0.680	0.765	0.838	1.189	1.663	2.393	3.203	3.349	3.669	4.101	3.811	3.302	2.933	2.730	3.009	3.141	3.389	4.113	4.424	4.791	5.473	6.199	6.433	6.690	7.145	7.550	7.519	7.703	7.341	7.157	6.852	7.081	7.418	7.261	6.125
335.0	366.0	738.6	1273	1518	1310	929.3	772.3	854.5	1058	1297	1502	1651	1673	1518	1330	1212	1163	739.5	413.3	303.7	475.1	908.8	2631	3648	365.2	12.55	3.389	2.429	1.846	1.752	1.547	1.103	1.107	1.039	0.899	0.797	0.725	0.737	0.589	0.687	0.626	0.681	0.773	0.781	0.878	1.362	1.691	2.607	3.867	4.466	4.889	5.800	5.690	4.887	4.237	3.517	3.358	3.448	3.668	4.350	4.411	4.859	5.407	5.915	6.234	6.276	6.597	6.909	7.223	7.294	7.024	6.877	6.780	6.438	6.121	6.069	6.486
340.0	360.4	779.5	1378	1754	1617	1146	871.3	902.2	1078	1294	1444	1587	1603	1479	1288	1105	1098	921.1	471.3	292.6	263.2	315.6	786.4	3305	3182	57.12	7.084	2.967	2.152	1.984	1.559	1.199	1.277	1.015	0.870	0.805	0.583	0.704	0.642	0.691	0.593	0.728	0.702	0.840	0.993	1.272	1.983	2.873	4.138	4.747	5.384	6.764	6.801	6.056	5.025	4.109	4.119	3.946	3.847	4.371	4.625	5.120	5.236	5.830	6.039	6.108	6.377	6.853	7.023	7.159	6.863	6.676	6.454	6.461	5.850	5.732	5.355
345.0	363.2	804.0	1453	1875	1820	1303	974.8	957.3	1098	1279	1396	1511	1523	1429	1254	1055	948.0	958.2	623.8	327.9	245.5	212.3	275.5	1065	3628	2518	47.72	4.516	2.581	2.314	1.870	1.449	1.291	1.067	0.819	0.886	0.764	0.716	0.677	0.579	0.579	0.604	0.781	0.823	0.961	1.228	1.901	2.943	4.148	4.941	5.600	7.340	7.162	6.768	5.813	4.794	4.365	4.171	4.257	4.302	4.655	4.912	5.424	5.750	6.000	5.729	5.605	6.233	6.360	6.630	6.675	6.221	6.317	5.931	5.783	5.258	4.914
350.0	353.8	775.0	1440	1927	1944	1504	1137	1072	1180	1324	1415	1445	1429	1346	1198	1025	872.8	811.6	740.4	499.9	306.5	234.0	204.8	339.9	1125	2553	2435	217.8	14.10	2.874	2.056	1.637	1.253	1.130	0.939	0.922	0.787	0.748	0.666	0.646	0.600	0.588	0.712	0.742	0.932	1.235	1.868	2.867	4.263	4.740	5.938	7.419	7.817	7.484	6.537	5.771	4.828	4.880	4.622	4.848	4.951	5.157	5.405	6.122	6.068	6.121	5.846	5.876	6.237	6.220	6.146	6.136	6.077	5.694	5.626	5.214	4.929
355.0	336.7	724.9	1394	1932	2044	1695	1370	1315	1404	1488	1480	1445	1386	1298	1170	1017	885.9	760.9	661.9	650.8	458.3	288.1	227.2	211.9	341.1	650.5	1737	2971	348.5	13.88	2.656	1.914	1.541	1.232	0.953	1.079	0.748	0.808	0.642	0.643	0.715	0.631	0.673	0.702	0.851	1.291	1.626	2.814	3.666	4.568	5.970	7.249	8.166	7.998	7.454	6.616	6.001	6.055	5.719	5.793	6.150	5.993	6.527	6.838	6.499	6.343	6.023	6.105	6.116	5.958	5.959	6.174	5.801	5.716	5.365	5.113	5.188
360.0	331.9	704.8	1332	1872	2026	1809	1530	1501	1603	1661	1584	1472	1380	1280	1163	1012	892.4	765.4	645.3	613.2	597.9	367.6	255.5	203.5	185.7	215.9	491.8	2248	2690	277.9	6.519	2.564	1.947	1.446	1.075	1.020	0.805	0.878	0.642	0.687	0.713	0.638	0.743	0.775	0.859	1.270	1.657	2.516	3.597	4.499	5.784	7.419	7.965	8.148	7.285	7.176	7.101	6.563	6.714	6.736	6.884	6.760	7.277	7.372	6.914	6.476	6.463	6.194	6.067	5.913	6.060	6.004	5.562	5.756	5.611	5.106	5.347
365.0	318.1	661.4	1259	1804	2000	1816	1608	1599	1699	1744	1637	1476	1358	1239	1127	988.2	885.4	775.5	652.1	566.2	592.8	494.7	296.4	218.1	167.1	134.3	167.1	669.5	2591	2260	47.48	4.249	2.503	1.749	1.243	1.074	0.863	0.879	0.676	0.669	0.673	0.779	0.683	0.725	0.908	1.277	1.548	2.526	3.406	4.359	5.239	7.047	7.949	8.146	7.491	7.122	7.121	7.023	6.865	7.128	7.360	7.449	7.806	7.644	7.184	6.788	6.311	6.052	6.086	5.550	5.908	6.020	5.175	5.530	5.239	5.163	5.069
370.0	303.0	624.5	1138	1636	1880	1796	1613	1591	1685	1708	1594	1423	1287	1163	1060	944.7	853.1	760.1	653.4	555.6	508.9	519.8	422.1	268.1	186.8	138.5	112.7	203.2	753.9	1948	2068	202.0	13.98	2.430	1.615	1.216	0.919	0.955	0.720	0.712	0.672	0.681	0.690	0.758	0.980	1.238	1.498	2.259	3.194	3.867	4.989	6.758	7.288	7.570	7.447	7.021	7.033	6.806	6.988	7.052	7.161	7.473	7.520	7.437	6.861	6.720	6.113	5.806	5.686	5.450	5.539	5.271	5.070	5.429	4.779	4.853	4.884
375.0	291.4	550.0	1034	1518	1768	1729	1591	1571	1651	1668	1540	1376	1225	1093	989.9	887.6	808.9	740.3	648.2	552.7	487.2	451.6	481.4	394.4	241.6	178.7	141.5	129.1	218.4	482.0	1288	2400	318.2	13.89	2.483	1.361	1.093	0.993	0.831	0.743	0.874	0.672	0.658	0.781	0.849	1.110	1.289	2.162	2.881	3.485	4.566	6.143	6.958	7.019	6.905	6.797	7.306	6.944	6.592	6.876	6.980	7.083	7.388	7.368	7.014	6.141	6.065	5.687	5.485	5.043	5.028	4.817	4.912	4.995	4.743	4.580	4.711
380.0	270.7	519.1	959.5	1387	1661	1675	1547	1553	1628	1638	1512	1351	1200	1041	927.5	844.8	770.2	713.7	642.0	555.6	487.2	439.5	445.1	479.7	329.5	226.8	187.5	143.8	134.1	156.3	356.9	1684	2179	245.2	6.170	1.823	1.491	1.116	0.830	0.732	0.694	0.747	0.688	0.764	0.798	1.006	1.225	2.089	2.734	3.343	4.176	5.592	6.218	6.651	6.558	6.449	6.694	6.436	6.445	6.947	7.011	6.857	7.018	7.172	6.812	5.947	5.769	5.671	5.282	5.098	4.891	4.882	4.791	4.482	4.770	4.268	4.533
385.0	225.8	481.9	893.1	1263	1533	1575	1469	1468	1549	1536	1424	1269	1142	987.0	870.6	793.1	731.2	682.2	614.5	542.7	478.1	432.4	404.7	438.1	410.8	264.4	205.6	157.9	126.2	99.91	121.1	488.3	1917	1780	39.33	3.266	1.723	1.379	0.880	0.728	0.706	0.735	0.725	0.816	0.801	1.082	1.223	1.836	2.559	3.165	3.830	5.084	6.014	6.339	6.426	6.281	6.706	6.491	6.396	6.633	6.554	6.220	6.323	6.428	6.424	5.794	5.483	5.436	5.058	4.908	4.793	4.737	4.583	4.180	4.153	4.044	4.179
390.0	210.9	430.8	778.1	1125	1366	1411	1340	1324	1364	1364	1251	1122	1015	888.5	785.4	715.8	662.3	620.9	567.6	510.3	456.3	409.5	374.6	361.4	378.3	332.3	223.9	161.9	126.8	95.00	73.96	141.2	540.8	1404	1534	163.9	11.39	1.725	1.177	0.959	0.783	0.756	0.700	0.717	0.718	0.941	1.173	1.703	2.253	2.820	3.306	4.761	5.373	5.786	5.729	5.669	6.098	5.625	5.771	5.776	5.939	6.080	6.088	6.024	5.506	5.400	4.781	4.654	4.608	4.496	3.966	3.979	4.081	3.999	3.758	3.679	3.776
395.0	193.3	380.0	673.3	981.0	1199	1273	1218	1202	1203	1193	1098	994.8	901.4	790.9	707.9	640.2	604.0	569.9	526.3	473.7	430.0	394.3	363.3	331.8	314.1	334.0	297.0	186.2	132.8	99.80	69.65	68.19	146.6	339.4	897.6	1738	263.4	10.86	1.676	1.219	0.909	0.720	0.768	0.742	0.689	0.878	1.099	1.587	1.979	2.509	2.925	4.100	4.924	5.127	5.279	5.053	5.375	5.148	5.022	5.217	5.318	5.211	5.499	5.241	5.132	4.610	4.379	4.007	4.089	4.236	3.515	3.588	3.560	3.495	3.442	3.023	3.431
400.0	187.9	341.9	607.5	900.8	1118	1158	1111	1097	1107	1085	1015	912.1	829.9	718.3	649.9	591.1	557.7	526.3	492.6	448.2	410.5	385.0	357.4	324.8	297.4	290.4	328.9	234.5	147.7	107.6	75.94	60.03	64.57	95.22	236.9	1176	1562	202.6	4.592	1.480	0.966	0.825	0.728	0.703	0.784	0.860	1.051	1.573	1.821	2.332	2.605	3.768	4.105	4.781	4.759	4.754	4.902	4.760	4.744	4.795	5.162	4.774	4.933	4.561	4.603	4.179	3.813	3.779	3.788	3.732	3.607	3.407	3.219	3.127	3.096	2.985	3.147
405.0	165.4	336.2	583.1	824.2	1014	1072	1041	1019	1021	988.9	928.2	838.0	766.5	674.3	599.9	548.0	514.4	488.7	460.5	421.4	390.5	367.4	346.3	317.6	285.8	268.0	289.4	282.0	177.8	118.4	84.49	61.57	49.33	44.00	67.65	329.1	1342	1268	34.86	2.474	1.318	1.013	0.802	0.746	0.707	0.985	0.917	1.469	1.820	2.084	2.672	3.451	3.923	4.371	4.439	4.538	4.454	4.279	4.622	4.621	4.447	4.619	4.241	4.331	4.329	3.732	3.684	3.537	3.559	3.607	3.363	3.151	3.199	2.927	2.846	2.778	3.050
410.0	150.9	286.2	509.7	739.9	888.0	954.9	940.8	922.3	913.0	881.7	816.7	743.3	679.2	601.5	537.6	493.4	465.4	442.6	420.1	386.6	363.1	343.3	320.6	299.7	272.2	249.9	237.7	253.7	231.0	147.7	95.60	67.97	50.68	37.20	33.07	85.88	369.0	987.5	1103	150.5	9.660	1.321	1.082	0.840	0.734	0.842	0.901	1.400	1.622	1.906	2.351	3.093	3.589	3.766	4.053	3.899	4.135	4.135	4.003	3.997	4.039	4.054	3.901	3.880	3.660	3.443	3.329	2.993	3.058	3.107	2.882	2.770	2.774	2.632	2.675	2.659	2.689
415.0	137.4	254.1	452.5	648.0	775.7	849.9	834.3	838.5	814.6	777.6	717.2	645.2	595.6	536.3	479.0	443.7	421.1	403.4	379.0	354.1	332.5	316.7	300.2	280.2	257.2	237.0	217.4	206.3	220.5	201.2	117.4	75.88	54.59	40.24	29.99	34.20	92.83	234.3	636.2	1262	232.3	8.191	1.266	0.927	0.790	0.912	0.852	1.329	1.472	1.838	2.027	2.839	3.287	3.430	3.543	3.670	3.745	3.720	3.745	3.697	3.542	3.352	3.612	3.495	3.372	3.086	2.913	2.699	2.840	2.829	2.620	2.624	2.462	2.627	2.238	2.395	2.378
