Sample:	'1
File name:	t2025042317利民村东北桥.FD3
Run date:	'12:57:23, 04/24/2025
Operator:	Administrator
Comment:	'

Instrument
Model:	F-2700 FL Spectrophotometer
Serial number:	23B8-004
ROM Version:	4J14000 07

Instrument parameters
Measurement type:	3-D scan
Data mode:	Fluorescence
EX  Start WL:	220.0 nm
EX  End WL:	600.0 nm
EX Sampling interval:	5.0 nm
EM  Start WL:	230.0 nm
EM  End WL:	650.0 nm
EM Sampling interval:	5.0 nm
Scan speed:	12000 nm/min
EX Slit:	5.0 nm
EM Slit:	5.0 nm
PMT Voltage:	700 V
Response:	Auto 
Corrected spectra:	Off
Contour interval:	50.000

Peak integration
Integration method:	Rectangular
Sensitivity:	1
Threshold:	1.000

Peaks
No.	ApexEX/EM(nm)	Height(Data)
1	225.0/575.0	60.18
2	225.0/600.0	49.52
3	225.0/610.0	43.63
4	225.0/625.0	38.91
5	230.0/345.0	1050
6	230.0/560.0	59.25
7	230.0/585.0	56.43
8	235.0/505.0	244.4
9	240.0/265.0	323.9
10	240.0/525.0	225.7
11	245.0/270.0	330.3
12	245.0/535.0	180.5
13	245.0/600.0	27.31
14	250.0/275.0	421.5
15	250.0/545.0	153.5
16	255.0/280.0	523.1
17	255.0/560.0	130.5
18	260.0/290.0	487.0
19	260.0/570.0	103.6
20	265.0/585.0	100.9
21	270.0/300.0	894.2
22	270.0/595.0	90.35
23	275.0/305.0	1051
24	275.0/610.0	79.86
25	280.0/310.0	965.1
26	280.0/340.0	896.2
27	280.0/625.0	66.89
28	285.0/315.0	926.0
29	285.0/635.0	52.15
30	290.0/325.0	857.3
31	315.0/355.0	424.7
32	320.0/360.0	399.9
33	330.0/375.0	362.5
34	335.0/380.0	357.8
35	350.0/400.0	306.5
36	430.0/505.0	29.95
37	445.0/525.0	17.76
38	460.0/340.0	3.498
39	475.0/345.0	3.504
40	505.0/275.0	3.230
41	510.0/280.0	3.317
42	520.0/285.0	3.724
43	530.0/290.0	3.610
44	540.0/295.0	4.711
45	545.0/300.0	5.240
46	555.0/305.0	5.688
47	560.0/310.0	5.594
48	575.0/315.0	5.547
49	580.0/320.0	5.706
50	585.0/325.0	6.013

Data points
	220.0	225.0	230.0	235.0	240.0	245.0	250.0	255.0	260.0	265.0	270.0	275.0	280.0	285.0	290.0	295.0	300.0	305.0	310.0	315.0	320.0	325.0	330.0	335.0	340.0	345.0	350.0	355.0	360.0	365.0	370.0	375.0	380.0	385.0	390.0	395.0	400.0	405.0	410.0	415.0	420.0	425.0	430.0	435.0	440.0	445.0	450.0	455.0	460.0	465.0	470.0	475.0	480.0	485.0	490.0	495.0	500.0	505.0	510.0	515.0	520.0	525.0	530.0	535.0	540.0	545.0	550.0	555.0	560.0	565.0	570.0	575.0	580.0	585.0	590.0	595.0	600.0
230.0	40.54	545.6	1668	562.0	31.84	7.796	6.394	5.487	4.423	4.378	3.784	3.591	3.194	2.616	2.361	1.959	1.671	1.553	1.380	1.242	1.227	1.121	0.912	0.893	0.865	0.859	0.815	0.735	0.726	0.697	0.684	0.627	0.659	0.575	0.541	0.542	0.493	0.489	0.460	0.478	0.442	0.536	0.480	0.436	0.461	0.442	0.916	3.512	6.520	4.816	1.772	0.563	0.362	0.343	0.352	0.328	0.376	0.368	0.374	0.345	0.335	0.361	0.347	0.352	0.368	0.349	0.365	0.400	0.374	0.375	0.415	0.378	0.376	0.363	0.356	0.397	0.365
235.0	63.68	167.9	1135	2232	514.4	53.34	7.837	5.743	4.956	4.833	4.290	4.077	3.787	2.820	2.692	1.907	1.535	1.500	1.626	1.118	1.166	1.044	1.056	1.002	0.844	0.885	0.821	0.652	0.852	0.740	0.756	0.613	0.655	0.558	0.550	0.555	0.589	0.488	0.501	0.490	0.394	0.451	0.499	0.527	0.597	0.414	0.512	1.141	2.903	5.522	7.881	8.329	3.798	0.879	0.381	0.358	0.411	0.330	0.381	0.339	0.301	0.355	0.326	0.340	0.365	0.330	0.345	0.390	0.392	0.331	0.455	0.334	0.432	0.359	0.325	0.439	0.377
240.0	93.13	103.8	355.8	1945	2651	412.7	25.85	6.720	5.701	5.748	4.414	4.009	3.625	2.730	2.587	2.219	1.731	1.620	1.525	1.393	1.128	1.161	1.012	0.931	0.895	0.884	0.839	0.755	0.832	0.663	0.785	0.689	0.593	0.562	0.453	0.506	0.595	0.571	0.548	0.548	0.394	0.459	0.444	0.534	0.580	0.671	0.532	0.600	1.002	1.883	4.797	11.75	14.14	8.942	2.987	0.573	0.344	0.397	0.387	0.355	0.352	0.340	0.337	0.330	0.343	0.323	0.327	0.364	0.321	0.297	0.389	0.322	0.433	0.338	0.380	0.411	0.435
245.0	76.52	128.5	137.6	672.7	2914	2791	304.4	14.15	7.284	5.878	5.473	4.377	3.903	2.988	2.611	2.156	1.725	1.572	1.523	1.283	1.109	1.119	1.076	0.887	1.003	0.906	0.872	0.826	0.786	0.708	0.716	0.631	0.652	0.493	0.548	0.537	0.535	0.575	0.618	0.590	0.415	0.554	0.479	0.429	0.552	0.733	0.758	0.702	0.575	0.710	1.398	4.112	10.93	17.55	16.31	7.512	1.838	0.412	0.369	0.444	0.348	0.399	0.344	0.313	0.345	0.336	0.330	0.352	0.371	0.325	0.447	0.378	0.386	0.344	0.391	0.381	0.485
250.0	41.31	104.3	187.4	232.3	928.3	2739	3445	1117	66.76	7.567	6.250	5.465	4.253	3.664	2.908	2.179	2.072	1.778	1.619	1.409	1.333	1.224	1.072	1.020	1.067	0.932	0.831	0.864	0.873	0.701	0.772	0.714	0.674	0.611	0.589	0.556	0.578	0.502	0.551	0.531	0.504	0.521	0.512	0.457	0.462	0.506	0.607	0.805	0.977	0.878	0.747	1.263	2.926	6.107	11.28	16.37	20.62	16.81	8.766	2.227	0.479	0.408	0.391	0.384	0.379	0.373	0.356	0.400	0.386	0.366	0.400	0.385	0.370	0.409	0.385	0.396	0.444
255.0	32.43	47.73	140.9	279.6	292.2	697.1	2720	5454	1549	68.20	8.542	7.713	5.324	4.370	3.174	2.833	2.358	1.846	1.856	1.575	1.330	1.226	1.088	1.228	1.088	0.938	0.933	0.753	0.862	0.745	0.815	0.700	0.634	0.667	0.621	0.590	0.581	0.460	0.542	0.533	0.593	0.511	0.487	0.441	0.457	0.491	0.485	0.509	0.652	0.907	1.241	1.378	1.217	1.752	2.828	4.285	8.651	20.31	33.54	25.74	12.40	2.208	0.424	0.448	0.370	0.392	0.395	0.387	0.408	0.410	0.408	0.400	0.373	0.348	0.445	0.436	0.387
260.0	33.32	32.40	62.25	235.6	286.3	212.6	826.5	4429	6103	1157	31.82	8.882	6.502	5.227	3.572	2.950	2.382	2.168	1.647	1.645	1.430	1.459	1.152	1.149	1.070	0.899	1.020	1.021	0.931	0.758	0.848	0.677	0.733	0.668	0.687	0.561	0.556	0.526	0.545	0.475	0.469	0.465	0.511	0.440	0.492	0.470	0.480	0.446	0.441	0.506	0.865	1.599	1.659	1.223	1.004	1.261	2.345	6.019	16.26	32.59	40.98	24.16	9.044	1.253	0.422	0.478	0.403	0.389	0.486	0.399	0.429	0.404	0.356	0.372	0.378	0.412	0.386
265.0	38.66	31.37	29.72	110.3	323.9	226.7	220.3	1480	6261	6191	204.5	14.79	7.953	6.063	4.056	3.576	2.681	2.133	1.694	1.871	1.380	1.466	1.136	1.063	1.049	1.039	1.004	1.038	0.881	0.880	0.910	0.749	0.751	0.742	0.627	0.633	0.526	0.549	0.567	0.492	0.474	0.465	0.535	0.493	0.408	0.517	0.449	0.415	0.395	0.321	0.513	0.922	1.773	2.020	1.540	0.837	0.925	1.834	4.164	10.55	25.48	43.39	32.20	20.49	5.055	0.641	0.454	0.414	0.432	0.476	0.426	0.380	0.433	0.425	0.414	0.391	0.347
270.0	47.68	40.99	35.75	48.95	152.4	330.3	261.3	381.9	1939	5766	7324	793.4	51.78	8.824	5.916	4.408	3.182	2.381	2.310	1.944	1.650	1.626	1.276	1.258	1.156	1.007	1.126	1.053	0.926	0.962	0.825	0.801	0.818	0.668	0.601	0.649	0.575	0.610	0.571	0.496	0.515	0.502	0.521	0.547	0.534	0.575	0.478	0.471	0.433	0.413	0.435	0.527	0.829	1.272	1.882	2.076	1.801	1.243	1.364	2.771	6.414	13.39	22.16	37.47	37.30	38.29	14.50	5.128	0.792	0.506	0.480	0.455	0.409	0.399	0.461	0.427	0.402
275.0	72.06	85.66	80.14	52.35	57.77	144.6	421.5	324.7	482.0	1419	4850	9999.9	1156	51.35	8.656	6.042	4.168	3.103	2.924	2.337	1.846	1.536	1.645	1.402	1.248	1.099	1.135	0.997	1.010	0.985	0.949	0.835	0.989	0.769	0.796	0.660	0.714	0.551	0.582	0.548	0.630	0.556	0.555	0.606	0.552	0.658	0.514	0.602	0.674	0.493	0.452	0.529	0.589	0.582	0.832	1.187	2.377	3.230	2.117	1.295	1.858	3.535	5.429	9.150	12.73	31.59	57.47	63.56	22.94	5.413	0.653	0.505	0.538	0.456	0.510	0.449	0.441
280.0	110.4	137.9	137.3	84.66	50.48	63.94	257.0	523.1	263.4	381.3	1358	7352	9525	841.4	23.71	8.425	5.077	3.897	3.088	2.445	2.274	1.759	1.635	1.375	1.321	1.190	1.108	1.082	1.064	1.096	1.004	0.917	0.837	0.806	0.873	0.744	0.749	0.626	0.639	0.524	0.647	0.578	0.533	0.646	0.619	0.671	0.754	0.748	0.844	0.650	0.567	0.608	0.596	0.479	0.569	0.704	1.034	2.169	3.317	2.790	1.625	1.412	1.759	2.655	3.568	8.322	21.44	48.34	70.22	32.69	18.35	2.445	0.620	0.566	0.539	0.473	0.524
285.0	159.1	212.3	202.2	130.5	64.41	49.34	115.3	430.5	486.5	212.1	399.4	2202	9368	7687	118.0	12.50	7.159	4.266	3.500	3.153	2.333	2.054	1.524	1.717	1.390	1.230	1.295	1.218	1.101	0.918	0.886	0.924	0.860	0.942	0.991	0.814	0.832	0.713	0.626	0.693	0.686	0.647	0.692	0.677	0.772	0.864	0.915	0.997	1.051	0.878	0.691	0.690	0.617	0.525	0.513	0.563	0.698	1.053	2.028	3.180	3.724	2.362	1.258	1.214	1.560	2.598	5.599	13.05	30.34	54.60	72.97	29.34	12.31	1.355	0.673	0.498	0.485
290.0	202.5	279.2	282.5	189.4	95.04	71.82	88.03	204.9	487.0	480.6	264.6	649.4	2702	7003	7613	1885	31.51	6.997	5.050	3.788	2.740	2.399	1.914	1.747	1.538	1.433	1.268	1.260	1.158	1.070	1.044	0.978	0.929	0.968	0.984	0.949	0.883	0.784	0.735	0.713	0.710	0.688	0.706	0.846	0.752	1.034	1.016	1.168	1.249	1.009	0.818	0.800	0.674	0.666	0.623	0.605	0.743	0.808	1.106	1.585	2.623	3.442	3.610	2.908	1.919	1.602	2.327	4.020	7.871	14.79	28.63	39.94	54.44	46.58	20.13	10.12	1.741
295.0	234.7	335.8	362.2	239.5	141.9	114.7	117.5	162.9	272.1	587.0	703.5	433.8	815.8	1756	4515	9833	676.9	30.39	7.543	5.027	3.622	2.952	2.545	2.162	1.736	1.660	1.395	1.622	1.469	1.355	1.034	1.017	0.903	1.119	0.992	1.161	0.966	0.906	0.687	0.688	0.758	0.688	0.775	0.821	0.853	1.210	1.238	1.284	1.391	1.161	1.088	1.036	0.800	0.835	0.741	0.751	0.962	0.913	1.051	1.158	1.598	1.978	2.478	4.174	4.711	3.233	2.135	2.458	3.341	4.684	7.523	10.01	14.31	23.29	48.73	72.31	31.99
300.0	262.5	383.7	393.7	300.0	179.9	148.4	157.4	196.9	259.5	433.2	894.2	685.8	478.9	599.0	1262	6424	8531	517.6	14.92	6.019	4.461	3.484	2.633	2.220	1.953	1.765	1.631	1.617	1.458	1.316	1.048	1.000	0.883	1.202	0.936	1.083	0.934	0.922	0.773	0.811	0.849	0.748	0.867	0.922	1.051	1.290	1.320	1.465	1.513	1.440	1.243	1.151	0.958	0.882	0.829	1.071	1.233	1.022	1.241	1.289	1.450	1.679	1.863	2.855	4.180	5.240	4.522	3.104	2.650	2.719	3.102	3.436	4.325	6.512	14.45	35.98	62.79
305.0	273.2	420.5	434.1	341.7	217.6	193.3	202.6	253.5	313.2	420.5	720.2	1051	593.6	417.0	457.3	1840	7582	5000	74.17	8.739	5.584	4.182	2.965	2.703	2.090	1.825	1.664	1.559	1.474	1.352	1.262	1.165	0.913	1.072	0.974	1.011	0.896	0.942	0.826	0.957	0.813	0.835	0.868	0.947	1.045	1.304	1.293	1.653	1.619	1.476	1.369	1.240	1.110	1.090	1.138	1.108	1.324	1.435	1.468	1.498	1.744	1.981	2.157	2.450	3.157	4.289	5.577	5.688	4.209	2.847	2.691	2.363	2.557	2.738	4.301	9.271	20.38
310.0	289.3	434.3	464.8	363.2	249.2	231.6	257.2	310.2	380.1	473.4	619.5	890.1	965.1	569.0	349.1	547.3	2118	5145	5635	1464	22.56	5.766	3.955	3.151	2.410	2.001	1.833	1.556	1.588	1.509	1.250	1.232	1.107	1.130	1.048	0.975	1.048	1.011	0.901	0.923	0.807	0.815	0.935	0.912	1.091	1.266	1.468	1.761	1.671	1.536	1.341	1.547	1.263	1.221	1.273	1.263	1.555	1.637	1.755	1.842	1.994	2.395	2.500	2.807	3.028	3.519	4.054	4.913	5.594	5.431	4.231	2.999	2.499	2.127	2.342	3.157	5.579
315.0	316.1	460.1	509.7	400.3	285.7	271.9	304.1	356.9	429.2	521.7	630.5	759.0	869.6	926.0	471.5	309.4	592.2	1250	3305	7472	499.0	24.43	5.285	3.794	3.076	2.501	2.096	1.808	1.655	1.638	1.427	1.216	1.132	1.196	0.997	1.124	0.938	1.027	1.021	0.977	0.739	0.837	0.931	0.965	1.038	1.239	1.382	1.971	1.774	1.666	1.335	1.493	1.454	1.291	1.455	1.544	1.741	1.827	1.881	2.092	2.241	2.656	2.744	2.989	3.395	3.471	3.907	3.887	4.082	4.764	5.422	5.547	3.982	2.713	2.216	2.209	2.544
320.0	329.5	529.0	598.9	450.2	332.4	307.6	337.4	392.4	469.7	576.4	678.0	764.9	798.0	907.8	743.9	331.9	295.2	385.3	880.6	4678	6461	422.4	13.00	4.864	3.654	2.927	2.341	1.997	1.716	1.699	1.573	1.431	1.145	1.172	1.038	1.142	1.039	0.941	0.973	0.969	0.953	0.959	0.983	1.029	1.083	1.391	1.642	2.093	1.916	1.761	1.494	1.705	1.537	1.529	1.574	1.670	1.741	1.892	1.968	2.155	2.631	2.588	2.790	3.148	3.524	3.613	4.088	3.917	4.055	4.135	4.453	5.271	5.706	4.853	2.987	2.220	2.064
325.0	379.8	606.6	744.9	573.9	391.3	340.7	366.7	425.2	498.0	607.1	723.8	805.4	805.9	791.6	857.3	507.5	267.8	220.8	282.3	1298	5459	3871	59.35	7.961	4.412	3.745	2.691	2.269	1.868	1.866	1.554	1.538	1.187	1.250	1.191	1.242	1.076	0.975	1.016	0.984	1.015	0.955	0.872	1.086	1.303	1.525	1.775	2.376	2.332	2.347	1.932	2.144	1.687	1.689	1.582	1.762	2.044	2.030	2.084	2.370	2.677	2.951	3.291	3.209	3.823	3.660	4.206	4.135	4.257	4.370	4.192	4.194	4.895	6.013	5.171	3.270	2.303
330.0	423.4	683.7	916.6	744.7	489.5	394.3	404.0	443.9	530.1	636.8	760.3	840.1	845.8	774.6	728.0	673.2	429.3	231.8	181.3	373.0	1503	3810	4444	1267	20.42	5.016	3.466	2.727	2.140	1.909	1.716	1.529	1.309	1.194	1.172	1.144	1.067	1.011	1.039	0.976	0.916	0.934	0.944	1.169	1.311	1.673	1.975	2.524	3.000	2.813	2.373	2.454	2.222	1.984	1.795	1.935	2.120	2.064	2.421	2.494	2.635	3.058	3.378	3.522	3.834	3.992	4.262	4.120	4.412	4.418	4.273	4.119	4.315	4.481	4.740	4.690	4.037
335.0	442.1	745.8	1009	863.8	601.7	464.8	442.8	475.3	560.7	666.8	791.6	870.4	886.4	807.8	696.1	597.9	619.2	381.7	202.9	197.6	407.5	913.7	2597	6089	1749	24.25	4.618	3.587	2.654	2.019	1.784	1.598	1.491	1.390	1.114	1.326	1.003	1.107	1.082	1.022	1.021	0.942	1.087	1.082	1.434	1.730	2.053	2.870	3.261	3.188	2.676	2.939	2.535	2.276	2.061	2.070	2.164	2.341	2.331	2.680	2.821	3.041	3.477	3.629	3.756	4.075	4.359	4.591	4.694	4.645	4.572	4.290	4.347	4.277	4.050	3.841	4.054
340.0	453.3	806.5	1029	946.5	654.4	500.5	479.7	500.6	566.3	671.2	789.7	879.2	896.2	821.8	705.3	562.5	559.7	533.4	271.2	180.1	181.9	261.9	677.7	3776	5753	377.6	13.29	4.352	3.194	2.358	2.153	1.662	1.288	1.476	1.144	1.265	0.995	1.106	1.098	0.968	0.986	0.947	1.186	1.172	1.387	1.815	2.097	2.988	3.498	3.161	2.995	3.187	2.916	2.602	2.312	2.241	2.463	2.441	2.363	2.644	2.793	3.047	3.538	3.674	3.873	4.024	4.393	4.543	4.579	4.809	4.573	4.439	4.445	4.366	3.856	3.557	3.501
345.0	442.7	801.6	1050	986.1	705.1	532.5	508.3	507.8	570.1	673.4	775.4	857.4	882.0	820.3	713.1	565.8	490.5	531.1	400.0	209.5	151.3	134.2	203.8	1033	4552	3277	293.4	7.152	3.790	2.725	2.395	2.037	1.514	1.604	1.390	1.273	1.133	1.119	1.031	0.982	0.980	1.001	1.101	1.155	1.390	1.683	2.127	2.950	3.286	3.361	2.950	3.504	3.011	2.720	2.474	2.240	2.586	2.529	2.500	2.768	2.937	3.211	3.372	3.717	3.969	4.033	4.013	4.312	4.680	4.638	4.749	4.581	4.358	4.321	3.863	3.631	3.560
350.0	431.1	737.0	1007	973.6	740.9	579.6	535.0	533.4	585.0	659.2	754.3	824.6	840.3	801.0	701.7	578.8	484.1	446.8	453.5	342.9	189.1	132.6	120.3	283.3	1237	3088	3696	1141	19.44	3.811	2.962	2.134	1.727	1.666	1.444	1.256	1.120	1.141	1.020	1.038	1.034	1.009	1.062	1.092	1.378	1.645	1.961	2.718	3.214	3.235	2.992	3.392	3.143	2.837	2.644	2.467	2.568	2.626	2.632	2.755	3.097	3.226	3.343	3.525	3.459	3.965	4.056	4.232	4.379	4.383	4.369	4.467	4.520	4.240	3.995	3.687	3.720
355.0	406.5	698.4	951.9	941.2	779.5	636.5	580.8	572.2	602.7	668.0	734.7	796.7	808.8	777.9	698.5	590.7	509.3	438.3	393.8	424.7	312.8	172.6	131.9	138.8	325.8	736.0	2076	4874	1577	23.60	3.982	2.805	2.221	1.661	1.359	1.184	1.110	1.153	1.130	0.900	1.005	0.978	1.088	1.057	1.267	1.607	1.929	2.536	2.990	3.128	2.921	3.327	3.269	2.969	2.778	2.646	2.761	2.773	2.925	3.018	3.115	3.414	3.469	3.578	3.511	3.936	4.018	3.969	4.447	4.286	4.650	4.385	4.376	4.025	3.800	3.776	3.812
360.0	393.3	658.5	897.5	928.3	792.1	676.4	609.3	598.4	618.1	683.5	733.5	785.0	786.1	760.2	687.6	600.0	522.8	449.1	388.2	392.2	399.9	242.9	157.3	126.2	140.8	209.8	537.8	2993	4820	359.9	13.47	3.556	2.559	1.972	1.496	1.287	1.084	1.043	1.060	0.941	1.015	1.104	1.072	1.130	1.301	1.613	1.816	2.415	2.783	2.823	2.804	3.282	3.275	3.016	2.972	2.680	2.891	2.758	2.972	2.892	3.288	3.365	3.609	3.602	3.634	3.820	4.019	3.961	4.238	4.211	4.257	4.516	3.790	4.135	4.066	3.846	3.945
365.0	380.2	643.1	864.0	915.9	798.3	697.3	644.1	620.3	635.4	682.2	731.3	767.5	770.1	738.9	682.7	598.4	534.0	468.7	403.5	369.5	395.5	346.9	202.5	144.1	117.2	106.9	160.4	818.6	3789	3065	283.7	6.724	3.211	2.106	1.829	1.525	1.272	1.117	1.091	1.054	0.998	1.027	1.017	1.120	1.264	1.513	1.777	2.394	2.723	2.928	2.720	3.223	3.290	2.967	2.900	2.818	3.125	3.006	3.080	3.113	3.274	3.290	3.355	3.706	3.639	3.730	3.964	3.716	4.051	4.071	4.069	4.261	3.723	3.958	3.760	3.709	3.980
370.0	369.8	588.9	809.7	882.7	815.1	724.6	668.9	648.6	654.0	693.3	721.2	751.7	743.0	715.3	668.0	600.0	545.0	487.5	433.3	387.4	358.4	369.9	313.2	196.3	138.1	107.2	96.46	223.3	1029	2730	3356	1055	17.81	3.225	2.279	1.768	1.500	1.192	1.100	1.072	1.083	0.993	1.011	1.216	1.310	1.409	1.786	2.134	2.465	2.695	2.615	3.172	3.213	3.177	3.095	2.970	3.197	3.045	3.239	3.226	3.095	3.535	3.519	3.788	3.614	3.730	3.742	3.662	3.930	3.635	3.978	4.043	3.976	4.106	3.866	3.971	3.829
375.0	346.0	550.5	763.9	842.0	784.4	733.7	688.4	655.7	671.3	685.9	711.2	727.7	722.6	689.2	645.7	590.8	552.2	502.8	455.5	413.3	369.1	342.5	362.5	302.1	183.9	133.6	104.7	110.1	270.7	650.3	1854	4236	1421	21.41	3.306	2.078	1.837	1.397	1.220	1.237	1.063	1.046	0.998	1.094	1.308	1.458	1.647	2.263	2.323	2.549	2.738	3.085	3.041	3.189	3.238	2.994	3.310	3.145	3.344	3.296	3.284	3.511	3.593	3.734	3.462	3.618	3.702	3.745	3.637	3.795	3.691	3.721	4.058	4.078	3.847	4.042	3.974
380.0	322.4	530.6	727.3	817.6	798.1	751.0	704.3	666.7	674.3	690.8	698.9	707.5	702.5	676.1	633.6	577.8	551.2	508.5	469.5	428.5	378.9	343.3	339.3	357.8	246.4	162.7	122.3	99.45	114.1	183.0	478.8	2580	4002	307.2	11.83	2.620	2.098	1.534	1.313	1.251	1.028	1.068	1.065	1.076	1.246	1.443	1.637	2.119	2.267	2.394	2.592	3.234	3.189	3.256	3.291	3.004	3.230	3.071	3.489	3.359	3.341	3.420	3.728	3.575	3.513	3.638	3.692	3.632	3.732	3.833	3.871	3.709	3.965	4.050	3.808	3.885	4.094
385.0	316.8	519.7	715.3	813.7	807.9	765.5	702.6	673.6	673.7	681.9	692.1	694.5	692.3	666.5	623.3	571.1	545.3	510.1	476.0	437.7	395.8	354.7	329.8	342.0	317.7	202.1	142.9	111.3	91.06	87.48	142.3	701.1	3028	2576	235.5	5.091	2.594	1.825	1.381	1.221	1.120	1.011	1.064	1.119	1.166	1.389	1.471	1.982	2.299	2.357	2.538	3.253	3.201	3.200	3.304	3.122	3.422	3.228	3.594	3.339	3.363	3.445	3.639	3.833	3.435	3.306	3.486	3.594	3.528	3.846	3.780	3.553	3.695	3.748	3.814	3.638	3.896
390.0	315.4	485.2	685.0	782.8	786.8	761.2	705.0	677.9	666.6	670.4	683.6	679.0	661.1	641.9	604.8	561.2	536.4	507.4	473.6	446.7	406.7	373.8	341.6	321.2	324.7	285.2	191.6	138.5	108.3	85.80	79.48	189.1	816.3	2103	2536	821.9	14.83	2.705	1.886	1.460	1.297	1.050	1.041	1.108	1.257	1.448	1.579	1.919	2.277	2.362	2.375	3.021	3.316	3.219	3.324	3.201	3.402	3.412	3.297	3.380	3.395	3.395	3.469	3.538	3.498	3.363	3.482	3.385	3.628	3.628	3.780	3.813	3.640	3.571	3.757	3.710	3.796
395.0	305.5	480.5	653.4	753.0	774.3	764.8	692.6	678.5	657.5	662.4	662.5	658.7	642.6	621.7	584.1	545.7	520.7	496.7	472.4	445.9	414.2	388.6	354.2	328.4	303.9	307.0	269.8	179.4	137.0	108.2	83.92	85.16	212.5	497.8	1373	3086	1099	18.10	2.755	1.948	1.570	1.257	1.176	1.200	1.032	1.276	1.701	1.910	2.116	2.392	2.312	2.933	3.125	3.220	3.313	3.172	3.177	3.465	3.432	3.377	3.112	3.461	3.457	3.557	3.274	3.409	3.296	3.336	3.514	3.415	3.614	3.407	3.623	3.462	3.803	3.535	3.667
400.0	264.3	463.7	645.1	727.2	759.7	747.6	708.5	671.4	662.4	656.8	657.6	641.5	627.3	602.3	570.6	536.7	509.5	492.8	464.8	442.3	414.3	394.4	364.3	337.6	305.1	293.5	306.5	232.8	161.2	127.5	98.32	77.19	86.30	137.7	356.1	1866	2930	258.6	10.32	2.381	1.707	1.295	1.285	1.244	1.257	1.401	1.498	1.740	2.128	2.384	2.233	2.915	2.966	3.090	3.227	2.987	3.448	3.290	3.323	3.445	3.291	3.558	3.444	3.395	3.424	3.309	3.093	3.255	3.466	3.394	3.336	3.367	3.675	3.583	3.640	3.533	3.454
405.0	273.2	453.3	629.7	716.4	757.0	734.5	709.9	672.5	657.8	642.2	645.9	630.7	615.0	596.7	563.1	523.8	498.0	478.6	457.7	434.2	412.0	396.7	369.4	346.1	313.7	289.1	295.0	282.5	199.0	149.5	114.6	86.79	67.16	64.65	103.2	502.7	2172	2153	202.4	4.581	1.977	1.606	1.304	1.267	1.294	1.308	1.497	1.846	2.017	2.249	2.199	2.798	2.961	3.066	3.072	3.026	3.469	3.305	3.442	3.378	3.207	3.613	3.267	3.298	3.108	3.235	3.074	3.274	3.397	3.297	3.239	3.372	3.566	3.500	3.539	3.670	3.533
410.0	285.8	438.9	590.1	697.0	731.0	717.6	703.6	669.3	654.1	642.8	630.7	617.4	601.2	577.4	540.2	498.9	476.9	461.4	442.4	423.5	406.2	392.4	371.2	351.6	326.5	299.7	280.5	283.0	256.1	188.2	136.2	103.4	76.26	57.78	53.31	134.0	581.2	1604	1962	667.4	13.34	2.130	1.605	1.362	1.354	1.494	1.500	1.894	2.035	2.047	2.108	2.707	2.770	2.943	3.250	3.055	3.387	3.209	3.419	3.301	3.291	3.463	3.460	3.306	3.176	3.147	3.167	3.022	3.258	3.356	3.261	3.236	3.449	3.344	3.372	3.217	3.458
