Sample:	'1
File name:	Default_20230214_145024.FD3
Run date:	'14:44:03, 02/14/2023
Operator:	dsjg
Comment:	'

Instrument
Model:	F-2700 FL Spectrophotometer
Serial number:	2198-001
ROM Version:	4J14000 07

Instrument parameters
Measurement type:	3-D scan
Data mode:	Fluorescence
EX  Start WL:	220.0 nm
EX  End WL:	600.0 nm
EX Sampling interval:	5.0 nm
EM  Start WL:	230.0 nm
EM  End WL:	650.0 nm
EM Sampling interval:	5.0 nm
Scan speed:	12000 nm/min
EX Slit:	5.0 nm
EM Slit:	5.0 nm
PMT Voltage:	700 V
Response:	Auto 
Corrected spectra:	Off
Contour interval:	50.000

Peak integration
Integration method:	Rectangular
Sensitivity:	1
Threshold:	1.000

Peaks
No.	ApexEX/EM(nm)	Height(Data)
1	235.0/260.0	122.0
2	235.0/515.0	92.60
3	240.0/265.0	148.0
4	240.0/380.0	528.6
5	240.0/525.0	80.06
6	245.0/270.0	139.5
7	245.0/535.0	71.26
8	250.0/275.0	167.0
9	250.0/550.0	61.14
10	255.0/280.0	184.1
11	255.0/375.0	549.3
12	255.0/560.0	50.50
13	260.0/285.0	178.0
14	260.0/570.0	37.97
15	265.0/295.0	208.6
16	265.0/585.0	32.47
17	270.0/300.0	276.4
18	270.0/595.0	27.38
19	275.0/305.0	313.7
20	275.0/605.0	22.78
21	280.0/310.0	288.2
22	280.0/620.0	18.76
23	285.0/320.0	294.9
24	285.0/630.0	15.81
25	290.0/325.0	304.9
26	295.0/330.0	269.1
27	300.0/335.0	266.2
28	305.0/340.0	252.9
29	310.0/350.0	221.6
30	315.0/355.0	210.3
31	320.0/360.0	210.0
32	325.0/370.0	205.4
33	330.0/375.0	229.8
34	335.0/380.0	241.0
35	340.0/385.0	221.6
36	345.0/395.0	189.9
37	350.0/400.0	174.6
38	355.0/405.0	152.5
39	365.0/420.0	114.2
40	370.0/425.0	108.3
41	385.0/445.0	73.91
42	400.0/465.0	46.05
43	415.0/485.0	27.11
44	425.0/495.0	19.76
45	430.0/505.0	17.44
46	435.0/510.0	14.25
47	440.0/520.0	12.17
48	445.0/525.0	10.73
49	450.0/530.0	8.817
50	460.0/545.0	6.257

Data points
	220.0	225.0	230.0	235.0	240.0	245.0	250.0	255.0	260.0	265.0	270.0	275.0	280.0	285.0	290.0	295.0	300.0	305.0	310.0	315.0	320.0	325.0	330.0	335.0	340.0	345.0	350.0	355.0	360.0	365.0	370.0	375.0	380.0	385.0	390.0	395.0	400.0	405.0	410.0	415.0	420.0	425.0	430.0	435.0	440.0	445.0	450.0	455.0	460.0	465.0	470.0	475.0	480.0	485.0	490.0	495.0	500.0	505.0	510.0	515.0	520.0	525.0	530.0	535.0	540.0	545.0	550.0	555.0	560.0	565.0	570.0	575.0	580.0	585.0	590.0	595.0	600.0
230.0	10.56	262.4	621.6	116.9	3.345	1.274	0.927	0.889	0.562	0.603	0.527	0.620	0.508	0.431	0.316	0.348	0.288	0.295	0.262	0.252	0.227	0.227	0.189	0.242	0.202	0.169	0.152	0.176	0.172	0.144	0.147	0.129	0.139	0.095	0.147	0.210	0.273	0.208	0.195	0.157	0.180	0.172	0.187	0.160	0.128	0.129	0.155	0.453	1.223	1.513	0.844	0.211	0.080	0.059	0.067	0.063	0.050	0.054	0.045	0.043	0.035	0.040	0.036	0.033	0.037	0.034	0.034	0.053	0.034	0.021	0.017	0.018	0.017	0.016	0.004	0.019	0.014
235.0	12.83	79.05	523.4	558.6	187.0	6.346	1.473	1.442	0.753	0.839	0.729	0.721	0.430	0.557	0.293	0.298	0.319	0.331	0.291	0.260	0.201	0.218	0.184	0.219	0.287	0.154	0.156	0.197	0.177	0.124	0.177	0.134	0.118	0.123	0.101	0.113	0.198	0.242	0.195	0.182	0.180	0.157	0.176	0.134	0.200	0.135	0.116	0.189	0.469	0.960	1.634	2.361	1.663	0.435	0.112	0.070	0.050	0.067	0.050	0.082	0.037	0.054	0.039	0.033	0.029	0.043	0.027	0.038	0.015	0.017	0.025	0.014	0.012	0.024	0.014	0.000	0.007
240.0	21.84	28.78	185.6	621.9	703.0	148.4	3.519	1.464	1.083	1.161	0.687	0.706	0.491	0.548	0.526	0.380	0.373	0.343	0.387	0.293	0.197	0.238	0.204	0.189	0.251	0.196	0.156	0.174	0.116	0.160	0.136	0.103	0.113	0.110	0.067	0.126	0.161	0.229	0.166	0.202	0.235	0.164	0.149	0.153	0.193	0.203	0.220	0.171	0.190	0.320	0.714	2.152	3.631	3.078	1.302	0.245	0.062	0.084	0.063	0.053	0.048	0.054	0.026	0.022	0.037	0.046	0.024	0.016	0.034	0.024	0.041	0.033	0.027	0.009	0.012	0.009	0.037
245.0	23.93	43.22	52.89	259.9	866.0	721.4	91.75	2.058	1.645	1.267	1.092	0.673	0.664	0.590	0.561	0.338	0.343	0.296	0.316	0.252	0.288	0.286	0.229	0.267	0.216	0.218	0.149	0.151	0.140	0.111	0.104	0.094	0.155	0.104	0.094	0.181	0.136	0.181	0.213	0.190	0.204	0.241	0.129	0.172	0.169	0.190	0.223	0.285	0.153	0.162	0.255	0.649	1.963	4.049	4.799	2.985	0.868	0.110	0.109	0.027	0.060	0.075	0.072	0.026	0.025	0.047	0.028	0.013	0.025	0.015	0.026	0.015	0.012	0.004	0.017	0.007	0.031
250.0	11.45	45.98	73.13	83.13	324.9	827.9	739.8	162.1	15.23	1.764	1.085	0.897	0.843	0.776	0.683	0.500	0.366	0.368	0.307	0.312	0.294	0.300	0.267	0.251	0.226	0.193	0.199	0.121	0.162	0.127	0.170	0.142	0.155	0.124	0.118	0.145	0.105	0.116	0.145	0.159	0.208	0.204	0.188	0.151	0.162	0.158	0.165	0.261	0.359	0.352	0.280	0.265	0.574	1.266	2.331	3.875	4.888	4.500	2.722	0.915	0.131	0.065	0.064	0.028	0.022	0.027	0.040	0.007	0.030	0.033	0.034	0.014	0.025	0.033	0.017	0.020	0.027
255.0	4.744	15.94	76.90	105.0	98.97	235.4	766.9	 1223	218.6	13.17	1.987	1.059	0.878	0.737	0.747	0.667	0.493	0.324	0.292	0.357	0.428	0.305	0.248	0.269	0.191	0.176	0.249	0.218	0.217	0.134	0.167	0.186	0.162	0.135	0.126	0.137	0.094	0.129	0.108	0.115	0.203	0.185	0.170	0.187	0.136	0.153	0.158	0.146	0.216	0.306	0.483	0.550	0.410	0.366	0.605	1.001	1.669	3.697	6.783	7.584	4.351	1.038	0.084	0.053	0.043	0.042	0.072	0.018	0.053	0.032	0.025	0.024	0.030	0.029	0.007	0.054	0.032
260.0	2.757	6.705	33.59	122.0	104.4	68.51	266.6	 1099	 1275	174.7	7.443	1.895	1.097	0.924	0.734	0.581	0.595	0.387	0.451	0.439	0.418	0.263	0.402	0.262	0.207	0.143	0.231	0.232	0.196	0.135	0.192	0.184	0.138	0.162	0.113	0.143	0.165	0.102	0.108	0.089	0.182	0.182	0.188	0.182	0.196	0.154	0.136	0.162	0.188	0.202	0.288	0.584	0.780	0.507	0.310	0.286	0.455	1.099	2.810	6.309	8.883	7.040	2.894	0.402	0.040	0.047	0.067	0.015	0.025	0.041	0.017	0.066	0.031	0.015	0.031	0.066	0.016
265.0	3.239	4.874	12.09	67.10	148.0	77.06	71.89	411.2	 1390	 1215	132.7	3.883	1.470	1.202	1.042	0.741	0.574	0.668	0.637	0.412	0.301	0.257	0.351	0.221	0.246	0.188	0.198	0.208	0.184	0.155	0.152	0.168	0.168	0.116	0.121	0.146	0.103	0.116	0.094	0.099	0.141	0.172	0.202	0.194	0.176	0.162	0.128	0.184	0.154	0.148	0.145	0.285	0.605	0.853	0.633	0.293	0.240	0.315	0.733	1.947	4.616	8.655	9.910	5.878	1.463	0.160	0.075	0.052	0.035	0.025	0.019	0.044	0.043	0.043	0.024	0.021	0.010
270.0	4.620	7.066	7.038	20.64	82.62	139.5	91.65	111.2	471.9	 1160	 1344	506.2	30.40	1.692	1.199	0.880	0.696	0.592	0.516	0.419	0.352	0.293	0.388	0.281	0.314	0.217	0.257	0.259	0.183	0.207	0.146	0.190	0.198	0.100	0.150	0.146	0.121	0.106	0.095	0.092	0.100	0.100	0.184	0.204	0.165	0.197	0.179	0.171	0.174	0.122	0.120	0.146	0.246	0.441	0.644	0.707	0.704	0.478	0.311	0.535	1.170	2.547	4.546	6.746	7.990	7.277	4.256	1.298	0.128	0.035	0.025	0.037	0.043	0.045	0.029	0.019	0.025
275.0	8.339	10.60	10.54	9.791	23.96	75.45	167.0	116.8	124.1	309.1	952.8	 1681	725.0	30.42	1.959	1.062	0.961	0.776	0.581	0.556	0.455	0.377	0.351	0.353	0.271	0.311	0.196	0.220	0.237	0.177	0.184	0.210	0.205	0.168	0.162	0.137	0.116	0.121	0.129	0.093	0.079	0.072	0.093	0.136	0.210	0.171	0.166	0.212	0.169	0.141	0.139	0.095	0.152	0.184	0.262	0.329	0.725	1.164	0.922	0.541	0.400	0.656	1.112	1.656	2.605	5.511	9.356	10.37	6.032	1.045	0.087	0.027	0.049	0.055	0.030	0.051	0.012
280.0	15.99	22.92	15.68	10.15	12.27	29.79	125.3	184.1	97.23	91.80	308.0	 1206	 1743	555.2	10.67	1.435	1.113	1.162	0.719	0.571	0.483	0.397	0.396	0.312	0.297	0.321	0.294	0.241	0.253	0.222	0.225	0.274	0.140	0.198	0.147	0.200	0.106	0.141	0.145	0.107	0.088	0.091	0.147	0.114	0.159	0.195	0.212	0.250	0.208	0.155	0.201	0.141	0.159	0.143	0.131	0.162	0.348	0.720	1.163	1.139	0.661	0.381	0.384	0.503	0.764	1.621	3.729	7.662	11.51	9.250	3.602	0.382	0.046	0.056	0.018	0.063	0.038
285.0	22.21	28.30	24.04	17.10	13.17	17.74	55.52	166.0	178.0	70.74	102.3	427.0	 1401	 1650	96.88	3.763	1.293	1.084	0.911	0.779	0.556	0.448	0.473	0.385	0.344	0.342	0.307	0.243	0.235	0.174	0.184	0.208	0.194	0.161	0.139	0.175	0.132	0.121	0.103	0.148	0.084	0.093	0.125	0.168	0.156	0.186	0.219	0.288	0.257	0.264	0.153	0.198	0.184	0.158	0.150	0.143	0.233	0.326	0.515	0.992	1.226	0.918	0.378	0.274	0.392	0.551	1.039	2.425	5.592	9.907	12.43	6.941	1.401	0.083	0.068	0.044	0.028
290.0	30.59	37.40	35.36	25.09	19.82	20.59	32.16	83.66	176.0	185.8	106.2	147.5	462.9	 1130	 1376	369.0	22.46	1.683	1.104	0.885	0.687	0.577	0.497	0.466	0.407	0.333	0.301	0.302	0.246	0.238	0.183	0.228	0.194	0.166	0.136	0.182	0.184	0.180	0.138	0.148	0.118	0.102	0.108	0.166	0.157	0.154	0.209	0.281	0.293	0.252	0.233	0.223	0.204	0.203	0.189	0.197	0.201	0.242	0.294	0.469	0.746	0.983	1.144	1.020	0.679	0.406	0.476	0.819	1.568	3.008	5.698	7.974	8.898	8.006	4.274	1.077	0.069
295.0	35.95	45.79	48.00	32.65	28.67	29.25	32.84	51.58	96.66	208.6	206.8	130.3	161.0	311.7	764.4	 1604	555.5	24.96	1.705	1.252	0.905	0.767	0.557	0.573	0.517	0.394	0.331	0.248	0.234	0.287	0.270	0.251	0.239	0.190	0.172	0.199	0.200	0.155	0.134	0.163	0.123	0.160	0.123	0.158	0.158	0.130	0.159	0.259	0.293	0.305	0.277	0.235	0.224	0.272	0.207	0.226	0.224	0.242	0.293	0.267	0.397	0.505	0.692	1.206	1.629	1.120	0.657	0.554	0.683	0.933	1.493	2.053	3.120	6.011	10.70	11.96	5.366
300.0	43.84	48.29	52.76	39.69	34.80	36.42	41.90	49.54	73.39	152.4	276.4	186.8	114.4	117.9	246.2	 1004	 1768	429.0	8.420	1.740	1.160	0.880	0.761	0.647	0.460	0.452	0.300	0.316	0.304	0.308	0.300	0.307	0.178	0.220	0.244	0.197	0.205	0.196	0.207	0.118	0.187	0.117	0.116	0.137	0.133	0.187	0.244	0.254	0.327	0.313	0.283	0.321	0.267	0.247	0.243	0.202	0.238	0.255	0.333	0.282	0.331	0.439	0.522	0.818	1.274	1.662	1.451	0.918	0.590	0.583	0.614	0.692	0.924	1.802	4.419	9.987	13.61
305.0	39.54	53.95	58.00	49.47	44.50	46.91	48.87	59.25	74.09	117.0	227.3	313.7	154.2	91.38	96.27	339.5	 1265	 1833	63.28	3.553	1.383	1.117	0.711	0.668	0.471	0.558	0.391	0.392	0.392	0.276	0.251	0.280	0.189	0.233	0.253	0.182	0.208	0.227	0.188	0.179	0.165	0.148	0.128	0.151	0.155	0.178	0.229	0.241	0.305	0.307	0.287	0.289	0.315	0.259	0.262	0.315	0.324	0.290	0.382	0.313	0.378	0.462	0.509	0.541	0.822	1.278	1.696	1.684	0.948	0.658	0.526	0.432	0.469	0.613	1.257	3.137	7.158
310.0	40.29	60.28	67.77	56.48	54.96	61.13	64.04	74.92	88.29	114.7	168.6	257.3	288.2	162.7	81.73	115.9	394.0	 1145	 1479	663.4	16.95	1.442	1.147	0.810	0.705	0.562	0.489	0.449	0.416	0.311	0.348	0.297	0.233	0.248	0.216	0.213	0.242	0.180	0.227	0.182	0.206	0.140	0.147	0.151	0.152	0.184	0.254	0.242	0.266	0.288	0.293	0.311	0.380	0.333	0.349	0.387	0.350	0.382	0.426	0.472	0.471	0.492	0.561	0.595	0.723	0.866	1.057	1.464	1.631	1.523	1.032	0.597	0.473	0.469	0.566	0.916	1.927
315.0	49.62	69.53	79.88	66.42	67.05	72.72	83.61	90.41	103.8	127.0	161.5	197.6	256.2	293.1	116.0	86.65	133.9	303.8	723.1	 1834	412.8	17.00	1.480	1.194	0.787	0.606	0.521	0.572	0.469	0.460	0.359	0.341	0.300	0.224	0.301	0.211	0.218	0.188	0.218	0.172	0.179	0.147	0.163	0.146	0.195	0.178	0.242	0.263	0.323	0.311	0.270	0.345	0.368	0.377	0.417	0.455	0.445	0.486	0.602	0.510	0.539	0.557	0.604	0.684	0.711	0.801	0.842	0.901	1.042	1.388	1.905	1.530	0.852	0.568	0.429	0.462	0.697
320.0	64.56	100.7	110.6	84.05	78.42	85.65	97.76	107.0	125.7	148.3	179.5	198.4	224.6	294.9	253.8	102.4	92.10	113.9	222.6	 1003	 1803	319.4	6.839	1.612	1.211	0.807	0.609	0.625	0.578	0.409	0.405	0.322	0.254	0.258	0.315	0.232	0.216	0.223	0.198	0.193	0.143	0.178	0.175	0.181	0.231	0.203	0.318	0.324	0.369	0.387	0.340	0.369	0.433	0.419	0.475	0.524	0.534	0.554	0.607	0.544	0.630	0.658	0.699	0.689	0.855	0.824	0.950	0.847	1.014	1.066	1.439	1.788	1.681	0.980	0.582	0.506	0.513
325.0	85.30	145.0	161.1	116.0	94.09	97.17	113.5	123.7	143.8	169.8	202.1	224.7	230.3	251.9	304.9	199.2	98.06	84.27	89.66	308.6	 1259	 1689	49.11	2.982	1.425	0.994	0.714	0.612	0.544	0.481	0.413	0.381	0.397	0.330	0.301	0.280	0.190	0.231	0.220	0.205	0.219	0.200	0.203	0.183	0.227	0.285	0.404	0.545	0.504	0.569	0.429	0.480	0.432	0.483	0.558	0.577	0.551	0.690	0.701	0.606	0.711	0.778	0.798	0.836	0.908	0.956	1.162	1.063	1.028	1.086	1.210	1.284	1.756	1.668	1.102	0.744	0.684
330.0	105.2	179.6	205.3	154.0	116.4	113.4	126.8	140.3	161.4	191.9	226.7	254.7	255.0	242.7	254.4	269.1	184.6	100.0	72.84	103.7	366.1	 1072	 1489	596.9	14.13	1.496	1.061	0.796	0.625	0.525	0.573	0.410	0.440	0.290	0.298	0.291	0.273	0.209	0.238	0.190	0.213	0.217	0.240	0.195	0.278	0.340	0.448	0.600	0.710	0.692	0.590	0.624	0.535	0.576	0.553	0.592	0.627	0.674	0.802	0.730	0.723	0.838	0.942	0.959	1.129	1.060	1.135	1.162	1.260	1.238	1.199	1.133	1.346	1.383	1.576	1.481	1.186
335.0	122.1	212.2	254.5	193.4	152.2	143.9	151.9	167.9	189.4	219.0	258.7	282.0	289.4	272.8	242.2	233.4	266.2	172.1	87.85	68.88	114.8	271.9	709.3	 1853	342.5	15.79	1.689	1.089	0.846	0.652	0.536	0.598	0.427	0.347	0.369	0.308	0.260	0.248	0.246	0.236	0.219	0.221	0.216	0.197	0.287	0.425	0.493	0.673	0.833	0.843	0.697	0.783	0.718	0.665	0.648	0.668	0.746	0.861	0.944	0.845	0.931	0.908	0.917	0.994	1.257	1.227	1.293	1.345	1.349	1.313	1.304	1.310	1.317	1.451	1.219	1.366	1.582
340.0	140.4	243.1	291.3	237.1	194.3	179.6	184.5	192.4	216.8	246.7	280.5	310.9	319.0	302.2	262.7	222.1	239.0	252.9	124.6	71.90	67.80	91.90	202.6	 1034	 1837	281.3	5.623	1.569	1.077	0.805	0.581	0.550	0.401	0.362	0.411	0.338	0.252	0.290	0.234	0.251	0.202	0.206	0.198	0.205	0.345	0.453	0.611	0.737	0.936	0.946	0.875	0.885	0.804	0.808	0.821	0.749	0.824	0.981	0.994	0.931	0.994	1.048	1.080	1.285	1.348	1.423	1.374	1.500	1.525	1.618	1.531	1.420	1.435	1.458	1.343	1.192	1.311
345.0	140.2	262.5	320.7	274.6	235.5	211.5	217.7	223.4	245.3	265.6	300.1	330.1	339.0	320.3	280.1	229.2	209.1	250.8	195.6	89.67	65.29	59.90	74.51	306.3	 1361	 1693	42.65	2.868	1.316	1.089	0.682	0.664	0.554	0.489	0.422	0.331	0.257	0.312	0.225	0.278	0.227	0.195	0.278	0.274	0.318	0.435	0.630	0.793	0.984	1.092	1.042	1.022	1.053	0.955	0.969	0.884	0.927	0.967	1.161	1.096	1.145	1.215	1.229	1.336	1.382	1.421	1.476	1.594	1.575	1.710	1.686	1.643	1.528	1.360	1.372	1.281	1.046
350.0	138.6	262.9	341.9	330.0	297.0	281.0	283.9	293.7	303.0	319.1	341.8	359.0	364.6	345.1	306.1	252.1	209.4	204.1	221.6	170.5	89.83	65.94	58.40	98.90	385.2	 1138	 1480	576.6	12.63	1.494	0.979	0.751	0.554	0.479	0.448	0.339	0.326	0.313	0.278	0.256	0.263	0.278	0.278	0.294	0.354	0.390	0.580	0.846	1.053	1.098	1.073	1.221	1.282	1.184	1.165	1.111	1.200	1.384	1.414	1.490	1.406	1.454	1.539	1.548	1.608	1.567	1.608	1.726	1.775	1.817	1.712	1.787	1.623	1.520	1.446	1.283	1.271
355.0	147.6	261.0	360.6	373.8	367.0	365.6	378.6	394.1	392.5	382.9	390.3	399.6	391.6	374.9	335.9	280.1	229.6	201.5	187.3	210.3	160.0	87.42	67.30	65.14	116.9	283.2	718.5	 1903	315.8	14.71	1.590	1.057	0.762	0.655	0.465	0.392	0.407	0.350	0.315	0.265	0.267	0.277	0.314	0.313	0.335	0.492	0.632	0.809	1.063	1.161	1.096	1.291	1.456	1.431	1.540	1.365	1.624	1.620	1.806	1.819	1.867	1.913	1.967	1.863	1.893	1.802	1.829	1.859	1.829	1.801	1.874	1.872	1.835	1.631	1.610	1.463	1.331
360.0	143.4	265.3	367.3	401.1	404.2	403.3	425.1	454.1	445.7	424.8	420.2	417.9	414.6	392.7	351.4	295.6	247.4	208.9	180.5	185.3	210.0	127.7	80.15	65.96	63.74	89.57	198.0	 1082	 1770	264.9	5.625	1.347	0.842	0.576	0.581	0.425	0.359	0.389	0.302	0.308	0.311	0.257	0.279	0.362	0.407	0.501	0.655	0.835	1.062	1.136	1.155	1.356	1.484	1.615	1.635	1.567	1.792	1.912	2.057	2.151	2.089	2.185	2.207	2.010	1.937	1.876	1.847	1.963	1.982	1.969	2.016	1.985	1.884	1.841	1.625	1.544	1.531
365.0	137.2	250.8	362.5	418.4	426.4	424.7	457.2	476.3	489.0	454.9	439.1	431.8	417.1	394.0	360.8	306.5	255.3	216.6	188.7	168.4	196.1	185.4	104.9	76.94	61.16	55.00	69.09	307.7	 1352	 1644	40.20	2.696	1.233	0.792	0.713	0.492	0.413	0.415	0.365	0.331	0.331	0.247	0.294	0.325	0.346	0.467	0.637	0.754	0.958	1.178	1.144	1.421	1.643	1.755	1.685	1.694	2.062	1.932	2.238	2.268	2.285	2.337	2.464	2.192	2.041	2.131	1.858	1.846	2.077	1.958	1.954	1.963	1.912	1.871	1.572	1.628	1.636
370.0	142.0	255.1	379.5	453.8	480.6	477.3	492.4	524.1	525.7	498.1	476.2	459.6	431.1	398.9	365.5	314.1	271.3	236.7	210.3	185.1	181.2	205.4	191.7	125.3	90.90	72.69	61.21	99.16	381.5	 1145	 1506	505.6	11.66	1.381	0.843	0.628	0.514	0.416	0.364	0.327	0.347	0.308	0.324	0.363	0.380	0.498	0.608	0.785	1.004	1.221	1.303	1.668	1.869	1.929	1.848	1.893	2.139	2.221	2.402	2.347	2.463	2.366	2.494	2.339	2.358	2.297	2.105	2.113	2.097	2.045	2.031	2.019	1.984	1.888	1.696	1.659	1.675
375.0	143.8	260.1	397.9	485.6	527.8	514.2	515.1	549.3	547.8	528.8	516.1	501.3	445.2	402.1	366.5	320.9	285.6	253.5	232.0	210.4	196.3	201.4	229.8	213.9	143.6	117.9	89.22	71.44	116.7	283.6	769.5	 1758	280.1	13.41	1.299	0.851	0.650	0.496	0.384	0.355	0.345	0.314	0.427	0.340	0.432	0.495	0.636	0.738	1.055	1.190	1.332	1.807	2.020	2.116	2.095	2.200	2.239	2.285	2.551	2.491	2.642	2.568	2.504	2.616	2.523	2.400	2.400	2.337	2.140	2.091	2.019	1.966	2.089	1.893	1.782	1.771	1.671
380.0	132.3	242.2	381.5	479.9	528.6	515.3	505.4	543.9	544.2	526.5	515.1	499.3	442.7	399.5	358.7	314.7	285.1	257.4	239.3	218.4	202.4	200.5	208.4	241.0	187.9	134.2	99.60	71.76	63.12	89.43	213.3	 1025	 1605	225.1	4.711	1.030	0.841	0.606	0.447	0.421	0.417	0.301	0.330	0.374	0.436	0.510	0.546	0.752	1.109	1.134	1.333	1.728	2.195	2.175	2.024	2.110	2.151	2.339	2.446	2.579	2.616	2.552	2.536	2.439	2.390	2.460	2.359	2.361	2.155	1.991	1.977	1.866	1.974	1.997	1.803	1.915	1.704
385.0	125.9	233.4	367.0	465.5	512.6	502.4	492.3	524.6	528.8	511.5	492.7	482.5	432.6	387.2	350.3	312.5	279.6	259.3	240.0	221.4	201.9	198.6	192.8	215.6	221.6	150.3	103.0	75.11	56.86	49.90	73.22	298.6	 1241	 1360	33.08	1.879	0.884	0.722	0.567	0.469	0.370	0.343	0.349	0.371	0.476	0.512	0.582	0.847	1.023	1.073	1.300	1.668	2.089	2.134	2.026	2.122	2.062	2.335	2.289	2.382	2.434	2.433	2.458	2.360	2.356	2.399	2.295	2.331	2.031	1.978	2.081	1.902	1.918	2.005	1.678	1.930	1.715
390.0	126.1	222.5	356.0	450.8	495.4	481.7	481.6	494.7	499.6	482.2	466.9	458.6	409.0	366.8	332.9	302.2	278.2	259.1	242.7	221.7	209.9	201.3	193.1	191.7	205.8	189.0	124.6	83.47	60.53	46.26	46.75	89.37	342.6	944.9	 1178	404.0	9.829	0.995	0.711	0.608	0.405	0.379	0.332	0.394	0.470	0.526	0.548	0.711	0.954	1.115	1.247	1.638	1.915	1.932	2.061	1.897	2.079	2.156	2.068	2.294	2.286	2.387	2.337	2.312	2.136	2.243	2.139	2.150	2.011	1.930	1.972	1.862	1.892	1.876	1.612	1.757	1.639
395.0	126.7	206.1	321.1	426.3	478.4	465.0	450.4	468.1	463.4	454.2	439.5	433.8	384.7	344.4	316.7	288.1	273.2	255.8	238.9	224.4	213.6	205.6	198.0	187.9	182.3	189.9	169.5	102.3	68.63	50.46	44.81	45.26	92.32	224.6	599.7	 1392	232.0	11.55	1.008	0.762	0.578	0.475	0.359	0.362	0.474	0.524	0.525	0.710	0.910	1.038	1.110	1.642	1.878	1.934	1.922	1.890	1.938	1.957	2.084	2.115	2.131	2.312	2.202	2.148	1.919	1.923	2.085	2.086	1.921	1.917	1.845	1.740	1.742	1.612	1.595	1.646	1.616
400.0	106.7	204.1	303.8	403.8	451.6	441.8	440.6	436.5	441.7	433.9	413.5	414.0	365.8	329.6	303.4	278.0	263.7	244.7	233.3	220.3	211.2	203.5	192.8	183.3	173.6	167.9	174.6	133.0	76.75	56.38	47.96	39.91	39.15	61.41	155.4	808.2	 1292	196.3	4.313	0.847	0.610	0.542	0.392	0.383	0.417	0.448	0.530	0.687	0.850	0.973	1.182	1.555	1.833	1.832	1.907	1.810	1.931	1.854	2.159	1.975	1.975	2.149	2.108	1.796	1.919	1.782	2.007	1.859	1.826	1.814	1.889	1.665	1.658	1.587	1.535	1.633	1.537
405.0	108.0	195.2	302.3	384.7	433.1	424.0	415.6	414.1	422.5	407.0	387.6	385.6	347.7	317.6	290.5	267.4	250.8	236.6	225.0	213.6	203.2	197.5	188.9	177.5	167.8	152.1	149.5	152.5	96.34	62.98	52.33	42.09	31.02	27.94	44.28	222.2	955.9	 1144	29.66	1.817	0.762	0.561	0.561	0.405	0.421	0.453	0.564	0.683	0.740	0.928	1.042	1.551	1.759	1.748	1.806	1.789	1.869	1.871	1.894	1.884	2.024	2.079	2.005	1.817	1.860	1.648	1.881	1.817	1.662	1.653	1.633	1.630	1.700	1.545	1.523	1.449	1.507
410.0	102.9	180.9	276.4	351.1	407.5	403.9	404.9	396.5	392.0	375.0	360.1	350.5	321.1	297.1	275.3	253.5	236.2	224.9	214.2	204.1	193.3	187.6	178.3	169.4	158.1	142.5	129.1	133.0	122.9	82.39	58.01	46.36	33.61	24.76	23.06	59.38	257.9	774.9	955.3	340.8	8.996	0.827	0.656	0.565	0.472	0.449	0.554	0.631	0.783	0.944	1.010	1.395	1.538	1.672	1.714	1.655	1.770	1.776	1.832	1.896	1.882	1.864	1.876	1.648	1.640	1.489	1.681	1.645	1.476	1.557	1.551	1.462	1.550	1.404	1.376	1.539	1.538
