Sample:	'1
File name:	s02018右达化工总排口.FD3
Run date:	'18:13:53, 07/27/2024
Operator:	horiz
Comment:	'

Instrument
Model:	F-2700 FL Spectrophotometer
Serial number:	23B8-004
ROM Version:	4J14000 07

Instrument parameters
Measurement type:	3-D scan
Data mode:	Fluorescence
EX  Start WL:	220.0 nm
EX  End WL:	600.0 nm
EX Sampling interval:	5.0 nm
EM  Start WL:	230.0 nm
EM  End WL:	650.0 nm
EM Sampling interval:	5.0 nm
Scan speed:	12000 nm/min
EX Slit:	5.0 nm
EM Slit:	5.0 nm
PMT Voltage:	700 V
Response:	Auto 
Corrected spectra:	Off
Contour interval:	50.000

Peak integration
Integration method:	Rectangular
Sensitivity:	1
Threshold:	1.000

Peaks
No.	ApexEX/EM(nm)	Height(Data)
1	225.0/310.0	624.4
2	225.0/600.0	70.36
3	225.0/620.0	64.57
4	230.0/250.0	210.4
5	230.0/340.0	722.2
6	230.0/500.0	282.7
7	235.0/255.0	303.1
8	235.0/510.0	260.9
9	240.0/265.0	346.6
10	240.0/395.0	861.0
11	240.0/525.0	234.0
12	245.0/270.0	348.0
13	245.0/390.0	863.2
14	245.0/535.0	195.7
15	250.0/275.0	446.3
16	250.0/545.0	159.0
17	255.0/280.0	545.4
18	255.0/560.0	134.9
19	260.0/570.0	113.4
20	265.0/585.0	125.1
21	270.0/300.0	1546
22	270.0/380.0	843.8
23	270.0/600.0	130.3
24	275.0/305.0	1781
25	275.0/610.0	122.0
26	280.0/620.0	96.22
27	285.0/635.0	59.24
28	300.0/335.0	557.3
29	305.0/345.0	499.4
30	310.0/350.0	441.1
31	315.0/355.0	430.1
32	320.0/360.0	435.2
33	325.0/370.0	430.5
34	330.0/375.0	432.7
35	335.0/380.0	434.8
36	445.0/525.0	20.62
37	485.0/265.0	2.446
38	495.0/270.0	2.345
39	505.0/275.0	3.295
40	510.0/280.0	3.702
41	520.0/285.0	4.064
42	530.0/290.0	4.701
43	540.0/295.0	7.247
44	545.0/300.0	8.435
45	550.0/305.0	9.607
46	560.0/310.0	8.522
47	570.0/315.0	7.479

Wavelength data
No.	EX/EM(nm)	Height(Data)	

Data points
	220.0	225.0	230.0	235.0	240.0	245.0	250.0	255.0	260.0	265.0	270.0	275.0	280.0	285.0	290.0	295.0	300.0	305.0	310.0	315.0	320.0	325.0	330.0	335.0	340.0	345.0	350.0	355.0	360.0	365.0	370.0	375.0	380.0	385.0	390.0	395.0	400.0	405.0	410.0	415.0	420.0	425.0	430.0	435.0	440.0	445.0	450.0	455.0	460.0	465.0	470.0	475.0	480.0	485.0	490.0	495.0	500.0	505.0	510.0	515.0	520.0	525.0	530.0	535.0	540.0	545.0	550.0	555.0	560.0	565.0	570.0	575.0	580.0	585.0	590.0	595.0	600.0
230.0	50.44	258.2	947.1	479.2	36.23	9.021	7.711	6.662	5.892	5.440	4.317	4.167	3.499	3.104	2.513	2.244	1.936	1.714	1.634	1.524	1.343	1.250	1.262	1.122	1.088	1.024	0.950	0.981	0.922	1.005	0.860	0.855	0.764	0.728	0.752	0.698	0.700	0.674	0.668	0.643	0.642	0.726	0.715	0.652	0.575	0.553	0.675	1.762	3.710	3.880	2.081	0.758	0.496	0.478	0.472	0.493	0.530	0.524	0.536	0.505	0.516	0.495	0.536	0.512	0.550	0.553	0.538	0.530	0.500	0.575	0.569	0.561	0.555	0.578	0.553	0.561	0.552
235.0	91.09	100.1	510.3	1122	462.9	52.54	7.680	6.577	5.942	5.372	4.863	4.779	3.956	3.189	2.312	2.312	1.917	1.809	1.650	1.471	1.292	1.276	1.234	1.136	1.045	1.091	0.947	0.963	0.994	0.894	0.954	0.769	0.794	0.729	0.795	0.645	0.628	0.681	0.713	0.626	0.661	0.621	0.730	0.768	0.721	0.621	0.581	0.869	1.508	2.605	4.320	5.672	3.495	1.268	0.545	0.523	0.560	0.549	0.523	0.541	0.480	0.502	0.528	0.520	0.557	0.573	0.528	0.597	0.499	0.630	0.596	0.558	0.593	0.536	0.585	0.538	0.564
240.0	116.6	114.3	167.0	817.6	1369	368.7	27.32	6.997	6.850	5.416	4.813	4.498	3.974	3.371	2.491	2.135	2.073	1.708	1.685	1.449	1.398	1.208	1.291	1.248	1.042	1.057	1.104	1.015	0.977	0.909	1.054	0.888	0.768	0.777	0.692	0.631	0.694	0.601	0.692	0.656	0.577	0.639	0.661	0.636	0.752	0.725	0.710	0.656	0.726	1.008	2.223	5.487	7.768	6.871	3.070	0.931	0.552	0.538	0.529	0.519	0.506	0.509	0.622	0.533	0.544	0.539	0.509	0.544	0.502	0.565	0.516	0.588	0.627	0.546	0.516	0.572	0.575
245.0	95.17	179.0	114.3	268.9	1220	1500	276.7	12.60	7.463	5.554	5.153	4.731	4.184	3.193	2.621	2.311	2.044	1.608	1.650	1.458	1.332	1.360	1.191	1.170	1.016	1.014	1.144	1.029	1.007	1.035	0.962	0.814	0.815	0.905	0.769	0.592	0.661	0.714	0.699	0.577	0.598	0.666	0.578	0.555	0.616	0.793	0.909	0.950	0.657	0.586	0.860	1.890	4.529	8.578	10.58	6.582	2.222	0.704	0.530	0.500	0.557	0.516	0.511	0.542	0.526	0.548	0.572	0.561	0.551	0.551	0.622	0.574	0.532	0.553	0.589	0.557	0.554
250.0	57.98	127.9	210.4	163.3	377.3	1194	1689	752.2	58.94	6.653	5.530	5.154	3.954	3.465	2.825	2.566	1.961	1.864	1.592	1.474	1.405	1.395	1.294	1.199	1.038	1.047	1.057	1.045	1.001	0.981	0.949	0.849	0.755	0.764	0.723	0.626	0.697	0.694	0.623	0.617	0.635	0.610	0.609	0.587	0.564	0.660	0.689	0.953	1.112	1.007	0.789	0.874	1.484	2.808	5.566	8.222	10.98	10.66	6.520	2.250	0.682	0.560	0.543	0.526	0.553	0.555	0.555	0.562	0.529	0.530	0.594	0.549	0.571	0.556	0.573	0.545	0.639
255.0	47.57	58.21	144.3	303.1	189.5	306.1	1074	2466	1046	54.55	7.077	5.821	4.411	4.092	3.226	2.259	2.184	1.867	1.756	1.647	1.402	1.332	1.347	1.098	1.160	1.147	1.141	1.046	1.172	1.009	0.886	0.831	0.814	0.856	0.677	0.703	0.655	0.666	0.641	0.640	0.696	0.642	0.599	0.633	0.547	0.607	0.517	0.664	0.735	0.947	1.534	1.397	1.224	1.091	1.710	2.312	3.845	8.628	15.98	17.59	9.354	2.426	0.640	0.549	0.576	0.585	0.570	0.537	0.504	0.598	0.586	0.590	0.602	0.686	0.582	0.564	0.598
260.0	45.04	38.76	62.65	251.3	295.1	130.5	318.6	1758	2895	235.4	27.70	7.170	5.347	4.456	3.316	2.757	2.094	2.106	1.701	1.669	1.455	1.476	1.355	1.218	1.054	1.059	1.121	1.093	1.063	1.031	0.951	0.791	0.858	0.815	0.689	0.655	0.675	0.613	0.645	0.648	0.694	0.758	0.645	0.569	0.577	0.631	0.482	0.643	0.605	0.626	1.003	1.765	2.094	1.302	0.969	0.964	1.346	2.581	6.648	14.85	21.77	17.57	7.181	1.415	0.587	0.664	0.594	0.624	0.574	0.556	0.560	0.547	0.583	0.610	0.545	0.582	0.604
265.0	43.59	32.22	32.44	113.2	346.6	233.6	108.5	556.5	2572	2859	188.5	12.10	6.166	4.420	3.691	2.629	2.443	1.989	1.677	1.687	1.496	1.523	1.287	1.270	1.151	1.244	1.018	1.170	1.034	1.104	0.881	0.875	0.829	0.774	0.775	0.690	0.714	0.683	0.714	0.702	0.673	0.692	0.585	0.572	0.614	0.645	0.504	0.542	0.558	0.500	0.566	0.985	1.896	2.446	1.718	1.007	0.854	1.074	2.046	4.478	10.99	21.20	26.17	15.57	4.023	0.781	0.639	0.603	0.620	0.573	0.557	0.545	0.575	0.618	0.537	0.569	0.634
270.0	55.06	36.91	28.80	43.92	156.5	348.0	256.6	175.7	775.8	2398	2718	691.5	40.92	5.544	4.058	3.027	2.774	2.339	1.984	1.705	1.595	1.470	1.372	1.315	1.206	1.151	1.047	1.078	1.103	1.002	0.924	0.873	0.799	0.808	0.806	0.650	0.688	0.651	0.701	0.675	0.624	0.669	0.631	0.635	0.595	0.594	0.553	0.490	0.515	0.461	0.467	0.643	0.917	1.380	1.996	2.345	2.091	1.302	1.052	1.523	3.049	6.302	12.27	19.44	23.60	19.83	11.24	3.315	0.757	0.612	0.586	0.589	0.611	0.647	0.580	0.590	0.635
275.0	73.71	52.21	37.46	35.05	56.63	152.0	446.3	285.8	221.9	611.5	1888	4556	908.7	32.39	5.186	3.914	3.054	2.539	2.068	1.820	1.789	1.647	1.512	1.520	1.145	1.150	1.151	1.089	1.104	1.059	0.939	0.863	0.909	0.843	0.868	0.702	0.683	0.764	0.729	0.631	0.619	0.731	0.653	0.590	0.673	0.639	0.579	0.579	0.615	0.488	0.501	0.552	0.704	0.759	0.959	1.351	2.631	3.295	2.439	1.382	1.249	2.032	3.362	5.112	7.291	15.35	30.27	28.89	15.77	3.188	0.690	0.680	0.664	0.639	0.578	0.657	0.702
280.0	88.88	81.16	63.57	45.08	39.35	66.79	277.1	545.4	215.6	205.8	580.4	3165	4453	135.1	14.67	4.532	3.791	2.680	2.181	1.991	1.694	1.672	1.383	1.461	1.209	1.107	1.227	0.996	1.194	1.144	1.040	0.924	0.800	0.881	0.867	0.787	0.742	0.878	0.721	0.786	0.646	0.711	0.676	0.719	0.646	0.698	0.693	0.736	0.596	0.536	0.564	0.535	0.620	0.606	0.732	0.775	1.332	2.577	3.702	3.435	1.615	1.206	1.418	1.904	2.327	4.576	11.15	24.15	36.83	26.33	10.55	1.737	0.626	0.621	0.606	0.647	0.728
285.0	121.8	131.9	111.1	76.95	55.09	52.72	123.4	486.8	533.3	204.5	279.9	1036	4123	3557	100.9	7.210	4.307	3.406	2.510	2.364	1.920	1.656	1.539	1.454	1.367	1.159	1.161	1.221	1.190	1.170	1.096	0.986	0.840	0.895	0.977	0.826	0.805	0.761	0.797	0.703	0.670	0.751	0.925	0.771	0.771	0.843	0.701	0.839	0.738	0.670	0.611	0.593	0.618	0.659	0.717	0.712	0.860	1.224	2.069	3.802	4.064	2.512	1.349	1.384	1.738	2.188	3.782	7.288	16.45	31.24	33.12	21.65	6.043	0.978	0.623	0.650	0.711
290.0	232.6	274.6	247.2	155.9	105.8	91.64	121.7	273.6	627.4	717.6	506.1	637.0	1438	3136	3329	391.6	21.27	4.134	3.055	2.673	2.206	1.903	1.745	1.486	1.574	1.338	1.275	1.234	1.120	1.121	1.047	1.008	0.907	0.915	0.903	0.915	0.982	0.842	0.803	0.776	0.763	0.764	0.863	0.887	0.926	1.074	1.068	1.175	1.161	0.937	0.795	0.867	0.793	0.829	0.843	0.779	0.938	1.114	1.366	2.092	3.124	4.111	4.701	4.097	2.826	2.653	3.059	3.872	5.808	9.862	15.33	23.02	25.97	26.26	15.00	5.541	1.147
295.0	326.1	452.5	409.3	251.3	165.8	154.5	190.7	280.4	481.9	972.1	1196	868.1	899.3	1023	1975	4024	532.7	16.53	4.086	3.102	2.331	1.978	1.803	1.608	1.569	1.425	1.462	1.316	1.218	1.304	1.053	1.012	0.921	0.886	1.027	1.017	1.043	0.932	0.897	0.815	0.836	0.791	1.007	0.995	1.120	1.404	1.308	1.570	1.657	1.269	1.072	1.169	1.089	1.052	1.097	0.977	1.237	1.432	1.561	1.979	2.344	2.904	4.001	6.148	7.247	5.558	4.332	4.391	4.855	5.051	5.900	7.038	7.624	13.79	29.43	33.22	22.86
300.0	386.8	541.7	497.7	320.9	216.1	195.9	240.0	328.4	503.1	864.6	1546	1318	939.1	618.2	623.4	2704	3587	78.61	8.529	3.716	2.882	2.198	2.054	1.749	1.650	1.482	1.401	1.193	1.269	1.139	1.018	1.071	0.873	0.973	1.099	1.089	1.228	1.026	0.938	0.822	0.946	0.919	1.009	1.185	1.216	1.445	1.647	1.823	1.858	1.506	1.352	1.384	1.317	1.199	1.276	1.302	1.430	1.606	1.685	2.022	2.447	2.822	3.611	5.023	7.142	8.435	7.289	5.798	5.169	4.860	4.253	3.646	3.118	4.334	9.038	19.84	37.27
305.0	430.0	619.7	557.6	361.2	254.4	228.2	288.5	380.1	562.0	852.5	1401	1781	1143	602.4	314.2	797.5	3246	2770	61.53	5.204	3.243	2.676	2.231	2.013	1.784	1.417	1.425	1.306	1.372	1.324	1.193	1.078	0.912	0.918	1.152	1.201	1.298	0.992	0.900	1.000	0.948	0.982	1.053	1.204	1.319	1.634	1.843	2.122	1.902	1.688	1.591	1.563	1.433	1.328	1.438	1.373	1.842	1.733	1.964	2.348	2.821	3.467	4.020	4.567	5.751	7.338	9.607	8.859	6.890	5.081	4.195	3.392	2.321	2.306	3.143	5.605	12.83
310.0	444.8	624.4	585.2	397.7	278.0	263.4	319.7	426.7	602.4	865.3	1203	1575	1479	752.7	294.3	291.2	940.0	2348	2512	267.8	14.89	3.396	2.660	2.162	1.908	1.644	1.591	1.399	1.288	1.323	1.242	1.020	1.003	1.007	1.181	1.148	1.121	1.060	0.955	0.956	0.938	1.007	1.098	1.248	1.383	1.610	1.795	2.161	2.101	1.753	1.596	1.573	1.589	1.474	1.497	1.624	1.685	2.000	2.197	2.470	2.928	3.516	4.068	4.728	5.385	6.218	7.098	8.044	8.522	7.821	5.883	3.855	2.546	2.072	2.035	2.462	3.930
315.0	443.6	605.5	574.7	408.9	297.7	290.2	341.6	436.6	594.1	827.0	1099	1277	1310	1085	408.4	218.0	317.9	612.9	1496	2964	390.0	11.95	3.223	2.573	2.244	1.902	1.674	1.442	1.406	1.325	1.243	1.208	0.957	1.124	1.167	1.097	1.036	1.014	0.904	0.972	0.961	0.970	1.071	1.233	1.457	1.634	1.886	2.230	2.217	1.807	1.605	1.576	1.695	1.483	1.560	1.669	1.897	2.122	2.308	2.704	2.990	3.318	3.943	4.360	5.378	5.515	5.768	6.469	6.265	6.920	7.479	6.023	3.806	2.510	2.066	2.001	2.196
320.0	420.4	592.7	602.6	429.6	296.4	296.6	347.7	441.1	582.2	782.1	1027	1152	1104	1019	664.5	259.2	209.8	236.5	424.3	1999	2614	59.74	6.200	2.968	2.196	2.215	1.688	1.630	1.469	1.472	1.279	1.355	1.036	1.066	1.088	1.025	1.035	1.040	0.967	0.969	1.019	0.991	1.103	1.186	1.437	1.581	1.923	2.338	2.195	1.919	1.518	1.628	1.620	1.508	1.731	1.805	2.010	2.050	2.173	2.568	2.949	3.279	3.953	4.157	4.874	5.298	5.493	5.759	5.716	5.508	5.753	6.009	5.849	4.199	2.614	2.060	1.912
325.0	410.8	624.2	632.5	450.3	316.9	311.6	349.5	435.1	570.8	742.4	950.2	1064	985.9	801.0	785.5	419.1	214.7	169.9	166.6	585.6	2348	2054	48.89	4.263	2.838	2.267	1.902	1.770	1.534	1.394	1.372	1.247	1.130	1.123	1.125	1.009	1.061	0.946	1.060	1.025	0.927	0.913	1.102	1.228	1.368	1.680	1.946	2.460	2.329	2.091	1.591	1.806	1.484	1.662	1.632	1.683	2.029	2.026	2.277	2.549	2.795	3.248	3.595	4.072	4.553	4.974	5.298	5.347	5.328	5.001	4.721	4.350	4.987	5.341	4.512	2.999	2.173
330.0	419.3	605.2	670.6	508.6	370.4	333.8	360.6	429.1	541.2	693.0	867.5	961.8	898.6	686.1	595.4	588.8	374.8	195.4	134.8	192.7	675.2	1736	1927	218.2	13.26	3.010	2.195	1.921	1.565	1.568	1.355	1.343	1.239	1.093	1.102	1.083	1.060	1.002	0.968	0.995	0.923	0.981	1.075	1.170	1.312	1.633	1.876	2.257	2.400	2.169	1.844	1.965	1.781	1.762	1.776	1.835	2.071	2.136	2.329	2.461	2.802	3.280	3.417	3.850	4.294	4.510	4.958	4.837	4.980	4.732	4.308	3.885	3.782	3.884	4.236	4.229	3.954
335.0	390.3	624.3	694.5	562.6	426.8	373.9	383.1	437.4	535.5	658.0	800.8	876.7	828.2	656.5	511.5	470.0	557.3	326.5	161.4	133.1	208.4	442.1	1195	2369	334.0	11.68	3.071	2.122	1.859	1.714	1.594	1.468	1.234	1.170	1.079	1.043	1.062	0.985	0.887	0.912	0.990	0.933	0.987	1.199	1.319	1.728	1.801	2.418	2.325	2.184	2.032	2.092	2.180	1.991	1.891	1.913	2.150	2.256	2.343	2.554	2.874	3.080	3.531	3.674	3.845	4.194	4.549	4.499	4.606	4.510	4.242	3.976	3.517	3.539	3.199	3.389	3.996
340.0	403.2	612.3	722.2	608.9	472.8	417.1	419.4	469.5	540.1	644.3	761.7	829.1	790.3	646.6	499.9	419.7	484.7	488.3	230.0	141.2	127.9	154.7	340.2	1638	2146	254.4	6.071	2.672	1.979	1.682	1.582	1.482	1.226	1.181	1.010	1.086	1.029	0.997	0.851	0.899	0.881	1.141	1.046	1.048	1.402	1.776	1.851	2.359	2.501	2.293	2.040	2.347	2.168	2.068	1.971	2.018	2.280	2.450	2.415	2.543	2.864	2.992	3.358	3.654	3.991	3.983	4.385	4.212	4.439	4.335	4.089	3.916	3.563	3.360	3.124	3.312	3.237
345.0	388.4	575.7	710.0	652.5	523.3	465.6	456.0	492.4	559.6	648.1	754.3	798.1	762.0	644.3	517.8	425.0	403.0	499.4	370.5	180.9	133.5	115.9	133.6	489.4	1923	1756	43.97	3.840	2.397	1.837	1.524	1.429	1.210	1.203	1.085	0.987	0.998	1.073	0.941	0.890	0.868	1.097	1.161	1.123	1.342	1.737	1.784	2.276	2.326	2.474	2.190	2.439	2.292	2.340	2.107	2.229	2.557	2.622	2.766	2.819	2.979	3.093	3.370	3.457	3.860	3.992	4.058	3.841	4.157	4.185	3.789	3.892	3.477	3.380	3.308	3.190	3.117
350.0	362.4	565.8	703.3	685.8	595.2	540.6	524.6	564.9	619.5	687.8	753.0	785.2	748.0	649.8	540.6	458.9	406.2	409.0	441.1	332.3	191.4	143.8	121.0	174.1	568.2	1402	1529	196.7	13.16	2.349	1.805	1.563	1.278	1.242	1.078	1.014	1.042	0.967	1.006	0.896	0.901	0.909	1.066	1.100	1.297	1.655	1.823	2.169	2.413	2.375	2.231	2.722	2.690	2.688	2.528	2.449	2.722	2.779	3.010	3.124	3.194	3.279	3.566	3.724	3.933	3.990	4.000	3.986	3.972	4.128	4.003	3.877	3.692	3.722	3.488	3.291	3.313
355.0	357.9	534.5	697.3	703.5	662.8	625.1	601.0	630.7	670.1	717.6	765.6	775.8	740.5	658.8	566.5	494.8	440.4	404.7	386.0	430.1	332.5	197.8	153.6	134.9	194.4	364.6	881.1	1841	317.7	14.44	2.721	1.844	1.502	1.385	1.239	0.975	1.012	0.889	0.982	0.917	0.918	0.929	0.962	1.210	1.276	1.547	1.623	2.104	2.361	2.415	2.327	2.955	2.956	2.783	2.849	2.896	3.110	2.859	3.152	3.363	3.523	3.719	3.837	3.970	3.904	4.053	3.920	3.921	4.076	4.128	3.881	4.279	3.758	3.670	3.452	3.503	3.835
360.0	361.8	542.9	702.6	726.5	700.9	660.5	666.2	674.6	712.7	741.5	786.8	778.0	750.8	668.2	584.9	520.3	468.2	423.7	381.6	394.9	435.2	285.3	189.2	151.3	130.2	142.7	256.4	1196	1793	262.5	6.887	2.426	1.763	1.414	1.318	1.101	1.106	0.862	0.922	0.903	0.899	0.948	0.962	1.115	1.321	1.657	1.716	2.214	2.403	2.465	2.420	3.040	3.000	3.240	2.954	2.953	3.112	3.312	3.363	3.687	3.614	3.990	3.929	4.048	3.925	4.015	4.328	3.941	4.146	4.233	3.910	4.027	4.039	3.737	3.550	3.624	3.681
365.0	349.7	529.3	715.8	754.6	728.1	715.1	704.6	723.6	750.8	782.9	799.7	791.2	754.1	683.5	607.6	544.9	501.8	452.7	407.1	380.8	432.0	398.3	245.4	180.9	140.1	113.3	112.4	351.5	1467	1603	44.13	4.212	2.250	1.594	1.293	1.103	1.214	0.990	0.958	0.963	1.045	1.052	0.914	1.073	1.288	1.487	1.833	1.982	2.277	2.276	2.400	3.213	3.239	3.340	3.271	3.069	3.515	3.590	3.535	3.564	3.931	4.102	4.062	4.190	4.085	4.100	4.087	3.899	4.261	4.191	3.985	3.909	3.942	3.767	3.741	3.774	4.049
370.0	344.8	539.9	708.2	787.7	790.8	777.3	753.0	771.6	793.9	821.2	828.5	818.3	766.2	695.5	627.4	573.3	529.3	489.9	448.9	414.5	404.4	430.5	378.0	250.8	184.3	141.2	109.0	134.3	425.9	1158	1371	185.6	13.55	2.144	1.603	1.295	1.217	1.151	0.999	1.000	0.949	1.042	1.086	1.097	1.328	1.541	1.749	2.012	2.451	2.311	2.425	3.141	3.315	3.499	3.371	3.377	3.499	3.696	3.856	3.809	4.095	4.143	4.351	4.417	4.237	4.327	4.234	4.011	4.262	4.157	4.206	4.040	4.142	3.910	3.992	3.982	3.929
375.0	354.4	548.2	719.2	815.5	846.0	809.9	794.6	809.2	818.9	836.2	843.5	840.8	783.1	703.2	640.8	591.2	553.8	514.1	482.9	451.9	420.2	407.1	432.7	376.7	244.9	188.1	141.9	113.4	153.4	301.3	730.7	1557	292.4	14.37	2.149	1.512	1.316	1.205	1.163	1.037	1.060	1.103	1.139	1.071	1.321	1.532	1.659	2.126	2.462	2.372	2.518	3.264	3.640	3.462	3.535	3.476	3.790	3.962	3.812	3.924	4.176	4.008	4.393	4.429	4.629	4.182	4.414	4.391	4.520	4.169	4.382	4.099	4.114	4.238	4.043	4.136	4.213
380.0	358.5	539.8	707.0	814.4	850.8	838.8	805.8	810.6	812.3	838.3	843.8	825.0	780.4	705.6	645.8	595.7	560.7	530.4	505.7	470.3	436.6	410.9	408.2	434.8	321.8	221.5	170.6	126.1	106.9	115.9	211.0	951.7	1453	233.3	6.870	1.995	1.389	1.447	1.260	1.029	1.092	1.155	1.025	1.237	1.227	1.640	1.641	2.235	2.450	2.414	2.555	3.325	3.603	3.541	3.747	3.579	3.987	3.912	4.125	3.960	4.266	3.977	4.419	4.480	4.451	4.072	4.333	4.357	4.423	4.297	4.017	4.010	4.239	4.100	4.278	4.144	4.227
385.0	357.6	557.7	713.8	819.9	850.5	847.2	823.7	819.3	820.3	828.2	831.0	823.1	778.3	707.7	641.9	593.2	566.9	540.4	511.6	487.6	456.6	425.6	400.5	411.2	399.3	267.1	194.7	148.7	113.0	89.30	89.02	272.2	1086	1250	37.72	3.510	2.024	1.629	1.201	1.094	1.095	1.045	1.204	1.246	1.376	1.548	1.668	2.078	2.405	2.460	2.662	3.352	3.616	3.550	3.836	3.588	3.965	3.812	3.924	4.008	4.350	4.054	4.309	4.293	4.425	4.241	4.173	4.054	4.460	4.421	4.409	4.119	4.272	4.216	4.323	4.021	4.208
390.0	359.0	543.7	708.9	828.5	850.7	863.2	829.0	815.5	824.6	828.2	825.9	806.7	765.0	700.4	637.8	600.5	567.0	544.3	524.8	500.3	471.6	446.0	412.6	389.9	396.7	353.7	247.6	181.6	139.4	105.4	79.37	99.03	306.4	819.5	983.5	353.6	12.84	2.311	1.519	1.231	1.111	1.102	1.191	1.289	1.301	1.563	1.625	2.087	2.449	2.485	2.513	3.273	3.623	3.543	3.745	3.630	3.982	4.032	4.034	3.987	4.199	4.133	4.126	4.274	4.327	4.164	4.261	4.179	4.122	4.046	4.202	4.153	4.252	4.010	4.122	3.961	4.251
395.0	390.3	530.9	715.5	826.4	861.0	860.1	840.9	824.2	814.5	820.7	802.3	789.5	745.7	684.5	630.7	589.0	563.3	541.7	528.3	506.4	483.5	459.9	432.3	398.7	374.0	371.0	333.2	225.1	169.4	132.4	98.88	79.45	105.3	211.7	493.5	1129	251.3	15.53	2.519	1.554	1.337	1.076	1.252	1.187	1.264	1.660	1.609	2.036	2.503	2.468	2.424	3.151	3.598	3.798	3.710	3.593	3.910	4.044	4.151	4.119	4.117	4.114	4.154	4.440	4.266	4.073	4.254	4.384	4.073	4.271	4.029	4.261	4.091	4.003	3.896	4.047	4.155
400.0	366.2	550.7	712.3	803.9	844.7	850.5	849.3	826.4	814.4	804.1	794.5	776.4	732.8	667.7	618.0	576.6	555.3	536.5	527.9	504.8	481.2	461.5	439.1	406.3	373.1	351.5	360.8	282.1	199.0	155.7	118.9	90.10	75.63	83.88	147.1	640.6	1043	206.7	8.159	2.125	1.545	1.243	1.286	1.253	1.506	1.673	1.693	2.192	2.333	2.468	2.542	3.203	3.416	3.560	3.845	3.541	4.075	3.921	4.120	3.880	4.031	4.092	4.102	4.190	4.158	4.081	4.029	4.180	3.702	4.023	4.175	4.111	4.134	3.939	3.942	4.083	4.216
405.0	371.1	545.9	702.5	782.3	837.9	837.9	838.5	824.6	806.6	804.2	778.9	755.6	712.0	656.3	611.1	567.1	540.7	524.9	517.7	497.9	479.5	461.4	440.0	408.3	379.4	344.4	340.5	330.7	238.9	177.2	140.9	109.0	84.10	70.07	71.60	193.0	746.6	917.2	34.37	4.112	1.760	1.389	1.210	1.332	1.435	1.653	1.796	2.228	2.264	2.260	2.593	3.149	3.200	3.387	3.609	3.554	4.026	3.938	4.071	3.894	4.212	4.197	4.226	4.136	4.069	4.042	4.048	4.166	3.774	3.879	4.039	3.751	3.928	3.884	3.970	3.911	4.024
410.0	363.3	535.4	679.0	768.6	821.8	828.7	833.7	815.6	797.0	778.9	757.4	723.1	684.6	635.1	586.4	544.4	524.8	509.3	499.0	486.7	468.4	454.3	436.5	406.7	380.9	345.9	321.8	319.4	294.7	220.0	164.3	127.5	99.14	77.41	63.60	79.90	215.4	571.4	713.2	141.4	11.64	1.823	1.485	1.391	1.466	1.605	1.772	2.263	2.350	2.316	2.482	3.124	3.286	3.486	3.513	3.403	3.878	3.968	4.125	4.012	4.101	4.259	4.107	4.095	4.054	3.887	3.931	3.976	3.765	3.758	3.974	3.803	3.705	3.702	3.714	3.862	3.924
415.0	348.9	502.3	658.9	738.2	801.2	801.8	817.7	794.5	784.7	751.5	734.4	697.9	658.1	602.6	551.0	521.6	498.3	488.8	479.5	465.1	451.9	436.6	424.7	400.9	376.1	347.1	317.7	294.6	293.6	271.6	189.2	140.6	109.8	85.19	65.76	57.54	76.69	148.1	325.4	753.8	226.3	13.61	1.829	1.467	1.506	1.570	1.630	2.118	2.207	2.449	2.364	3.093	3.347	3.494	3.470	3.449	3.755	4.074	3.830	3.928	4.117	4.238	3.998	3.792	3.962	3.842	3.838	3.538	3.661	3.649	3.740	3.699	3.507	3.556	3.781	3.724	3.941
