Sample:	'1
File name:	L2025090912Ðã·áÂ·ÇÅ.FD3
Run date:	'14:44:56, 09/09/2025
Operator:	Administrator
Comment:	'

Instrument
Model:	F-2700 FL Spectrophotometer
Serial number:	3064-004
ROM Version:	4J14000 07

Instrument parameters
Measurement type:	3-D scan
Data mode:	Fluorescence
EX  Start WL:	220.0 nm
EX  End WL:	600.0 nm
EX Sampling interval:	5.0 nm
EM  Start WL:	230.0 nm
EM  End WL:	650.0 nm
EM Sampling interval:	5.0 nm
Scan speed:	12000 nm/min
EX Slit:	5.0 nm
EM Slit:	5.0 nm
PMT Voltage:	700 V
Response:	Auto 
Corrected spectra:	Off
Contour interval:	50.000

Peak integration
Integration method:	Rectangular
Sensitivity:	1
Threshold:	1.000

Peaks
No.	ApexEX/EM(nm)	Height(Data)
1	225.0/580.0	36.00
2	225.0/620.0	26.34
3	230.0/340.0	892.4
4	230.0/555.0	59.30
5	230.0/630.0	25.62
6	235.0/345.0	888.1
7	235.0/585.0	36.46
8	235.0/600.0	29.25
9	235.0/625.0	20.98
10	240.0/520.0	237.6
11	240.0/615.0	22.79
12	245.0/530.0	224.1
13	245.0/605.0	23.12
14	250.0/540.0	214.9
15	255.0/280.0	677.2
16	255.0/555.0	194.9
17	260.0/285.0	882.5
18	260.0/565.0	170.8
19	265.0/290.0	939.3
20	265.0/580.0	172.1
21	270.0/295.0	 1288
22	270.0/385.0	 1155
23	270.0/590.0	146.3
24	275.0/305.0	 1601
25	275.0/605.0	151.3
26	280.0/310.0	 1589
27	280.0/615.0	121.9
28	285.0/315.0	 1579
29	285.0/340.0	 1275
30	285.0/360.0	 1216
31	285.0/630.0	95.74
32	290.0/320.0	 1517
33	290.0/645.0	82.62
34	305.0/340.0	983.0
35	310.0/345.0	875.1
36	315.0/355.0	755.1
37	320.0/360.0	812.4
38	325.0/365.0	802.0
39	335.0/380.0	760.0
40	340.0/385.0	749.1
41	350.0/400.0	663.2
42	355.0/405.0	628.0
43	365.0/420.0	527.8
44	370.0/425.0	486.0
45	415.0/485.0	131.3
46	425.0/495.0	94.39
47	430.0/505.0	78.30
48	435.0/510.0	65.41
49	445.0/525.0	47.47
50	450.0/530.0	39.07
51	460.0/340.0	3.565
52	460.0/545.0	26.65
53	475.0/565.0	11.91
54	485.0/580.0	7.176
55	505.0/275.0	3.147
56	510.0/280.0	3.449
57	520.0/285.0	3.940
58	530.0/290.0	4.336
59	540.0/295.0	6.150
60	545.0/300.0	7.544
61	545.0/380.0	5.504
62	550.0/305.0	7.076
63	560.0/310.0	6.896
64	570.0/315.0	6.975
65	575.0/290.0	68.72
66	575.0/320.0	7.453
67	580.0/325.0	7.090
68	585.0/375.0	5.686
69	595.0/330.0	5.915

Data points
	220.0	225.0	230.0	235.0	240.0	245.0	250.0	255.0	260.0	265.0	270.0	275.0	280.0	285.0	290.0	295.0	300.0	305.0	310.0	315.0	320.0	325.0	330.0	335.0	340.0	345.0	350.0	355.0	360.0	365.0	370.0	375.0	380.0	385.0	390.0	395.0	400.0	405.0	410.0	415.0	420.0	425.0	430.0	435.0	440.0	445.0	450.0	455.0	460.0	465.0	470.0	475.0	480.0	485.0	490.0	495.0	500.0	505.0	510.0	515.0	520.0	525.0	530.0	535.0	540.0	545.0	550.0	555.0	560.0	565.0	570.0	575.0	580.0	585.0	590.0	595.0	600.0
230.0	19.07	 1312	 8969	 3183	163.7	9.534	5.770	3.672	2.151	3.969	2.875	4.370	3.281	2.619	2.484	2.420	1.879	1.708	1.715	1.224	1.470	1.335	1.023	0.887	0.996	0.841	0.692	0.670	0.637	0.769	0.469	0.596	0.515	0.638	0.386	0.552	0.481	0.514	0.397	0.407	0.372	0.457	0.508	0.261	0.245	0.223	1.528	6.541	11.26	8.050	2.762	0.528	0.183	0.168	0.130	0.131	0.086	-0.001	0.008	0.000	0.021	0.050	-0.010	-0.015	-0.036	-0.047	-0.054	-0.049	-0.028	-0.075	-0.073	0.000	-0.115	-0.116	-0.122	-0.133	-0.132
235.0	44.06	332.2	 3823	 6590	 3383	240.0	7.837	5.396	3.703	7.232	3.060	4.709	2.815	3.006	3.403	2.490	1.771	1.889	1.362	1.069	1.464	1.683	0.790	0.954	0.844	0.963	0.566	1.000	0.686	0.922	0.309	0.648	0.543	0.619	0.279	0.725	0.351	0.606	0.404	0.214	0.454	0.383	0.334	0.493	0.565	0.349	0.630	1.812	4.425	7.978	10.27	9.320	4.872	0.824	0.261	0.089	0.225	-0.053	0.033	0.044	0.100	0.052	-0.047	0.002	-0.082	0.032	-0.058	-0.035	-0.075	-0.056	0.010	0.008	-0.071	-0.114	-0.140	0.032	-0.043
240.0	55.92	140.9	955.7	 3971	 7199	 1024	146.5	8.243	5.875	6.681	3.643	6.862	4.293	2.457	3.209	2.495	2.172	1.780	1.521	1.757	1.441	1.342	1.112	1.453	1.039	0.830	0.790	0.881	0.559	0.792	0.527	0.717	0.565	0.745	0.463	0.590	0.260	0.618	0.291	0.293	0.391	0.523	0.175	0.396	0.473	0.581	0.531	0.715	1.104	2.445	5.857	13.41	15.96	10.10	3.493	0.295	0.144	0.019	0.073	0.108	0.217	0.266	-0.117	0.068	0.012	-0.086	-0.050	0.144	-0.024	0.006	-0.038	-0.055	-0.149	-0.094	-0.144	-0.084	-0.033
245.0	36.39	122.8	289.8	 1071	 4837	 7881	860.8	50.19	6.047	8.938	4.926	7.074	5.163	3.101	3.534	2.774	2.268	2.012	1.590	2.161	1.511	0.963	0.924	1.370	0.868	0.650	1.071	0.832	0.897	0.250	0.361	0.605	0.419	0.472	0.398	0.543	0.289	0.511	0.385	0.382	0.407	0.413	0.308	0.405	0.262	0.685	0.876	0.562	0.673	0.695	1.500	4.608	11.81	18.74	18.30	8.600	2.087	0.167	0.014	0.038	0.080	0.052	-0.065	0.076	-0.031	-0.152	-0.109	0.006	0.006	-0.002	-0.130	0.046	-0.165	0.046	-0.156	-0.118	-0.092
250.0	18.19	71.12	217.8	349.5	 1285	 5941	 8117	 3138	219.1	15.50	8.457	9.566	5.541	4.405	4.213	2.655	2.767	1.696	1.847	2.166	1.452	1.165	0.956	1.005	1.105	0.756	1.061	0.822	1.006	0.538	0.448	0.590	0.504	0.485	0.326	0.313	0.310	0.332	0.463	0.454	0.539	0.446	0.502	0.304	0.217	0.313	0.594	0.825	1.096	0.784	0.694	1.248	3.032	6.607	12.09	17.61	21.57	17.66	8.381	2.138	0.252	0.141	0.010	0.084	0.079	-0.021	0.022	-0.096	0.007	-0.090	-0.087	-0.087	-0.163	0.058	-0.111	-0.134	-0.117
255.0	23.76	40.70	109.0	273.0	423.8	 1378	 4012	 9709	 4359	319.8	12.99	12.81	7.564	5.872	3.997	3.700	3.461	2.475	2.034	1.940	1.899	1.588	1.437	1.019	1.033	1.038	0.559	0.968	1.097	0.488	0.603	0.980	0.637	0.612	0.509	0.528	0.264	0.535	0.384	0.419	0.518	0.444	0.321	0.243	0.241	0.337	0.350	0.347	0.568	0.827	1.279	1.067	1.171	1.716	2.923	4.503	9.672	21.89	34.33	30.11	12.62	1.607	0.027	0.154	0.209	-0.001	0.020	0.047	-0.011	-0.089	-0.093	-0.112	-0.141	-0.040	-0.108	-0.060	-0.103
260.0	27.45	37.77	50.99	170.1	362.2	412.7	 1010	 4844	9999.9	 4358	164.2	15.97	10.90	8.453	6.006	3.794	3.148	2.485	2.297	1.990	1.631	1.700	1.508	1.261	1.151	1.235	1.417	0.948	0.937	0.551	0.726	0.854	0.673	0.459	0.486	0.365	0.537	0.631	0.361	0.444	0.407	0.299	0.445	0.222	0.294	0.309	0.390	0.282	0.452	0.425	0.895	1.429	1.649	1.246	0.916	1.449	2.533	6.164	17.14	37.40	45.78	29.97	7.448	0.677	0.146	0.079	0.061	-0.003	-0.102	0.005	0.003	-0.124	-0.174	0.055	-0.148	-0.074	-0.009
265.0	22.40	34.82	40.36	70.62	290.6	405.1	288.6	 1266	 6422	9999.9	 2843	91.47	13.98	11.62	7.193	5.104	4.343	3.048	2.796	2.558	2.148	1.549	1.766	1.639	1.152	0.817	0.947	1.450	0.855	1.108	0.702	0.933	0.762	0.338	0.656	0.413	0.344	0.443	0.330	0.551	0.378	0.221	0.441	0.485	0.249	0.319	0.348	0.384	0.455	0.383	0.431	0.763	1.536	1.961	1.514	0.706	0.804	1.675	4.452	12.27	29.29	52.31	46.83	24.70	3.344	0.207	0.121	0.077	0.023	-0.045	0.089	-0.056	-0.088	-0.011	-0.056	-0.068	-0.007
270.0	45.31	39.41	44.46	36.07	110.6	351.9	414.6	392.6	 1662	 8217	9999.9	9999.9	175.0	17.28	9.619	7.583	5.140	4.042	3.105	3.094	2.994	1.883	1.752	1.823	1.525	1.154	1.679	1.598	1.181	1.117	0.827	0.791	0.821	0.613	0.660	0.617	0.535	0.487	0.615	0.461	0.419	0.481	0.326	0.334	0.407	0.383	0.471	0.418	0.339	0.357	0.372	0.354	0.599	1.022	1.876	1.825	1.653	0.997	1.257	2.948	7.184	16.61	28.88	46.70	48.56	33.31	17.74	3.785	0.182	0.101	0.044	-0.038	-0.049	-0.010	0.035	-0.067	0.013
275.0	78.59	70.81	75.74	53.01	48.10	131.0	414.1	566.2	473.8	 1935	 4107	9999.9	9999.9	214.3	16.08	10.94	7.505	4.804	3.276	3.872	3.006	2.119	1.741	1.932	1.845	1.438	1.452	1.367	1.409	0.983	1.091	0.464	1.048	0.605	0.537	0.859	0.643	0.683	0.583	0.484	0.503	0.563	0.406	0.399	0.378	0.439	0.540	0.540	0.387	0.341	0.311	0.208	0.202	0.364	0.574	0.950	2.363	3.147	1.950	1.094	1.859	4.163	7.008	11.41	18.78	45.56	82.02	50.38	23.27	2.411	0.116	0.023	0.085	-0.034	0.139	0.099	0.025
280.0	123.5	119.3	109.2	78.83	43.85	73.15	197.5	677.2	522.3	555.5	 1085	 5903	9999.9	 2597	124.7	14.11	8.407	7.450	4.149	4.145	3.378	2.612	2.286	2.002	1.982	1.965	1.299	1.332	1.113	1.111	1.477	0.786	1.041	0.939	0.743	0.632	0.632	0.421	0.664	0.616	0.534	0.594	0.630	0.510	0.792	0.651	0.571	0.614	0.633	0.522	0.482	0.262	0.191	0.311	0.398	0.424	1.101	2.010	3.449	2.867	1.416	1.294	2.153	3.037	4.955	12.43	36.34	71.77	93.66	44.34	11.92	0.631	0.010	-0.025	0.046	0.062	0.030
285.0	151.5	160.6	145.8	109.4	55.79	66.72	104.4	366.3	882.5	442.9	422.4	 1629	 7466	9999.9	 1953	58.22	11.43	9.145	6.463	4.643	3.701	3.013	2.627	2.262	2.145	1.869	1.420	1.724	1.255	1.513	1.575	0.976	1.076	0.968	0.659	0.843	0.915	0.941	0.716	0.823	0.675	0.662	0.974	0.632	0.843	0.883	0.916	0.855	0.655	0.707	0.517	0.441	0.357	0.474	0.314	0.426	0.494	0.910	2.096	3.564	3.940	2.371	1.313	1.451	1.938	3.509	9.090	21.45	51.92	93.29	56.69	31.97	4.511	0.045	0.195	0.032	0.015
290.0	214.8	224.8	227.8	168.5	99.36	97.99	113.2	193.2	564.6	939.3	490.8	676.5	 2068	 6714	9999.9	 7378	107.2	14.79	9.177	6.211	5.032	4.282	3.008	2.489	2.381	2.350	1.888	2.008	1.530	1.492	1.349	1.097	1.266	1.146	1.116	0.845	0.911	1.129	0.923	0.942	1.051	0.999	0.922	0.899	1.137	0.988	1.022	1.218	1.040	0.808	0.725	0.639	0.633	0.516	0.509	0.517	0.681	0.947	1.108	1.658	2.835	3.983	4.336	3.399	1.957	2.158	3.201	5.901	12.90	27.39	41.23	68.72	65.10	62.26	21.67	4.881	0.207
295.0	245.7	287.7	297.3	223.9	151.0	150.0	155.0	196.2	325.2	673.2	 1288	819.5	866.6	 1786	 3588	9999.9	9999.9	139.2	12.57	8.664	6.759	4.991	4.468	2.942	2.395	2.410	2.463	1.832	1.833	1.612	1.839	1.235	1.051	1.012	0.842	0.912	0.882	1.223	1.209	1.033	1.066	1.266	1.140	1.187	1.232	1.286	1.175	1.802	1.375	1.134	1.003	0.916	0.580	0.604	0.511	0.818	0.723	1.030	0.970	1.383	1.728	2.152	2.942	5.593	6.150	3.768	2.546	3.076	4.643	7.405	10.33	16.71	22.93	57.82	107.0	57.05	31.58
300.0	263.5	328.8	338.9	278.9	190.9	179.5	197.5	241.5	315.9	497.0	 1126	 1447	770.3	771.3	 1062	 4418	9999.9	 7497	91.53	12.69	9.920	5.703	4.945	3.820	2.822	2.627	2.108	2.371	1.936	1.476	1.526	1.673	1.018	0.977	1.128	1.090	1.162	1.245	1.842	1.078	1.235	1.495	1.269	1.465	1.393	1.332	1.450	1.479	1.653	1.397	1.218	1.150	0.824	0.678	0.778	0.848	1.089	1.155	0.917	1.309	1.567	1.685	2.287	3.700	5.645	7.544	4.519	3.173	2.906	3.315	3.826	4.969	6.199	15.13	40.96	84.69	125.8
305.0	288.2	345.1	350.1	333.3	226.3	211.0	241.6	282.6	355.6	519.0	826.0	 1601	 1246	665.5	557.2	 1217	 6143	9999.9	 1265	52.16	12.18	7.504	5.743	3.799	3.336	3.353	1.943	2.351	1.853	1.984	1.393	1.447	1.379	1.131	1.126	0.969	1.203	1.656	1.418	1.252	1.445	1.168	1.019	1.479	1.217	1.455	1.529	1.459	1.636	1.544	1.085	1.143	1.021	0.890	1.103	1.009	0.991	1.209	1.064	1.531	1.413	1.626	2.386	2.716	3.967	6.046	7.076	6.478	4.215	2.972	2.968	2.482	2.643	4.672	10.09	22.88	62.21
310.0	315.0	391.5	420.5	369.3	275.8	248.6	282.5	335.7	413.1	574.5	782.7	 1147	 1589	 1166	586.7	540.8	 1604	 5638	9999.9	 5085	77.55	12.31	8.197	5.285	3.906	3.534	2.924	2.648	1.956	2.140	1.471	2.006	1.444	1.289	1.163	0.993	1.314	1.448	1.575	1.415	1.400	1.429	1.259	1.519	1.412	1.638	1.706	1.710	1.662	1.444	1.359	1.266	1.145	1.195	1.319	1.066	1.305	1.467	1.505	1.754	1.849	2.001	2.503	2.805	3.287	3.916	5.193	6.235	6.896	6.352	4.351	2.922	2.405	2.600	3.325	6.196	15.09
315.0	326.1	432.2	470.0	398.2	293.0	277.5	323.0	395.4	491.4	630.4	809.8	 1022	 1219	 1579	 1036	501.9	585.6	 1408	 3151	9999.9	 7790	102.9	11.42	7.526	5.338	4.569	3.798	2.765	2.537	2.260	1.896	1.743	1.564	1.329	1.176	1.049	1.268	1.254	1.507	1.427	1.589	1.421	1.309	1.480	1.504	1.371	1.744	2.059	1.626	1.433	1.263	1.157	1.357	1.402	1.274	1.426	1.409	1.721	1.544	2.309	2.329	2.230	2.552	2.923	3.224	3.465	4.099	4.561	4.941	6.129	6.975	5.962	3.522	2.857	2.222	2.906	4.355
320.0	340.7	475.9	574.3	486.1	336.0	314.2	356.9	441.2	536.4	694.7	894.9	 1043	 1128	 1312	 1517	709.3	420.5	504.4	833.3	 4045	9999.9	 6119	72.24	10.47	8.152	5.898	3.922	3.095	2.671	2.293	1.934	1.518	1.651	1.660	1.219	1.019	1.303	1.323	1.433	1.381	1.306	1.615	1.683	1.632	1.843	2.039	2.056	2.539	2.213	2.019	1.505	1.279	1.460	1.613	1.527	1.291	1.534	2.093	1.661	2.396	2.261	2.359	3.010	3.090	3.330	3.976	4.366	4.409	4.347	4.664	5.882	7.453	6.906	4.144	2.740	2.168	2.605
325.0	380.3	533.8	700.8	630.5	401.2	353.1	400.5	458.2	596.9	740.9	929.4	 1116	 1189	 1188	 1408	 1166	494.7	358.3	342.9	 1037	 6098	9999.9	947.9	41.66	9.379	7.049	4.436	4.304	3.256	2.766	2.014	1.717	1.847	1.497	1.298	1.096	1.535	1.610	1.423	1.918	1.599	1.282	1.491	1.542	1.645	2.384	2.605	3.028	3.112	2.448	1.878	1.567	1.372	1.502	1.474	1.458	1.865	2.103	2.134	2.759	2.160	2.771	3.126	3.343	4.071	4.064	4.271	4.546	5.049	5.226	5.349	5.726	7.090	6.838	4.517	2.911	2.464
330.0	390.7	584.6	776.3	727.9	486.7	393.8	417.0	500.2	635.0	769.4	966.8	 1158	 1227	 1205	 1151	 1194	909.6	444.1	286.8	376.0	 1522	 5414	9999.9	 6526	61.59	10.91	7.199	4.975	3.960	3.092	2.454	2.514	1.937	1.503	1.435	1.457	1.333	1.409	1.636	1.500	1.611	1.494	1.733	1.811	1.801	2.336	2.489	3.113	3.161	2.804	2.420	1.916	1.669	1.623	1.814	1.768	1.765	2.101	2.143	2.645	2.443	2.810	3.201	3.241	4.052	3.991	4.375	4.975	5.028	5.147	4.689	4.988	4.886	5.716	5.871	5.915	4.197
335.0	403.3	606.9	841.4	804.5	571.9	483.8	466.4	534.3	660.5	797.7	997.4	 1185	 1248	 1255	 1120	976.8	 1018	826.9	372.9	289.0	488.3	 1313	 3192	9999.9	 6175	85.40	10.57	6.930	4.990	4.063	2.949	2.633	2.022	1.604	1.753	1.496	1.552	1.383	1.686	1.193	1.356	1.384	1.547	2.232	1.937	2.806	2.723	3.191	3.302	2.820	2.490	2.272	1.841	2.025	2.008	2.018	2.062	2.106	2.571	2.713	2.555	3.233	3.290	3.854	4.205	4.335	4.508	4.574	5.095	4.992	4.962	4.879	4.523	4.376	4.999	5.089	5.866
340.0	400.8	630.6	892.4	854.2	638.4	535.9	517.0	564.3	687.8	833.3	 1014	 1184	 1250	 1275	 1121	924.4	849.9	983.0	593.5	303.5	290.0	425.8	820.3	 4247	9999.9	 4993	59.39	9.550	6.161	4.845	4.070	2.930	2.258	1.883	1.506	1.237	1.568	1.185	1.421	1.327	1.543	1.610	1.520	2.127	1.969	2.623	2.824	3.564	3.565	2.947	2.772	2.835	2.236	1.929	2.059	2.157	2.109	2.218	2.664	2.564	2.927	2.948	3.113	3.923	4.036	4.692	4.590	5.031	4.636	5.291	5.030	4.943	4.902	4.783	4.019	4.309	4.674
345.0	358.5	615.5	847.0	888.1	693.3	588.6	576.3	600.7	704.3	839.2	 1009	 1163	 1239	 1238	 1142	936.6	777.2	834.7	875.1	433.4	286.9	268.0	307.4	 1072	 6068	9999.9	784.5	39.29	8.142	6.301	4.525	3.568	2.758	1.893	1.557	1.500	1.787	1.486	1.552	1.522	1.382	1.534	1.633	1.962	2.173	2.402	2.568	3.196	3.467	3.011	2.902	2.607	2.486	2.394	2.223	2.160	2.660	2.194	2.670	2.666	2.935	3.341	3.142	3.549	4.019	4.121	4.622	4.838	4.802	5.113	5.525	5.194	5.169	4.758	4.437	3.846	4.019
350.0	362.5	586.8	803.5	840.0	755.8	674.1	663.4	679.8	760.2	889.2	 1008	 1145	 1210	 1224	 1138	973.2	789.3	724.7	794.2	732.0	429.1	291.3	251.3	374.9	 1522	 5615	9999.9	 5632	54.30	9.735	5.978	4.356	3.174	2.344	2.217	1.701	1.580	1.757	1.641	1.535	1.515	1.854	1.753	1.852	2.003	2.404	2.581	2.718	3.169	3.026	2.605	2.938	2.968	2.836	2.445	2.461	2.912	2.624	3.013	3.091	3.062	3.471	3.611	3.799	4.090	4.158	4.811	4.698	4.756	5.024	5.181	5.079	4.888	4.644	4.729	4.095	4.203
355.0	353.3	553.1	749.3	830.1	772.3	761.0	760.8	786.8	824.5	951.0	 1040	 1153	 1194	 1197	 1134	 1010	861.1	739.6	686.9	755.1	738.6	416.0	304.1	277.2	477.7	 1353	 3392	9999.9	 5344	75.21	9.516	5.613	4.652	3.197	2.540	2.216	1.650	1.635	1.357	1.713	1.732	1.817	1.770	1.776	2.231	2.341	2.685	2.984	3.123	2.973	2.763	3.112	3.343	3.314	3.061	2.956	3.019	2.877	3.214	3.062	3.225	3.893	4.044	3.762	4.095	4.246	4.923	4.183	5.181	5.005	4.926	5.089	5.042	4.301	4.205	4.174	4.144
360.0	354.5	509.4	719.4	828.7	827.7	846.8	841.0	853.7	903.4	 1006	 1082	 1183	 1209	 1216	 1149	 1026	896.9	777.1	695.5	669.9	812.4	622.0	371.8	295.2	285.0	431.7	861.5	 4615	9999.9	 4361	50.52	8.048	5.811	4.004	3.017	2.574	2.004	1.895	1.487	1.673	1.678	1.706	1.714	1.797	2.331	2.213	2.708	2.692	3.006	2.813	2.553	2.544	3.286	2.992	3.284	3.535	3.283	2.879	3.359	3.463	3.314	4.242	4.398	4.266	3.947	4.540	4.290	4.261	5.250	4.401	5.140	5.575	5.344	4.987	4.403	4.410	4.705
365.0	364.7	484.7	695.4	829.4	814.8	888.7	887.4	907.3	950.9	 1072	 1102	 1193	 1201	 1201	 1139	 1025	923.5	825.1	737.6	673.4	722.2	802.0	500.2	340.9	278.8	260.0	307.9	 1164	 6457	9999.9	698.2	30.10	7.013	5.157	3.362	2.668	2.170	2.254	1.588	1.955	1.786	1.319	1.630	1.547	2.315	2.323	2.799	2.609	2.788	2.833	2.708	2.914	3.316	2.996	3.400	3.615	3.473	3.255	3.482	3.540	3.663	4.198	4.461	4.341	4.255	4.373	3.947	4.580	5.247	4.987	5.096	4.996	5.113	5.359	4.760	4.399	4.627
370.0	331.6	486.5	647.8	824.8	866.3	902.8	932.4	951.5	 1016	 1091	 1132	 1184	 1191	 1181	 1125	 1043	949.7	871.9	782.0	724.1	680.7	741.0	729.9	492.2	337.2	273.2	229.5	373.9	 1618	 5869	9999.9	 2915	45.48	7.601	4.811	3.503	2.506	2.373	2.010	1.824	1.713	1.606	1.638	1.736	2.322	2.165	2.299	2.430	2.752	2.821	2.850	3.160	3.269	3.614	3.664	3.614	3.557	3.394	3.717	3.784	4.158	4.101	4.272	4.358	4.529	4.150	4.643	4.787	4.863	4.916	5.201	5.001	5.137	5.251	4.731	4.958	4.858
375.0	325.8	474.2	645.2	777.1	863.7	934.4	980.5	995.6	 1051	 1113	 1150	 1181	 1180	 1170	 1120	 1061	957.0	910.2	827.2	774.4	715.5	686.1	725.1	733.2	469.1	337.3	263.7	242.5	472.3	 1389	 3631	9999.9	 4435	57.44	7.423	4.926	3.629	2.601	2.343	1.825	1.987	1.650	1.732	2.035	1.801	2.036	2.030	2.794	2.865	2.950	2.457	3.296	3.255	3.579	3.615	3.468	4.048	3.733	4.083	3.966	4.060	4.373	3.854	4.169	4.116	4.760	4.201	4.733	4.859	5.332	4.885	5.061	5.327	5.686	4.657	4.710	4.803
380.0	327.7	440.3	611.0	801.8	864.1	954.6	 1009	 1024	 1050	 1099	 1130	 1172	 1163	 1163	 1124	 1052	965.6	928.0	859.9	815.3	754.0	696.3	680.3	760.0	637.5	399.0	305.3	244.5	243.2	406.8	899.7	 4861	9999.9	 3342	38.58	6.623	3.999	3.727	3.176	2.113	2.088	1.791	1.715	1.730	1.766	2.104	1.970	2.311	2.678	2.533	2.278	3.028	3.208	3.696	3.801	3.412	3.716	3.674	4.421	4.075	3.993	4.139	3.612	4.206	4.388	5.504	4.986	4.561	4.944	4.812	5.095	4.523	4.769	4.295	4.642	4.925	5.223
385.0	329.6	435.3	584.6	774.4	854.5	951.3	 1010	 1013	 1057	 1113	 1155	 1151	 1141	 1134	 1080	 1025	970.6	931.1	879.6	827.3	775.1	719.6	675.5	680.6	749.1	514.1	351.0	276.3	220.7	210.4	286.0	 1223	 6453	9999.9	544.6	21.49	5.883	4.551	3.366	2.485	2.241	1.753	2.186	2.004	2.004	1.921	1.933	2.576	2.692	2.893	2.607	3.053	3.611	3.779	4.027	3.359	4.207	3.968	3.760	4.056	3.726	4.302	4.030	4.003	4.316	4.633	4.353	4.487	4.845	4.742	4.850	4.582	4.944	4.714	5.049	4.765	4.761
390.0	310.4	420.7	561.2	712.4	837.5	959.7	 1000	 1015	 1062	 1098	 1113	 1122	 1121	 1097	 1061	997.9	961.8	918.8	883.2	841.5	796.1	752.9	702.2	658.7	686.5	671.5	467.9	332.6	257.6	205.6	177.6	353.2	 1618	 5605	 8307	 2232	35.09	6.281	4.316	3.256	2.488	2.272	2.162	2.147	2.078	1.876	1.747	2.225	2.650	2.518	2.480	2.887	3.425	3.276	3.906	3.593	4.067	3.865	3.902	3.798	3.870	4.111	4.440	4.007	4.392	4.133	4.620	4.324	4.395	4.265	4.953	4.398	4.801	4.889	4.925	4.950	4.958
395.0	297.5	411.8	538.9	681.7	792.3	926.8	996.4	 1032	 1040	 1090	 1091	 1097	 1073	 1069	 1016	981.2	938.9	911.9	875.9	834.4	820.7	774.6	732.5	676.1	638.3	651.0	643.0	442.7	306.6	241.6	186.9	187.1	431.0	 1306	 3194	 9231	 3453	47.45	5.818	4.219	3.427	2.699	1.982	2.099	1.974	2.057	2.095	2.410	2.691	2.101	2.449	3.212	3.267	3.143	3.257	3.444	3.890	3.891	4.008	4.244	4.464	3.526	4.087	3.841	4.176	4.130	4.702	4.519	4.146	4.380	4.637	4.602	4.955	4.214	4.811	4.647	4.701
400.0	310.0	406.5	510.8	668.5	802.2	890.5	947.4	 1032	 1041	 1064	 1072	 1076	 1039	 1035	 1016	942.2	913.0	893.4	868.7	838.5	813.3	772.6	736.9	696.1	635.3	604.3	663.2	564.8	363.1	279.3	215.8	169.4	184.5	354.4	780.2	 4483	 9311	 2620	30.66	5.158	4.218	3.308	2.371	2.047	2.191	2.464	2.021	2.564	2.298	2.074	2.368	2.971	3.511	3.192	3.132	3.700	3.774	3.876	3.820	4.045	4.219	3.918	3.912	3.932	3.754	3.850	4.330	4.413	4.681	3.995	4.415	4.401	4.686	4.753	3.995	4.867	5.171
405.0	290.8	367.1	516.0	643.9	781.2	865.0	947.8	 1009	 1011	 1067	 1050	 1057	 1033	996.8	975.4	917.7	898.4	877.3	855.4	835.2	804.3	774.2	733.7	696.4	652.8	603.2	601.1	628.0	452.3	315.8	243.4	184.1	147.3	152.1	224.3	 1125	 5643	 8558	457.8	16.07	4.863	3.236	2.707	2.200	2.288	1.968	2.172	2.010	2.549	2.289	2.395	3.077	3.540	3.373	3.416	3.532	3.837	3.410	3.725	3.963	3.613	3.399	4.112	4.082	3.646	4.364	4.159	4.400	4.162	3.943	3.863	4.468	4.568	4.204	4.184	5.064	4.670
