Sample:	'1
File name:	Default_20231106_135755.FD3
Run date:	'13:51:34, 11/06/2023
Operator:	user
Comment:	'

Instrument
Model:	F-2700 FL Spectrophotometer
Serial number:	2190-003
ROM Version:	4J14000 07

Instrument parameters
Measurement type:	3-D scan
Data mode:	Fluorescence
EX  Start WL:	220.0 nm
EX  End WL:	600.0 nm
EX Sampling interval:	5.0 nm
EM  Start WL:	230.0 nm
EM  End WL:	650.0 nm
EM Sampling interval:	5.0 nm
Scan speed:	12000 nm/min
EX Slit:	5.0 nm
EM Slit:	5.0 nm
PMT Voltage:	700 V
Response:	Auto 
Corrected spectra:	Off
Contour interval:	50.000

Peak integration
Integration method:	Rectangular
Sensitivity:	1
Threshold:	1.000

Peaks
No.	ApexEX/EM(nm)	Height(Data)
1	225.0/265.0	214.3
2	225.0/305.0	252.3
3	225.0/485.0	240.2
4	225.0/500.0	228.1
5	225.0/515.0	225.1
6	225.0/555.0	213.3
7	225.0/580.0	185.6
8	225.0/630.0	183.6
9	230.0/585.0	193.4
10	230.0/595.0	189.7
11	235.0/505.0	241.9
12	240.0/520.0	214.9
13	245.0/530.0	188.3
14	245.0/560.0	131.3
15	250.0/365.0	 1704
16	250.0/545.0	189.4
17	255.0/555.0	146.5
18	255.0/605.0	97.79
19	260.0/285.0	397.8
20	260.0/565.0	151.1
21	260.0/625.0	95.57
22	265.0/290.0	450.1
23	265.0/580.0	120.1
24	270.0/295.0	583.2
25	270.0/590.0	114.8
26	275.0/305.0	709.8
27	275.0/600.0	105.2
28	280.0/310.0	683.4
29	280.0/615.0	89.92
30	285.0/315.0	651.2
31	290.0/320.0	612.2
32	290.0/400.0	454.8
33	290.0/640.0	59.13
34	295.0/330.0	481.7
35	300.0/335.0	436.3
36	300.0/595.0	641.0
37	305.0/340.0	455.2
38	305.0/400.0	424.5
39	305.0/605.0	517.5
40	310.0/345.0	400.7
41	315.0/255.0	14.80
42	315.0/355.0	354.8
43	320.0/360.0	388.4
44	325.0/240.0	11.81
45	325.0/365.0	367.3
46	330.0/285.0	11.14
47	335.0/260.0	11.45
48	335.0/380.0	370.6
49	340.0/385.0	372.1
50	350.0/400.0	326.0
51	355.0/405.0	313.4
52	360.0/300.0	8.459
53	360.0/410.0	286.2
54	365.0/260.0	7.452
55	365.0/415.0	271.5
56	370.0/265.0	7.104
57	370.0/425.0	254.4
58	380.0/320.0	6.718
59	380.0/340.0	7.711
60	400.0/465.0	118.6
61	420.0/260.0	5.118
62	425.0/335.0	4.935
63	430.0/505.0	44.50
64	435.0/510.0	35.77
65	440.0/285.0	4.729
66	445.0/365.0	5.084
67	445.0/525.0	26.40
68	450.0/530.0	22.04
69	455.0/535.0	18.60
70	470.0/560.0	9.656
71	490.0/365.0	6.748
72	495.0/280.0	4.258
73	495.0/355.0	6.897
74	500.0/360.0	7.219
75	515.0/405.0	5.993
76	520.0/285.0	4.070
77	535.0/425.0	4.738
78	535.0/500.0	4.590
79	540.0/300.0	4.820
80	540.0/440.0	4.558
81	545.0/620.0	3.962
82	550.0/305.0	4.526
83	555.0/310.0	4.743
84	565.0/460.0	4.609
85	570.0/315.0	4.516
86	575.0/320.0	5.139
87	580.0/325.0	5.189

Data points
	220.0	225.0	230.0	235.0	240.0	245.0	250.0	255.0	260.0	265.0	270.0	275.0	280.0	285.0	290.0	295.0	300.0	305.0	310.0	315.0	320.0	325.0	330.0	335.0	340.0	345.0	350.0	355.0	360.0	365.0	370.0	375.0	380.0	385.0	390.0	395.0	400.0	405.0	410.0	415.0	420.0	425.0	430.0	435.0	440.0	445.0	450.0	455.0	460.0	465.0	470.0	475.0	480.0	485.0	490.0	495.0	500.0	505.0	510.0	515.0	520.0	525.0	530.0	535.0	540.0	545.0	550.0	555.0	560.0	565.0	570.0	575.0	580.0	585.0	590.0	595.0	600.0
230.0	185.3	221.0	915.2	 1008	193.3	89.26	78.67	71.95	62.90	50.08	46.51	43.31	33.14	30.72	24.97	18.72	15.95	15.94	13.02	12.71	11.15	10.07	9.479	8.787	8.219	7.427	6.542	7.615	7.280	6.247	6.835	6.144	5.803	5.199	5.153	4.752	4.445	4.532	4.049	3.662	3.793	3.720	3.874	3.707	3.452	3.416	3.270	3.829	4.475	4.240	3.418	2.800	2.994	2.735	2.862	3.058	2.937	2.905	3.006	2.920	2.855	3.057	2.799	3.225	2.956	2.809	3.037	2.871	2.899	2.843	2.829	3.145	2.876	2.946	3.119	2.768	3.230
235.0	195.3	185.2	419.6	 1407	 1252	213.1	88.48	69.15	57.25	53.26	33.51	41.22	42.14	31.92	22.19	17.76	19.03	14.44	11.67	11.65	11.58	11.19	10.78	8.581	8.774	7.422	6.844	7.201	8.188	5.996	5.995	6.082	6.208	4.934	5.191	4.393	4.871	3.811	4.805	3.726	3.308	3.767	3.998	3.849	3.895	3.693	3.094	3.133	3.107	3.500	5.192	5.890	4.102	3.126	3.047	3.018	3.246	3.690	3.392	2.817	2.729	2.921	3.052	2.757	3.115	2.477	2.832	2.881	2.972	3.022	2.813	2.815	3.374	2.528	3.078	2.812	3.082
240.0	182.3	197.9	205.7	692.5	 1970	 1214	184.9	58.14	61.63	51.69	41.60	41.37	34.65	32.49	26.33	19.40	19.20	14.33	15.64	12.05	10.25	11.81	9.088	8.299	8.250	8.079	7.973	7.963	7.112	5.570	5.580	5.712	5.521	6.105	4.269	5.231	4.903	4.069	4.068	4.047	3.990	4.158	3.768	3.620	4.387	3.920	3.079	2.863	3.384	2.934	3.826	5.684	6.592	5.856	4.168	3.402	2.779	3.541	3.245	2.926	2.743	2.795	3.076	3.026	3.318	2.557	2.946	2.836	3.184	2.967	2.421	2.791	3.110	2.989	2.908	3.038	3.659
245.0	234.7	199.7	163.7	279.0	 1054	 2326	 1196	109.2	67.47	50.44	45.19	39.50	34.12	29.83	26.62	19.07	18.00	14.04	15.13	12.10	10.45	10.77	8.708	9.371	8.551	7.956	7.927	7.842	6.959	6.522	6.014	5.747	4.412	5.985	4.649	5.066	4.853	4.472	4.652	4.179	4.190	3.809	3.608	2.797	3.815	3.941	3.604	3.018	3.027	3.277	2.864	3.955	4.753	7.187	7.855	5.956	3.270	3.022	2.979	2.759	2.822	2.805	3.150	2.879	3.259	3.049	2.478	3.195	2.892	2.884	2.577	2.743	2.833	2.952	3.122	3.241	3.305
250.0	204.9	184.8	170.2	199.9	352.3	 1137	 2483	 1735	343.2	56.30	47.77	40.82	33.29	31.93	28.80	18.82	17.52	12.44	14.99	12.38	11.44	10.52	9.010	8.959	8.832	8.077	7.806	7.666	6.678	6.725	6.719	6.210	4.908	5.168	4.494	4.802	4.643	5.108	4.431	4.061	3.987	4.003	4.251	3.729	3.931	3.913	3.084	3.300	2.836	2.767	2.719	3.137	3.172	4.567	5.494	6.847	7.829	7.301	5.331	3.525	2.843	2.758	3.112	2.984	2.600	3.052	3.100	2.882	3.008	2.839	2.887	2.608	3.137	2.434	2.867	3.172	2.923
255.0	221.5	143.3	178.4	181.6	214.6	334.5	864.9	 2963	 2271	388.4	58.93	37.23	41.28	33.54	28.92	22.06	15.81	14.97	13.45	14.80	10.70	10.34	10.80	9.442	7.396	8.102	6.934	7.835	7.619	6.258	6.321	6.020	5.836	4.410	5.313	5.183	4.458	4.707	4.318	4.436	4.574	4.730	3.973	3.439	3.934	3.231	2.714	3.148	3.167	2.385	2.263	3.220	3.255	3.184	3.581	3.765	4.886	6.709	9.910	9.487	5.893	3.051	2.967	2.922	2.573	3.033	3.314	3.114	3.018	2.639	3.124	3.008	3.470	2.779	3.123	3.349	3.279
260.0	194.0	153.2	154.6	158.7	209.6	200.9	270.6	 1260	 3939	 1920	220.5	41.62	38.29	34.20	27.28	24.55	18.04	12.88	12.55	14.09	11.23	10.53	10.07	11.45	7.815	8.420	6.164	7.038	7.216	7.452	6.330	4.881	5.311	4.866	4.753	4.463	4.420	4.503	3.879	4.150	5.118	4.793	3.715	3.754	3.738	3.011	2.900	2.996	2.813	2.779	2.328	3.295	3.395	2.993	3.717	3.614	3.621	3.973	6.370	9.580	11.67	8.979	5.188	3.291	2.477	2.388	2.678	3.324	3.426	2.813	2.574	3.345	3.430	2.884	3.287	3.123	2.788
265.0	188.9	214.3	137.0	120.1	185.5	226.6	148.9	352.6	 1865	 4301	 1552	101.5	36.03	33.44	24.79	22.12	17.88	13.52	13.54	11.55	10.68	10.75	9.424	10.23	8.336	7.588	6.119	7.105	7.029	6.018	7.104	5.487	6.205	5.118	4.791	4.670	4.277	4.557	3.585	4.128	3.888	4.348	4.236	3.368	3.739	3.081	3.162	2.767	2.590	2.465	2.623	3.316	2.840	3.697	3.281	3.037	2.872	3.339	3.823	5.084	7.821	11.86	12.80	8.423	3.419	2.892	2.685	3.263	3.393	2.660	2.553	2.794	3.084	3.037	3.233	3.007	3.151
270.0	194.4	189.4	146.1	142.3	136.1	178.3	228.3	192.1	495.7	 1809	 3597	 2785	359.3	34.38	26.90	24.44	18.17	13.87	13.33	12.23	11.50	9.989	9.054	9.594	8.332	8.405	7.459	7.314	6.942	6.650	6.872	5.859	5.984	4.865	4.813	4.351	4.535	4.792	3.946	3.911	3.696	3.913	4.048	3.634	3.533	3.232	3.174	3.295	3.110	2.320	2.744	3.042	2.764	3.319	3.306	3.047	3.435	3.470	3.317	3.536	4.146	6.050	8.336	10.86	12.87	10.90	6.503	3.360	3.278	2.948	2.988	2.778	3.171	2.769	3.044	2.750	3.191
275.0	203.1	187.0	159.7	135.8	125.7	134.4	203.8	288.1	223.8	470.4	 1081	 3934	 4226	372.0	26.14	23.24	19.95	15.57	14.15	13.16	13.21	10.34	10.33	10.29	8.328	8.186	7.448	7.602	7.752	7.075	6.937	6.995	7.009	4.570	5.412	4.548	4.518	4.618	3.841	3.160	3.377	3.930	4.122	4.010	3.749	3.497	3.055	3.474	3.162	2.372	2.765	3.340	2.980	2.682	3.024	2.866	3.118	4.157	3.188	3.219	2.949	3.485	4.202	4.908	6.383	11.13	17.02	16.24	7.256	3.844	3.458	2.565	2.889	2.632	2.499	3.025	3.212
280.0	178.9	154.5	175.9	154.7	139.6	117.3	139.9	295.4	317.2	185.6	346.2	 1449	 5275	 3391	161.9	24.58	20.19	18.09	14.67	12.19	12.48	10.17	10.91	10.74	8.084	9.001	6.958	7.667	7.091	7.724	5.511	6.435	6.244	5.085	5.009	4.320	4.398	4.845	4.340	4.315	3.692	4.026	3.539	3.802	4.290	3.981	3.270	2.983	2.865	2.536	2.563	2.608	2.824	2.966	2.942	4.258	3.259	3.828	3.678	3.667	3.270	3.047	3.375	3.298	3.513	5.177	9.063	17.42	19.41	12.01	5.451	2.979	2.638	3.057	2.952	3.264	3.187
285.0	225.0	163.7	194.6	141.8	160.7	126.4	125.3	192.6	397.8	250.0	196.0	471.4	 2234	 6033	942.3	63.61	20.60	19.03	13.31	13.09	12.57	9.849	11.14	10.46	9.524	8.104	7.793	7.487	7.631	6.582	6.618	5.365	5.302	5.165	5.518	4.003	4.521	4.466	4.126	4.092	3.759	3.687	3.767	4.431	4.729	4.024	3.311	3.443	2.622	2.489	2.632	2.299	3.386	2.969	2.628	3.404	3.210	3.412	3.233	3.509	4.070	3.645	3.051	2.823	3.143	3.196	4.601	7.199	13.52	20.50	18.82	8.038	3.365	3.316	2.327	3.293	3.383
290.0	224.5	182.3	186.5	154.6	155.5	145.2	143.9	145.4	258.0	450.1	349.3	289.7	683.5	 2367	 4301	 2777	224.6	20.60	14.17	12.85	12.11	10.72	10.08	10.07	9.904	7.533	7.356	7.049	7.285	7.707	6.141	5.282	5.565	5.394	5.289	4.094	4.610	4.213	4.207	3.547	3.810	3.801	3.742	3.940	3.771	3.850	3.485	3.493	3.095	2.833	2.831	2.556	3.133	2.982	2.680	3.358	3.237	3.041	3.051	3.489	3.699	3.923	3.936	3.629	3.475	3.388	3.707	4.328	5.845	8.493	12.82	15.31	16.31	12.58	6.993	3.933	3.383
295.0	194.3	215.2	191.4	176.7	179.8	153.3	150.8	162.9	173.8	284.0	583.2	428.2	366.6	669.1	 1272	 4508	 3949	249.7	17.42	15.69	11.95	10.97	10.82	10.13	9.733	7.251	7.450	6.307	7.305	6.985	5.905	6.391	5.861	5.140	4.180	4.536	5.077	4.667	4.127	3.802	4.159	3.825	3.691	3.647	3.766	3.524	3.079	3.520	3.008	2.602	2.759	3.096	3.022	3.047	2.912	3.053	2.951	3.506	3.092	3.154	2.975	3.974	3.597	3.637	4.668	3.423	3.246	3.129	4.285	4.227	5.135	5.832	7.860	14.36	21.45	17.21	8.211
300.0	208.9	250.6	214.3	212.1	180.8	179.7	158.1	149.1	181.3	222.7	478.7	684.8	378.2	306.5	383.7	 1636	 5601	 3058	109.0	15.44	12.23	11.20	9.676	10.19	9.457	8.923	7.020	7.077	8.459	6.817	7.313	5.471	5.741	5.411	5.070	4.836	5.288	4.625	4.151	3.493	3.874	4.685	4.061	4.508	3.627	2.957	2.828	3.372	2.938	2.909	2.604	3.108	2.858	3.252	3.046	2.994	3.176	3.197	3.117	3.080	3.197	3.601	3.277	3.475	4.820	4.130	4.288	3.452	3.679	3.322	3.432	3.959	4.481	6.453	11.87	21.58	23.81
305.0	243.5	252.3	245.7	187.0	172.8	165.1	180.8	167.9	210.6	235.4	348.9	709.8	605.0	277.9	211.6	459.0	 2410	 6391	529.3	39.21	13.68	11.94	10.81	10.96	9.225	8.582	7.185	6.905	6.486	6.892	7.199	7.070	5.471	4.905	5.496	4.273	5.254	4.437	4.055	4.368	3.662	4.424	4.226	3.692	3.553	3.513	3.179	3.321	3.141	2.720	2.842	3.688	2.968	3.274	2.608	3.258	3.517	3.392	3.929	3.192	3.190	3.425	3.389	2.875	4.038	4.061	4.526	4.211	3.368	3.235	3.612	3.855	3.713	4.073	5.454	8.960	16.87
310.0	230.0	228.6	249.4	212.0	182.4	169.5	191.4	188.0	222.3	254.1	349.4	490.0	683.4	499.0	227.5	209.6	627.5	 2662	 4139	 1902	152.3	14.44	12.04	11.35	9.621	8.156	8.395	7.880	6.334	7.455	6.448	6.402	5.798	5.053	5.206	4.623	4.272	4.247	4.131	4.123	3.639	4.421	4.298	3.616	3.295	3.822	3.014	3.276	3.107	2.939	2.552	3.520	3.091	3.092	2.698	3.106	3.743	3.385	3.549	3.394	3.575	3.277	3.222	3.050	3.403	3.626	3.608	4.743	4.550	3.929	3.977	3.915	3.308	3.532	3.752	4.993	6.358
315.0	220.3	250.7	258.8	203.4	191.2	183.7	185.1	198.4	239.6	261.7	350.8	414.9	495.5	651.2	438.3	175.6	224.3	655.4	 1284	 4400	 2805	168.5	13.26	10.85	9.741	8.547	9.041	7.978	6.108	6.986	7.279	5.660	6.002	4.376	5.243	4.313	4.724	4.748	4.281	4.578	4.368	3.887	4.301	3.529	3.664	3.393	3.109	2.957	3.065	3.122	2.634	3.234	3.044	3.261	2.817	3.203	3.761	3.263	3.827	3.220	3.505	3.688	3.024	3.548	3.849	4.118	3.990	4.375	3.984	3.902	4.516	4.009	3.860	3.692	3.205	3.620	4.003
320.0	236.6	244.4	257.9	265.7	227.2	212.0	222.0	221.2	261.0	300.9	356.9	409.9	435.0	500.3	612.2	285.0	159.4	217.6	338.3	 1755	 5100	 2066	74.92	11.17	11.24	8.421	7.840	8.569	7.430	7.459	6.660	5.256	6.718	5.268	5.314	4.572	4.281	4.804	4.982	4.968	3.802	3.626	3.972	3.480	3.735	3.135	2.855	3.065	3.133	2.405	2.571	2.984	2.770	3.534	2.869	3.706	3.654	3.053	3.373	3.237	3.276	3.019	3.272	3.575	3.957	4.044	3.950	3.878	4.123	3.559	4.406	5.139	4.747	3.716	3.513	3.125	3.333
325.0	222.5	248.6	315.5	284.8	303.1	244.2	276.5	263.2	284.7	336.9	375.7	406.7	439.2	410.8	538.0	470.8	177.4	126.5	132.3	448.7	 2507	 4922	361.7	25.65	11.08	10.38	7.847	8.129	7.166	7.520	7.341	6.155	6.506	6.054	5.402	4.669	4.749	4.683	4.381	4.352	3.273	4.345	4.588	3.688	3.671	3.213	3.166	3.311	3.167	2.761	2.637	3.285	3.121	3.380	3.060	3.492	3.667	3.272	3.792	3.621	3.571	2.867	3.367	4.167	3.793	3.419	3.790	3.450	3.654	3.730	4.188	4.558	5.189	4.369	4.003	3.212	3.308
330.0	245.3	312.3	366.7	412.3	417.4	433.6	438.4	423.0	414.5	406.0	408.9	429.1	440.3	399.1	405.6	481.7	378.4	165.9	104.2	157.6	629.8	 2289	 3611	 1366	103.8	11.32	9.879	8.542	8.402	7.400	6.933	6.092	6.468	6.130	5.338	5.117	4.661	4.547	4.594	4.378	3.917	4.367	4.174	4.134	3.967	3.611	3.466	3.849	3.313	3.206	2.927	3.676	3.404	3.983	3.374	3.530	3.728	3.498	3.672	4.290	3.710	3.806	3.811	3.651	3.791	3.605	3.866	4.002	3.749	4.132	4.021	4.169	4.136	4.189	4.535	4.061	3.968
335.0	273.4	330.0	467.0	550.4	637.7	655.5	714.2	640.1	613.1	549.2	486.1	446.0	467.1	430.5	387.0	368.8	436.3	354.2	150.4	114.8	202.0	554.3	 1262	 4095	 2061	120.4	11.67	8.635	7.945	7.908	7.627	6.242	5.688	6.538	5.101	4.725	4.709	4.244	4.862	4.093	3.648	4.935	4.099	4.244	4.242	3.897	3.809	4.109	3.619	3.159	3.336	4.108	4.065	4.354	3.933	4.393	4.634	4.476	4.064	4.223	4.463	3.984	4.040	3.928	3.869	3.840	3.587	4.095	4.045	3.991	3.374	3.624	3.300	4.574	3.821	4.191	4.458
340.0	313.3	392.5	592.7	711.7	830.1	854.0	971.9	879.7	717.7	652.2	542.8	493.5	511.3	424.8	405.4	337.7	340.5	455.2	255.8	120.2	119.9	179.7	326.1	 1861	 4617	 1592	56.67	8.865	9.828	8.270	8.496	5.857	7.711	5.848	5.333	5.152	5.075	4.706	5.030	4.246	4.057	4.804	4.394	4.340	3.699	3.545	4.101	4.129	3.896	3.138	3.511	4.333	4.958	4.711	4.326	4.835	4.619	5.208	4.393	4.455	4.146	4.929	4.141	3.747	3.812	3.991	3.935	4.304	3.724	3.543	3.733	4.000	4.195	3.988	3.175	3.825	3.805
345.0	326.6	430.3	662.7	804.8	 1028	 1109	 1167	 1041	868.0	740.3	593.4	497.7	487.2	420.1	411.8	340.9	306.4	380.2	400.7	189.8	113.5	104.6	122.9	481.1	 2641	 4447	283.5	23.13	9.652	9.626	8.292	7.557	6.458	6.511	5.875	5.085	4.633	4.719	5.435	3.995	3.729	3.643	4.454	4.288	3.866	3.763	3.583	4.270	3.746	3.518	3.930	4.466	5.061	4.747	4.646	5.365	5.193	5.942	4.777	4.726	4.749	4.518	4.750	4.022	3.638	3.745	3.816	3.966	3.506	4.317	4.450	3.959	4.041	3.569	3.724	3.527	3.545
350.0	328.3	444.9	712.6	955.4	 1153	 1365	 1380	 1233	 1014	853.5	645.0	505.0	488.1	437.5	426.4	370.5	318.7	311.5	373.8	343.0	183.6	115.2	98.44	162.2	679.1	 2342	 3417	 1126	91.79	11.18	8.155	8.210	6.554	6.438	5.722	4.803	4.544	3.993	4.363	4.404	3.943	4.258	4.352	4.190	3.930	4.023	3.628	3.843	4.306	3.528	4.220	5.067	5.390	5.740	5.328	6.400	6.617	6.547	5.475	5.156	4.869	4.726	4.743	4.674	4.212	4.184	3.891	3.949	3.609	4.135	4.025	3.949	3.801	3.812	4.212	3.745	4.134
355.0	326.9	450.5	763.5	 1073	 1298	 1549	 1478	 1378	 1175	942.1	691.7	507.6	490.1	456.7	442.6	382.2	325.7	310.2	314.8	354.8	339.9	170.9	119.4	114.1	209.3	566.2	 1389	 3889	 1735	99.60	9.801	8.329	6.675	6.354	5.861	5.166	5.505	4.309	4.385	4.444	3.845	4.558	4.305	4.016	4.274	4.413	3.561	3.661	4.134	3.772	4.306	5.384	5.655	5.560	5.350	6.897	6.695	6.864	5.537	5.444	5.053	4.993	4.893	4.468	4.244	3.835	3.669	4.149	3.679	3.862	3.933	3.331	4.376	3.955	3.772	3.880	4.152
360.0	349.7	419.9	745.5	 1087	 1323	 1607	 1621	 1438	 1262	989.4	706.1	520.8	477.3	458.2	439.5	401.9	358.5	332.6	306.7	315.6	388.4	272.5	151.0	123.3	124.7	184.1	362.8	 1952	 4215	 1311	42.54	9.314	6.802	7.721	5.588	5.088	4.944	4.482	4.574	4.813	4.483	4.113	4.118	3.557	4.195	3.940	3.649	3.967	4.016	4.007	4.177	5.581	5.622	5.741	5.821	6.592	7.219	6.436	6.140	5.672	5.240	4.930	4.669	4.209	4.177	4.092	3.987	4.158	4.480	4.747	3.772	3.768	4.363	4.023	3.833	3.770	3.646
365.0	313.4	432.9	718.5	 1041	 1371	 1634	 1704	 1491	 1276	986.4	726.2	516.6	491.9	469.5	439.1	407.2	374.3	344.9	328.6	301.0	337.1	367.3	224.9	145.7	119.0	114.1	135.2	515.0	 2580	 4011	243.1	18.38	7.874	7.380	5.948	4.238	4.217	4.707	4.545	4.548	4.288	4.582	4.029	3.272	3.838	5.084	3.568	4.299	4.143	3.851	4.329	5.437	5.682	6.613	6.748	6.581	6.611	6.334	5.625	5.545	6.104	5.345	4.790	4.451	4.257	4.425	4.037	4.169	4.771	3.923	4.156	3.616	4.293	3.966	3.846	4.286	4.220
370.0	311.4	465.0	763.4	 1066	 1418	 1584	 1640	 1489	 1247	 1003	712.1	522.1	479.1	473.5	454.0	429.9	388.4	369.4	350.6	313.3	312.7	351.3	349.8	223.2	151.0	121.0	100.7	166.2	671.4	 2236	 3222	961.3	75.65	7.564	6.415	5.339	4.721	4.825	4.848	4.957	4.035	4.794	4.178	3.575	3.820	3.891	3.383	3.875	3.795	4.040	4.301	5.585	6.017	6.455	6.532	6.495	6.530	6.358	5.653	5.626	5.507	5.013	4.784	4.634	4.533	4.055	3.897	3.831	4.169	3.990	4.604	3.837	4.272	3.785	4.044	3.922	4.539
375.0	280.8	455.1	687.2	951.5	 1323	 1509	 1534	 1401	 1181	933.5	695.8	522.3	481.3	464.6	451.6	430.3	398.1	390.4	372.5	342.4	321.2	316.2	349.1	348.1	210.8	150.4	116.0	108.1	200.0	536.3	 1357	 3667	 1442	81.74	8.058	5.974	5.242	5.531	4.794	4.874	4.368	3.942	4.381	4.046	4.153	4.770	3.624	4.059	4.183	4.105	4.034	5.327	5.642	6.827	6.376	6.528	6.846	5.368	5.403	5.461	4.776	4.643	4.911	4.495	4.176	4.007	3.665	4.118	4.445	4.423	3.705	4.239	4.345	4.116	4.348	3.736	4.950
380.0	301.1	451.0	631.0	963.4	 1266	 1465	 1520	 1310	 1080	903.0	672.5	512.7	475.7	471.1	463.3	440.8	411.8	413.9	388.3	360.2	336.8	322.7	317.5	370.6	305.6	185.6	135.6	108.0	106.2	163.3	349.4	 1909	 3828	 1110	35.26	6.837	5.458	4.783	4.425	5.378	4.317	4.136	4.010	3.994	4.129	4.317	3.512	4.381	3.975	3.991	4.188	5.294	5.150	5.601	6.128	6.402	6.036	6.362	5.264	5.533	5.388	4.506	4.657	4.747	4.460	3.850	3.903	3.974	4.362	4.201	3.488	3.802	4.596	4.322	4.532	4.790	3.893
385.0	293.1	402.0	639.0	934.4	 1186	 1350	 1369	 1258	 1013	839.7	661.3	508.8	485.9	463.4	459.4	446.1	423.2	411.6	405.9	387.3	360.6	338.0	312.0	334.8	372.1	240.8	162.4	120.0	99.18	91.74	116.6	500.1	 2444	 3510	190.8	13.21	6.052	4.883	5.031	4.659	4.070	4.626	3.668	4.243	4.555	4.009	3.946	4.328	4.356	3.845	4.113	5.058	5.993	5.866	5.785	5.349	5.996	5.792	5.006	5.761	4.550	4.537	4.286	4.403	3.939	4.120	4.321	4.046	4.192	3.572	3.371	3.744	4.597	4.493	4.219	4.394	4.037
390.0	289.0	393.3	601.6	826.1	 1087	 1202	 1265	 1117	945.6	794.8	629.3	498.0	467.1	462.1	450.2	439.2	422.0	421.6	406.8	397.6	376.1	349.9	328.0	313.3	339.9	324.4	230.9	153.7	118.8	94.10	80.69	152.3	639.3	 1980	 2764	729.2	59.43	6.343	5.309	4.651	4.613	4.471	4.259	4.748	4.041	4.680	3.972	3.941	4.292	3.308	3.981	4.790	5.226	5.244	4.977	5.728	5.455	5.865	5.141	4.382	4.209	4.450	4.483	4.198	4.088	3.918	3.998	3.785	4.056	4.468	3.745	4.249	4.228	4.175	4.080	4.125	4.339
395.0	294.8	370.0	555.9	759.1	923.1	 1097	 1116	977.1	838.7	748.2	580.5	479.7	453.0	456.3	445.8	429.2	416.2	420.4	413.3	404.9	383.2	357.5	341.9	323.2	308.4	315.8	317.0	213.0	149.6	116.4	91.00	87.55	181.1	469.4	 1191	 2918	 1146	66.92	6.801	5.969	4.540	4.583	4.507	4.280	3.640	4.191	3.791	4.073	3.998	3.753	3.609	4.526	4.817	5.015	5.113	5.067	5.283	4.949	4.637	4.561	4.622	4.372	4.061	4.501	4.170	3.865	3.491	3.846	4.229	3.854	4.002	3.911	4.250	4.050	3.997	3.418	4.173
400.0	281.8	364.7	529.1	718.6	878.1	981.8	976.3	908.5	771.0	690.5	561.0	468.9	451.7	442.5	454.8	415.6	414.3	424.5	406.4	394.3	382.7	367.8	356.3	330.9	306.3	294.0	326.0	276.6	181.1	136.0	106.6	83.91	84.41	138.8	301.3	 1490	 2978	907.7	31.21	6.228	5.217	4.789	3.552	4.452	4.288	4.111	3.508	3.292	4.207	3.083	3.729	4.296	4.432	5.134	4.144	4.410	5.007	4.959	4.911	5.355	4.575	4.333	4.097	4.377	4.458	3.692	3.552	3.738	4.102	3.817	3.952	4.061	4.233	4.104	4.377	4.533	4.131
405.0	269.6	337.2	497.5	648.1	784.0	891.1	956.0	817.3	726.7	641.1	513.4	478.4	445.0	441.2	440.5	417.8	401.2	406.3	399.4	390.5	387.2	372.3	364.1	337.9	308.5	289.0	300.4	313.4	230.6	158.2	121.3	92.73	75.30	70.74	95.66	388.8	 1815	 2796	160.9	12.56	5.726	4.700	4.446	4.178	4.217	5.129	3.411	3.581	3.498	3.539	3.542	4.554	4.892	4.533	4.307	4.824	5.160	4.553	5.030	5.993	4.527	4.273	4.187	3.726	3.797	3.277	3.394	3.994	4.315	4.117	3.973	4.057	4.202	4.173	4.089	4.290	4.051
