Sample:	'1
File name:	Default_20211125_160439.FD3
Run date:	'15:58:18, 11/25/2021
Operator:	user
Comment:	'

Instrument
Model:	F-2700 FL Spectrophotometer
Serial number:	2190-003
ROM Version:	4J14000 07

Instrument parameters
Measurement type:	3-D scan
Data mode:	Fluorescence
EX  Start WL:	220.0 nm
EX  End WL:	600.0 nm
EX Sampling interval:	5.0 nm
EM  Start WL:	230.0 nm
EM  End WL:	650.0 nm
EM Sampling interval:	5.0 nm
Scan speed:	12000 nm/min
EX Slit:	5.0 nm
EM Slit:	5.0 nm
PMT Voltage:	700 V
Response:	Auto 
Corrected spectra:	Off
Contour interval:	50.000

Peak integration
Integration method:	Rectangular
Sensitivity:	1
Threshold:	1.000

Peaks
No.	ApexEX/EM(nm)	Height(Data)
1	225.0/580.0	81.25
2	225.0/590.0	97.22
3	230.0/265.0	412.3
4	230.0/530.0	150.2
5	235.0/255.0	525.6
6	235.0/510.0	222.6
7	235.0/550.0	103.5
8	235.0/625.0	84.33
9	240.0/260.0	505.0
10	240.0/520.0	220.5
11	240.0/565.0	89.84
12	245.0/265.0	381.0
13	245.0/365.0	 2053
14	245.0/535.0	207.7
15	250.0/270.0	388.0
16	250.0/545.0	172.2
17	255.0/280.0	510.6
18	255.0/555.0	149.5
19	260.0/565.0	128.0
20	265.0/580.0	132.8
21	265.0/625.0	198.6
22	270.0/315.0	 3541
23	270.0/605.0	203.4
24	270.0/615.0	201.5
25	275.0/600.0	212.7
26	275.0/610.0	204.7
27	305.0/340.0	474.6
28	310.0/350.0	374.3
29	315.0/355.0	353.1
30	320.0/360.0	370.2
31	325.0/365.0	347.3
32	330.0/375.0	341.5
33	335.0/380.0	371.2
34	340.0/385.0	356.1
35	350.0/400.0	305.8
36	355.0/405.0	290.2
37	365.0/420.0	238.9
38	370.0/425.0	229.6
39	415.0/485.0	55.56
40	430.0/505.0	33.76
41	435.0/510.0	27.38
42	440.0/515.0	23.80
43	445.0/525.0	20.06
44	460.0/545.0	11.27
45	480.0/260.0	2.676
46	485.0/265.0	3.287
47	495.0/270.0	3.114
48	495.0/355.0	9.960
49	505.0/275.0	4.077
50	510.0/280.0	4.836
51	515.0/285.0	5.124
52	535.0/315.0	17.97

Data points
	220.0	225.0	230.0	235.0	240.0	245.0	250.0	255.0	260.0	265.0	270.0	275.0	280.0	285.0	290.0	295.0	300.0	305.0	310.0	315.0	320.0	325.0	330.0	335.0	340.0	345.0	350.0	355.0	360.0	365.0	370.0	375.0	380.0	385.0	390.0	395.0	400.0	405.0	410.0	415.0	420.0	425.0	430.0	435.0	440.0	445.0	450.0	455.0	460.0	465.0	470.0	475.0	480.0	485.0	490.0	495.0	500.0	505.0	510.0	515.0	520.0	525.0	530.0	535.0	540.0	545.0	550.0	555.0	560.0	565.0	570.0	575.0	580.0	585.0	590.0	595.0	600.0
230.0	87.36	179.3	 1334	 1222	119.1	25.07	20.04	16.42	15.16	12.87	11.54	10.41	8.803	7.032	5.917	5.047	4.512	3.678	3.350	3.220	3.113	2.791	2.672	2.391	2.436	2.345	2.128	2.056	2.154	2.104	2.066	1.961	1.888	1.708	1.531	1.596	1.567	1.511	1.652	1.527	1.407	1.445	1.357	1.380	1.314	1.297	1.280	2.440	5.063	5.276	2.856	1.369	1.122	1.211	1.153	1.226	1.232	1.186	1.181	1.351	1.246	1.308	1.278	1.188	1.322	1.284	1.302	1.238	1.351	1.278	1.318	1.277	1.335	1.315	1.347	1.447	1.394
235.0	118.4	98.92	534.2	 1877	 1383	140.7	20.89	17.24	15.57	13.48	12.12	10.74	8.878	7.587	6.238	5.109	4.175	4.054	3.584	2.808	3.213	2.882	2.472	2.434	2.534	2.371	2.181	1.923	1.927	2.162	1.949	2.126	1.878	1.704	1.478	1.634	1.730	1.332	1.417	1.382	1.307	1.315	1.576	1.363	1.351	1.367	1.199	1.457	2.414	4.047	6.329	7.265	3.466	1.585	1.042	1.180	1.241	1.216	1.315	1.207	1.258	1.284	1.303	1.173	1.425	1.278	1.389	1.278	1.367	1.283	1.436	1.458	1.245	1.219	1.353	1.349	1.367
240.0	128.4	121.5	180.0	928.6	 2337	507.3	86.63	19.24	16.57	13.85	12.39	11.59	8.663	7.666	6.108	5.546	4.603	4.102	3.692	3.307	3.076	2.975	2.740	2.624	2.542	2.377	2.188	2.139	2.163	1.973	2.082	1.880	1.750	1.861	1.553	1.406	1.713	1.530	1.508	1.474	1.375	1.324	1.485	1.495	1.436	1.506	1.231	1.220	1.446	1.808	3.431	7.780	10.02	7.186	2.860	1.311	1.297	1.300	1.291	1.161	1.216	1.246	1.349	1.222	1.281	1.378	1.352	1.325	1.307	1.262	1.328	1.564	1.258	1.313	1.451	1.251	1.632
245.0	111.0	135.5	134.1	272.7	 1341	 2466	418.7	43.71	17.46	13.81	12.27	10.85	9.157	8.265	6.229	6.045	4.614	4.086	3.423	3.619	3.148	3.123	2.817	2.901	2.373	2.293	2.143	2.232	2.286	2.018	2.116	1.877	1.851	1.682	1.767	1.491	1.494	1.712	1.513	1.365	1.306	1.469	1.462	1.431	1.438	1.318	1.389	1.459	1.245	1.220	1.604	3.294	6.878	11.17	11.59	7.803	2.127	1.427	1.303	1.215	1.318	1.223	1.303	1.325	1.385	1.362	1.338	1.295	1.360	1.375	1.372	1.397	1.230	1.305	1.318	1.396	1.523
250.0	95.18	102.3	180.4	203.8	372.9	 1278	 2301	 1398	157.0	15.33	13.77	10.86	9.736	8.029	6.489	5.675	4.598	4.407	3.756	3.620	3.385	2.993	2.858	2.603	2.356	2.488	2.317	2.165	2.194	2.298	1.987	1.900	1.898	1.873	1.597	1.542	1.505	1.513	1.569	1.446	1.432	1.527	1.405	1.485	1.392	1.310	1.322	1.529	1.644	1.536	1.360	1.734	2.461	4.331	7.268	13.94	13.46	11.21	5.693	2.090	1.284	1.289	1.367	1.188	1.394	1.217	1.259	1.268	1.318	1.310	1.244	1.429	1.347	1.320	1.398	1.511	1.460
255.0	89.53	73.04	106.2	525.6	278.1	323.4	861.2	 2980	 4587	155.4	16.92	12.54	10.13	8.786	6.991	5.510	4.637	4.105	3.627	3.593	3.308	2.888	2.915	2.776	2.549	2.597	2.399	2.150	2.241	2.091	1.861	1.895	1.898	1.807	1.528	1.592	1.625	1.555	1.653	1.573	1.437	1.391	1.353	1.481	1.373	1.232	1.251	1.260	1.298	1.549	1.972	2.269	1.620	1.964	2.531	4.229	5.898	12.88	20.55	18.50	8.127	1.971	1.509	1.287	1.317	1.360	1.378	1.270	1.320	1.430	1.353	1.350	1.488	1.312	1.432	1.391	1.386
260.0	80.39	63.86	90.97	229.6	505.0	208.8	232.2	 1332	 6057	 1749	99.70	15.44	11.53	9.002	6.737	6.601	5.487	4.112	4.060	3.766	3.170	2.967	2.877	2.643	2.675	2.426	2.347	2.246	2.310	2.055	2.210	2.029	1.885	1.862	1.563	1.576	1.563	1.669	1.563	1.436	1.497	1.485	1.416	1.466	1.519	1.239	1.196	1.309	1.179	1.132	1.445	2.658	2.676	1.874	1.473	1.893	2.182	4.551	10.55	21.02	28.25	17.72	4.696	1.312	1.286	1.391	1.349	1.357	1.443	1.320	1.321	1.377	1.474	1.354	1.419	1.325	1.437
265.0	84.95	66.53	412.3	96.77	311.3	381.0	128.9	359.8	 2816	 4840	 1352	43.00	12.67	9.088	7.880	6.111	5.404	4.431	4.185	3.761	3.105	3.030	2.874	2.780	2.474	2.449	2.239	2.341	2.330	2.233	2.048	1.993	1.928	2.062	1.484	1.630	1.652	1.537	1.458	1.409	1.607	1.430	1.620	1.393	1.391	1.206	1.314	1.108	1.104	0.973	1.169	1.782	2.553	3.287	2.442	1.597	1.505	2.076	3.643	7.492	17.98	30.53	25.97	11.93	2.419	1.518	1.389	1.496	1.397	1.210	1.354	1.289	1.395	1.349	1.363	1.375	1.466
270.0	90.31	65.19	132.2	52.69	117.8	314.3	388.0	185.8	708.9	 2189	 4396	 2669	83.61	12.17	8.761	6.868	5.679	4.846	4.451	3.930	3.375	3.076	3.042	2.899	2.597	2.465	2.596	2.330	2.130	2.268	2.179	2.062	1.954	1.852	1.675	1.636	1.588	1.620	1.567	1.377	1.519	1.365	1.447	1.414	1.470	1.363	1.342	1.338	1.179	0.959	1.021	1.248	1.519	2.153	2.801	3.114	2.776	1.873	1.911	2.712	5.368	10.31	16.93	23.34	26.76	18.33	8.963	2.217	1.372	1.376	1.341	1.215	1.392	1.297	1.391	1.472	1.374
275.0	95.20	65.00	76.42	46.28	55.51	111.8	329.2	386.4	254.2	534.6	 1443	 5228	 4244	92.40	11.05	8.020	6.105	4.955	4.628	3.484	3.756	3.069	2.912	3.002	2.824	2.518	2.370	2.334	2.460	2.275	2.031	2.213	1.913	1.798	1.982	1.751	1.570	1.601	1.526	1.484	1.363	1.377	1.221	1.392	1.526	1.435	1.264	1.267	1.047	1.073	0.998	1.145	1.138	1.444	1.689	2.159	3.641	4.077	3.074	1.816	2.344	3.576	4.961	6.694	11.00	25.44	39.81	25.82	8.468	1.751	1.424	1.474	1.405	1.297	1.329	1.569	1.484
280.0	99.95	83.23	65.54	53.73	45.67	59.15	142.8	510.6	335.9	186.4	388.9	 2065	 6746	 1123	58.45	9.608	7.174	5.843	4.754	3.995	3.700	3.417	2.788	2.697	2.825	2.708	2.360	2.150	2.520	2.025	2.293	2.269	1.840	1.806	1.743	1.545	1.508	1.632	1.438	1.524	1.310	1.383	1.329	1.414	1.525	1.312	1.327	1.194	1.206	1.067	0.981	1.201	1.180	1.282	1.327	1.494	2.103	3.432	4.836	3.890	2.279	1.821	2.311	2.641	3.654	7.979	18.98	33.98	31.99	19.96	5.093	1.496	1.360	1.239	1.418	1.475	1.616
285.0	108.9	108.3	79.80	62.02	53.02	47.94	73.96	276.6	654.7	249.4	176.2	577.2	 3198	 6625	827.7	23.23	8.275	6.673	5.021	3.924	3.805	3.396	2.940	2.692	2.697	2.589	2.643	2.383	2.326	2.170	2.176	2.150	1.833	1.973	1.817	1.685	1.463	1.628	1.579	1.419	1.459	1.437	1.377	1.467	1.354	1.340	1.415	1.148	1.289	1.065	1.112	1.237	1.188	1.380	1.300	1.449	1.493	2.003	3.162	5.124	4.751	2.688	1.894	1.980	2.182	3.365	5.772	11.88	24.55	39.71	29.82	12.20	2.482	1.503	1.544	1.529	1.425
290.0	132.2	134.3	126.9	105.3	105.1	173.5	156.7	247.4	528.8	791.1	514.0	415.9	988.2	 3157	 5271	 2263	45.70	8.142	5.924	4.563	4.286	3.664	3.073	3.132	2.848	2.697	2.567	2.544	2.383	2.291	2.246	2.051	1.936	2.017	1.730	1.764	1.486	1.617	1.576	1.488	1.463	1.549	1.527	1.351	1.468	1.507	1.385	1.406	1.326	1.169	1.249	1.414	1.427	1.575	1.549	1.860	1.866	2.264	2.486	3.424	4.581	5.674	5.198	3.900	3.008	3.058	3.432	4.823	7.788	14.23	23.16	29.69	30.17	18.48	8.170	2.340	1.645
295.0	151.9	152.0	183.9	208.4	267.2	397.3	432.4	726.9	938.8	 1265	 1681	 1168	947.7	 1185	 1956	 5460	 3204	51.33	7.370	5.966	5.045	3.602	3.883	3.420	2.856	2.956	2.637	2.696	2.704	2.339	2.218	2.040	2.026	1.923	1.715	1.675	1.500	1.707	1.491	1.438	1.497	1.409	1.584	1.571	1.533	1.544	1.516	1.545	1.593	1.374	1.576	1.880	1.993	2.475	2.706	3.118	3.905	4.617	4.791	5.397	5.955	6.917	8.344	9.839	8.866	6.632	5.543	5.576	5.809	6.774	8.045	9.453	13.98	27.88	39.25	25.81	9.333
300.0	173.4	191.7	256.2	329.6	476.5	701.3	 1013	 1425	 1737	 2030	 2472	 2411	 1470	 1101	898.3	 2478	 6442	636.3	31.57	7.056	6.079	4.209	4.144	3.490	3.076	3.098	2.750	2.577	2.780	2.515	2.261	2.206	2.304	1.895	1.755	1.783	1.817	1.673	1.553	1.865	1.441	1.391	1.514	1.540	1.548	1.664	1.543	1.730	1.747	1.596	2.048	2.817	2.881	3.731	4.277	5.120	6.255	7.137	7.955	9.112	9.925	10.37	11.14	12.53	13.84	13.53	10.43	8.560	7.363	6.648	6.335	5.555	6.325	9.866	20.85	37.42	35.50
305.0	221.9	225.9	306.2	437.3	645.5	988.8	 1451	 1980	 2428	 2744	 2977	 3246	 2352	 1356	807.8	851.3	 3590	 5096	490.3	14.59	7.191	4.744	4.190	3.718	3.360	3.475	3.112	2.679	2.741	2.464	2.551	2.296	2.267	1.964	1.889	1.904	1.776	1.752	1.677	1.645	1.385	1.414	1.507	1.443	1.639	1.669	1.643	1.912	1.827	1.947	2.436	3.310	3.734	4.638	5.409	6.931	8.343	9.270	10.99	12.41	13.25	13.88	14.73	14.30	15.13	15.77	15.75	13.07	10.40	8.065	7.009	5.911	5.006	5.097	6.901	13.87	32.75
310.0	235.1	250.0	353.1	509.9	780.4	 1188	 1733	 2361	 2926	 3273	 3392	 3323	 2964	 1851	914.4	500.3	974.8	 2794	 4343	 1663	33.90	6.110	5.033	4.011	3.490	3.458	3.051	2.908	2.836	2.396	2.468	2.392	2.142	1.928	1.897	1.926	1.702	1.825	1.726	1.761	1.522	1.582	1.682	1.479	1.556	1.696	1.660	1.969	1.982	2.042	2.639	3.619	4.133	5.370	6.176	7.985	9.778	11.40	12.80	14.42	15.84	16.69	17.16	17.15	16.38	16.04	16.10	15.45	14.60	11.45	8.379	6.316	5.081	3.960	3.764	4.866	9.541
315.0	223.2	270.2	385.0	534.7	839.4	 1273	 1856	 1938	 3104	 3468	 3541	 3292	 2777	 2223	 1128	452.6	342.5	684.2	 1732	 4859	 2746	38.66	6.189	4.949	3.828	3.376	3.412	3.031	3.023	2.660	2.403	2.298	1.798	2.023	2.072	1.886	1.705	1.811	1.652	1.798	1.622	1.504	1.681	1.502	1.520	1.685	1.659	2.041	1.967	2.168	2.710	3.944	4.504	5.578	6.627	8.244	9.925	11.99	13.35	14.90	16.55	17.51	17.93	17.97	16.49	16.01	15.53	14.49	13.21	13.02	11.45	7.846	5.655	4.042	3.287	3.088	4.095
320.0	235.7	289.2	405.9	572.4	830.9	 1246	 1777	 2245	 2941	 3304	 3353	 3093	 2525	 1960	 1367	507.1	213.7	220.4	440.5	 2341	 6024	463.9	27.14	5.518	4.434	3.685	3.265	3.287	2.929	2.885	2.588	2.427	2.112	2.310	1.953	2.089	1.811	1.752	1.704	1.719	1.694	1.583	1.622	1.547	1.627	1.810	1.775	2.145	2.235	2.189	2.732	4.030	4.558	5.676	6.474	8.050	9.833	11.43	13.09	14.90	15.60	16.40	17.14	16.49	15.88	15.14	14.32	13.35	11.86	11.34	10.89	9.455	7.112	4.768	3.026	2.585	2.714
325.0	259.9	322.2	460.9	600.5	834.0	 1189	 1681	 2181	 2663	 2986	 3026	 2764	 2247	 1620	 1270	689.9	212.6	125.2	145.2	606.7	 3690	 3728	395.5	12.41	5.461	4.260	3.484	3.213	2.974	2.812	2.597	2.435	2.143	2.364	2.143	1.860	1.789	1.695	1.696	1.844	1.749	1.728	1.664	1.497	1.754	1.891	1.911	2.141	2.366	2.332	2.661	4.140	4.744	5.477	6.074	7.748	9.199	10.53	12.17	13.36	14.42	15.22	15.21	15.36	15.03	13.88	13.24	12.32	10.58	9.644	8.754	8.197	7.967	6.042	3.828	2.714	2.369
330.0	266.4	373.9	672.5	776.4	917.6	 1226	 1619	 2000	 2338	 2567	 2568	 2341	 1913	 1352	936.6	734.9	412.0	147.7	96.55	180.7	950.3	 2427	 3509	 1350	26.68	5.121	4.445	3.564	3.298	3.107	2.850	2.586	2.263	2.364	2.216	2.115	1.763	1.651	1.786	1.764	1.707	1.680	1.727	1.619	1.681	1.911	1.965	2.460	2.753	2.687	3.075	4.248	4.917	5.815	6.282	7.620	8.744	9.914	10.68	11.78	12.73	13.41	13.18	12.79	12.74	11.86	11.26	10.33	9.226	8.535	7.273	6.404	5.950	5.561	5.038	4.414	3.138
335.0	312.0	438.7	707.8	947.2	 1134	 1362	 1663	 1869	 2048	 2157	 2094	 1901	 1567	 1124	749.6	507.7	532.1	329.9	118.2	102.5	259.0	580.4	 1574	 4342	 2073	34.25	5.169	4.369	3.515	3.119	3.084	2.894	2.461	2.484	2.410	2.146	2.019	2.000	1.826	1.630	1.650	1.544	1.666	1.792	1.732	1.888	2.097	2.715	2.944	3.242	3.867	5.068	5.643	6.334	6.805	7.803	8.570	9.231	9.883	10.27	11.11	11.63	11.37	10.94	10.41	9.926	9.278	8.571	7.912	6.973	6.425	5.250	4.786	4.295	3.854	4.529	5.071
340.0	331.9	514.7	784.4	 1104	 1325	 1515	 1726	 1843	 1870	 1885	 1799	 1596	 1319	980.1	658.2	418.7	406.0	474.6	210.3	99.99	115.6	172.9	405.5	 2262	 4537	 1343	24.95	5.113	3.929	3.182	3.225	3.015	2.578	2.285	2.182	2.179	1.910	1.895	1.798	1.638	1.539	1.586	1.540	1.860	1.658	1.900	2.391	3.047	3.417	3.681	4.171	5.743	6.059	7.047	7.173	8.651	9.090	8.800	9.277	9.933	9.705	10.12	10.14	9.589	9.592	8.341	7.993	7.693	7.139	6.053	5.709	4.798	4.306	3.759	3.385	3.480	4.012
345.0	331.0	562.5	884.7	 1242	 1471	 1680	 1807	 1813	 1762	 1705	 1558	 1340	 1126	854.3	604.3	392.8	308.3	412.9	369.2	142.1	95.01	92.75	131.3	598.6	 2846	 3296	346.5	12.01	4.774	3.691	3.171	2.966	2.567	2.254	2.123	2.134	1.926	1.922	1.869	1.618	1.574	1.741	1.781	1.666	1.786	1.961	2.478	3.179	3.758	3.828	4.749	6.493	6.498	7.593	7.565	8.862	9.536	9.102	8.992	9.298	8.868	9.487	9.156	8.229	7.805	7.346	7.071	6.538	6.174	5.901	5.174	4.235	4.309	3.522	3.474	3.336	3.360
350.0	366.8	606.0	985.0	 1371	 1676	 1863	 1932	 1792	 1643	 1519	 1314	 1092	925.7	734.6	540.2	377.9	290.7	292.5	374.3	303.7	144.7	95.72	88.30	177.7	749.0	 2099	 2980	 1172	24.94	4.834	3.750	3.228	2.652	2.352	2.315	2.283	1.926	1.878	1.839	1.718	1.683	1.804	1.704	1.832	1.990	2.293	2.475	3.265	4.106	4.218	5.163	7.162	7.227	8.018	8.160	9.057	9.278	8.999	8.806	8.520	8.172	8.542	8.091	7.361	6.847	6.174	5.937	5.512	5.362	4.936	4.632	4.199	3.852	3.518	3.257	3.357	3.256
355.0	379.8	632.9	 1050	 1460	 1804	 2005	 1990	 1787	 1548	 1361	 1108	894.2	757.1	625.0	493.4	376.7	298.5	265.8	269.6	353.1	297.2	139.2	100.5	104.5	214.1	507.9	 1318	 3586	 1837	32.41	5.261	3.952	3.009	2.443	2.591	2.229	1.817	2.004	1.928	1.704	1.772	1.712	1.793	1.782	1.914	2.397	2.604	3.480	4.025	4.253	5.250	7.008	7.679	8.531	8.584	9.960	9.588	9.069	8.636	8.062	7.833	7.783	7.190	6.349	5.542	5.175	4.930	4.911	4.656	4.419	4.087	3.794	3.636	3.515	2.996	3.223	3.188
360.0	385.4	647.9	 1067	 1484	 1853	 2040	 2010	 1768	 1487	 1270	992.3	789.0	669.0	575.6	474.3	377.1	312.8	274.6	251.4	281.7	370.2	233.9	128.8	105.8	112.7	158.8	344.6	 1877	 4030	 1194	23.09	4.283	3.271	2.867	2.628	2.399	1.953	1.857	1.914	1.715	1.676	1.777	1.800	1.707	1.953	2.343	2.750	3.366	3.989	4.418	5.193	7.376	7.702	8.958	8.534	9.379	9.263	9.225	8.336	7.940	7.388	7.104	6.663	5.590	5.132	4.597	4.780	4.322	4.266	4.206	3.987	3.679	3.478	3.418	3.095	3.325	3.188
365.0	383.1	636.9	 1067	 1522	 1846	 2053	 2016	 1733	 1427	 1199	918.4	711.4	620.4	538.8	459.1	380.1	328.5	289.6	266.8	250.9	325.0	347.3	192.6	126.3	106.6	97.61	120.7	501.3	 2519	 3033	321.1	13.79	4.182	3.350	3.002	2.673	1.840	1.786	2.031	1.703	1.526	1.651	1.566	1.715	2.048	2.262	2.898	3.549	4.383	4.542	5.399	7.375	7.637	8.825	8.554	9.259	9.086	8.946	8.188	7.359	7.307	6.925	6.240	5.816	4.748	4.528	4.355	4.369	4.371	4.058	3.480	3.566	3.371	3.543	3.240	3.498	3.114
370.0	372.0	631.3	 1025	 1467	 1798	 1976	 1941	 1666	 1335	 1109	834.1	645.0	567.4	510.6	445.3	387.0	345.2	318.2	293.2	267.7	273.9	335.6	323.4	200.7	135.6	107.9	91.72	157.7	657.5	 1824	 2639	 1313	22.64	4.344	3.428	2.927	2.116	2.102	2.129	1.842	1.646	1.685	1.703	1.726	2.026	2.323	2.829	3.364	4.055	4.348	5.280	7.149	7.472	8.600	8.448	9.179	9.057	8.359	7.793	6.962	6.953	6.452	5.873	5.148	4.552	4.356	3.927	4.001	3.953	3.802	3.701	3.590	3.454	3.568	3.337	3.532	3.360
375.0	332.5	582.6	955.4	 1393	 1686	 1852	 1819	 1533	 1228	 1005	773.4	593.0	529.0	478.6	439.8	395.3	358.4	340.8	319.9	298.8	281.0	285.5	341.5	333.8	197.2	138.8	110.2	99.90	190.0	439.9	 1134	 3804	 1717	29.20	4.159	3.622	2.379	1.973	2.033	1.892	1.802	1.727	1.817	1.780	2.036	2.168	2.575	3.384	4.010	4.112	4.968	6.703	7.072	8.030	7.851	8.638	8.334	7.574	7.325	6.685	6.201	5.838	5.549	5.021	4.243	3.875	3.599	3.823	3.801	3.546	3.488	3.772	3.434	3.553	3.593	3.443	3.475
380.0	329.4	563.5	926.0	 1287	 1584	 1717	 1703	 1449	 1146	951.2	720.1	561.5	503.5	464.7	431.3	394.3	371.5	354.1	337.9	317.6	296.1	287.3	303.7	371.2	285.8	170.7	129.6	100.2	99.96	137.3	292.9	 1886	 3501	 1320	19.78	4.252	2.533	2.274	2.218	2.040	1.879	1.746	1.688	1.700	1.965	2.142	2.627	3.290	3.722	3.899	4.948	6.415	6.513	7.602	7.383	8.030	7.960	7.593	6.705	6.492	5.854	5.505	5.209	4.609	3.952	3.699	3.663	3.780	3.392	3.658	3.854	3.461	3.421	3.491	3.463	3.461	3.815
385.0	330.4	662.5	877.2	 1226	 1491	 1619	 1586	 1346	 1077	885.9	679.7	544.7	490.0	458.6	433.5	393.4	376.6	362.7	350.8	332.4	316.0	300.7	295.7	332.3	356.1	227.4	150.9	113.4	91.73	79.12	99.49	491.3	 2154	 3512	269.3	11.19	3.318	2.495	2.567	1.909	1.982	1.888	1.708	1.737	1.982	2.143	2.486	3.146	3.706	3.779	4.547	6.449	6.525	6.870	7.074	7.786	7.268	7.374	6.566	5.876	5.498	5.221	4.780	4.580	3.874	3.560	3.512	3.418	3.170	3.633	3.654	3.546	3.539	3.571	3.515	3.757	3.645
390.0	313.9	558.5	782.5	 1098	 1344	 1456	 1430	 1217	988.2	805.9	633.3	513.9	471.5	444.8	420.1	393.3	377.9	367.8	354.3	344.0	330.7	319.3	308.0	299.5	326.1	312.8	212.1	140.2	107.3	81.51	68.01	141.1	558.2	 1840	 2276	 1094	18.27	3.205	2.840	2.138	1.975	1.870	1.886	1.843	2.017	2.075	2.273	2.967	3.314	3.645	4.178	5.657	5.933	6.263	6.756	7.017	6.976	6.705	5.938	5.596	5.154	4.935	4.503	4.053	3.643	3.277	3.442	3.503	3.367	3.458	3.495	3.415	3.436	3.280	3.451	3.493	3.669
395.0	283.5	472.3	880.4	986.1	 1197	 1291	 1184	 1094	894.5	730.8	585.5	489.5	454.8	435.4	408.7	391.4	373.8	364.7	355.0	347.8	336.4	331.0	320.3	302.2	290.8	304.6	298.9	189.4	130.0	99.42	74.67	73.69	152.9	432.7	983.9	 3784	 1210	22.96	3.714	2.450	2.259	1.970	1.925	1.903	2.106	1.904	2.438	2.868	2.968	3.189	3.891	5.219	5.532	5.672	5.914	6.376	6.282	6.021	5.189	5.280	4.717	4.440	4.218	3.928	3.685	3.345	3.536	3.485	3.316	3.274	3.416	3.487	3.474	3.350	3.471	3.497	3.820
400.0	256.5	444.7	720.7	921.1	 1085	 1204	 1027	 1005	826.6	688.9	555.3	479.6	446.3	426.4	398.2	385.2	364.9	363.0	356.7	352.2	340.5	334.6	325.3	305.2	281.8	275.8	305.8	251.1	156.9	112.4	86.52	67.35	69.85	121.6	246.9	 1961	 2354	262.5	17.17	2.860	2.488	2.123	1.930	1.875	1.990	2.196	2.148	2.637	2.769	2.962	3.453	4.679	4.913	5.658	5.386	5.765	5.787	5.355	5.119	4.709	4.500	4.473	4.037	3.931	3.454	3.069	3.300	3.192	3.360	3.284	3.287	3.333	3.389	3.452	3.361	3.379	3.695
405.0	253.8	420.6	631.5	868.5	 1006	 1095	 1057	935.2	771.3	647.6	537.3	468.1	435.3	417.1	390.2	371.5	365.5	354.2	352.9	349.3	342.5	337.0	329.0	309.9	283.6	265.3	270.2	290.2	204.4	129.3	99.50	73.65	57.14	58.26	76.19	504.8	 1419	 2011	238.1	7.564	2.615	2.322	2.160	1.924	1.976	2.208	2.220	2.373	2.787	2.822	3.104	4.620	4.638	4.868	5.222	5.171	5.562	5.067	4.888	4.473	4.498	4.166	3.796	3.756	3.366	3.108	3.157	3.422	3.316	3.194	3.265	3.385	3.431	3.530	3.454	3.181	3.842
410.0	228.6	367.2	547.4	755.9	884.1	912.0	962.0	853.1	709.3	603.8	513.9	448.3	426.4	404.6	373.2	362.7	350.1	343.6	337.5	337.4	331.2	331.4	326.6	312.9	289.2	266.3	247.2	256.1	253.6	180.6	119.0	88.57	65.74	54.15	45.09	133.0	365.3	 1140	 2009	642.5	16.13	2.832	2.313	2.155	2.310	2.134	2.021	2.212	2.597	2.607	3.107	4.176	4.192	4.564	4.581	5.143	5.227	4.748	4.559	4.187	4.149	4.245	3.742	3.424	3.325	3.015	3.059	3.184	3.193	2.996	3.310	3.154	3.346	3.230	3.394	3.473	3.497
