Sample:	'1
File name:	t2025060607’≈’‘«≈.FD3
Run date:	'15:05:06, 06/09/2025
Operator:	Administrator
Comment:	'

Instrument
Model:	F-2700 FL Spectrophotometer
Serial number:	23B8-004
ROM Version:	4J14000 07

Instrument parameters
Measurement type:	3-D scan
Data mode:	Fluorescence
EX  Start WL:	220.0 nm
EX  End WL:	600.0 nm
EX Sampling interval:	5.0 nm
EM  Start WL:	230.0 nm
EM  End WL:	650.0 nm
EM Sampling interval:	5.0 nm
Scan speed:	12000 nm/min
EX Slit:	5.0 nm
EM Slit:	5.0 nm
PMT Voltage:	700 V
Response:	Auto 
Corrected spectra:	Off
Contour interval:	50.000

Peak integration
Integration method:	Rectangular
Sensitivity:	1
Threshold:	1.000

Peaks
No.	ApexEX/EM(nm)	Height(Data)
1	225.0/565.0	68.46
2	225.0/610.0	55.85
3	225.0/645.0	60.81
4	230.0/340.0	2275
5	230.0/500.0	350.9
6	230.0/620.0	53.16
7	235.0/510.0	310.7
8	240.0/265.0	329.0
9	240.0/520.0	265.5
10	245.0/270.0	331.5
11	245.0/535.0	218.5
12	245.0/640.0	36.83
13	250.0/275.0	407.4
14	250.0/545.0	174.0
15	255.0/280.0	535.8
16	255.0/560.0	146.9
17	260.0/285.0	555.8
18	260.0/570.0	114.7
19	265.0/585.0	103.4
20	270.0/595.0	94.15
21	275.0/610.0	115.6
22	280.0/310.0	1694
23	280.0/625.0	107.2
24	285.0/320.0	1660
25	285.0/635.0	85.11
26	430.0/505.0	32.56
27	445.0/525.0	18.72
28	475.0/350.0	6.880
29	505.0/275.0	2.924
30	515.0/280.0	3.207
31	520.0/285.0	3.528
32	530.0/290.0	3.585
33	555.0/305.0	8.282
34	560.0/310.0	8.765
35	580.0/320.0	8.825
36	585.0/325.0	8.573

Data points
	220.0	225.0	230.0	235.0	240.0	245.0	250.0	255.0	260.0	265.0	270.0	275.0	280.0	285.0	290.0	295.0	300.0	305.0	310.0	315.0	320.0	325.0	330.0	335.0	340.0	345.0	350.0	355.0	360.0	365.0	370.0	375.0	380.0	385.0	390.0	395.0	400.0	405.0	410.0	415.0	420.0	425.0	430.0	435.0	440.0	445.0	450.0	455.0	460.0	465.0	470.0	475.0	480.0	485.0	490.0	495.0	500.0	505.0	510.0	515.0	520.0	525.0	530.0	535.0	540.0	545.0	550.0	555.0	560.0	565.0	570.0	575.0	580.0	585.0	590.0	595.0	600.0
230.0	42.72	500.7	1797	697.3	42.01	5.619	4.468	3.616	3.537	3.388	2.869	2.720	2.492	2.145	1.718	1.328	1.368	1.262	1.049	0.902	0.841	0.774	0.786	0.713	0.682	0.562	0.546	0.507	0.448	0.461	0.482	0.465	0.378	0.415	0.390	0.399	0.404	0.330	0.322	0.319	0.346	0.438	0.424	0.362	0.284	0.278	0.587	2.837	6.327	5.363	2.226	0.540	0.220	0.220	0.203	0.193	0.201	0.204	0.218	0.201	0.194	0.202	0.211	0.201	0.191	0.199	0.192	0.172	0.217	0.177	0.209	0.199	0.211	0.205	0.214	0.226	0.213
235.0	103.3	154.8	975.3	2074	561.4	64.05	6.085	4.222	4.248	3.183	2.898	2.772	2.729	2.517	1.807	1.422	1.277	1.229	1.012	0.879	0.843	0.813	0.681	0.675	0.619	0.684	0.554	0.515	0.442	0.438	0.507	0.395	0.393	0.375	0.344	0.385	0.366	0.368	0.287	0.349	0.314	0.351	0.437	0.491	0.464	0.395	0.358	0.823	2.253	4.254	6.844	7.878	3.965	0.960	0.247	0.196	0.168	0.263	0.201	0.251	0.223	0.244	0.230	0.173	0.169	0.182	0.163	0.204	0.220	0.143	0.242	0.235	0.204	0.238	0.209	0.194	0.205
240.0	143.8	133.5	289.2	1495	2454	456.0	37.55	5.875	4.413	4.049	3.231	2.654	2.463	2.284	1.818	1.529	1.320	1.349	1.013	0.875	0.859	0.894	0.886	0.586	0.592	0.655	0.516	0.542	0.477	0.672	0.519	0.373	0.364	0.399	0.342	0.362	0.360	0.393	0.341	0.384	0.322	0.405	0.355	0.411	0.529	0.553	0.459	0.437	0.653	1.287	3.139	8.340	11.98	9.258	3.633	0.581	0.249	0.244	0.182	0.195	0.215	0.207	0.249	0.219	0.196	0.216	0.160	0.227	0.242	0.205	0.196	0.254	0.190	0.264	0.169	0.200	0.228
245.0	97.56	213.8	136.3	460.2	2153	2643	351.8	17.60	5.564	4.377	3.697	3.353	2.976	2.605	1.985	1.791	1.550	1.194	1.277	0.764	1.093	0.850	0.954	0.698	0.690	0.669	0.496	0.579	0.565	0.592	0.433	0.389	0.465	0.471	0.331	0.338	0.363	0.362	0.319	0.446	0.412	0.335	0.293	0.321	0.381	0.599	0.722	0.714	0.490	0.475	0.901	2.688	7.076	13.65	15.02	8.478	2.641	0.432	0.241	0.199	0.228	0.216	0.239	0.227	0.269	0.192	0.157	0.204	0.228	0.226	0.207	0.224	0.208	0.227	0.188	0.215	0.208
250.0	45.23	132.5	237.8	216.4	641.4	2050	3038	1236	85.30	5.979	4.903	4.194	3.454	2.984	2.300	2.017	1.591	1.300	1.081	0.944	0.945	0.921	0.751	0.787	0.736	0.778	0.513	0.671	0.630	0.562	0.453	0.424	0.457	0.382	0.352	0.419	0.373	0.367	0.332	0.387	0.335	0.297	0.281	0.288	0.325	0.385	0.430	0.790	0.922	0.874	0.655	0.896	1.870	4.122	7.701	12.18	16.40	15.48	9.152	2.938	0.464	0.244	0.229	0.242	0.258	0.204	0.207	0.217	0.211	0.219	0.208	0.211	0.239	0.209	0.223	0.192	0.235
255.0	27.06	50.28	143.3	319.5	261.8	503.9	1791	4501	1794	106.3	6.510	5.325	3.965	3.214	2.740	2.336	1.690	1.647	1.407	1.227	0.967	0.987	0.942	0.838	0.639	0.696	0.611	0.606	0.590	0.567	0.412	0.529	0.463	0.430	0.460	0.438	0.370	0.305	0.306	0.363	0.396	0.383	0.303	0.346	0.295	0.371	0.299	0.386	0.484	0.757	1.167	1.260	0.959	1.176	1.971	3.015	5.464	12.41	24.77	27.08	14.87	3.520	0.463	0.269	0.271	0.256	0.225	0.218	0.240	0.232	0.171	0.242	0.207	0.262	0.206	0.209	0.209
260.0	29.40	27.45	57.64	236.2	318.9	185.3	504.1	2993	5380	1409	57.05	7.083	4.898	4.220	2.730	2.194	2.217	1.853	1.426	1.195	1.125	0.994	1.055	0.914	0.738	0.754	0.692	0.563	0.719	0.587	0.475	0.511	0.407	0.439	0.402	0.445	0.444	0.437	0.347	0.351	0.335	0.334	0.387	0.286	0.384	0.302	0.300	0.271	0.343	0.410	0.685	1.483	1.770	1.122	0.813	0.887	1.478	3.345	9.352	21.38	32.52	26.13	12.64	1.807	0.352	0.285	0.231	0.235	0.251	0.248	0.245	0.261	0.205	0.253	0.241	0.200	0.192
265.0	25.06	24.62	31.41	98.76	329.0	275.0	152.7	900.8	4371	5853	1028	21.20	7.146	5.313	3.656	2.665	2.298	1.889	1.423	1.468	1.272	0.942	1.085	0.963	0.860	0.700	0.774	0.696	0.633	0.558	0.530	0.578	0.452	0.411	0.487	0.382	0.441	0.436	0.310	0.338	0.312	0.324	0.361	0.340	0.396	0.338	0.332	0.272	0.285	0.269	0.309	0.763	1.541	1.922	1.525	0.803	0.592	1.015	2.391	6.017	14.91	30.61	33.36	24.17	8.000	0.986	0.274	0.271	0.315	0.305	0.235	0.210	0.270	0.241	0.192	0.224	0.225
270.0	43.63	44.78	39.40	44.77	139.6	331.5	298.5	262.4	1256	4208	6336	2442	65.24	7.442	5.229	3.464	2.809	2.212	1.715	1.609	1.454	1.113	1.087	0.858	0.950	0.819	0.841	0.767	0.638	0.669	0.632	0.592	0.597	0.494	0.501	0.481	0.443	0.439	0.373	0.349	0.332	0.410	0.366	0.407	0.344	0.366	0.362	0.310	0.313	0.320	0.257	0.365	0.593	0.944	1.524	1.849	1.844	1.090	1.025	1.627	3.707	8.514	15.83	27.43	29.96	33.52	16.53	7.081	1.038	0.296	0.276	0.257	0.299	0.287	0.267	0.257	0.204
275.0	104.2	109.8	98.11	70.74	58.13	130.9	407.4	348.6	337.6	1017	3240	8761	1278	71.22	7.350	4.851	3.475	2.944	1.965	1.696	1.753	1.283	1.257	1.079	0.994	0.942	0.806	0.770	0.706	0.687	0.621	0.555	0.646	0.549	0.563	0.597	0.497	0.464	0.479	0.438	0.422	0.427	0.495	0.523	0.545	0.499	0.525	0.391	0.487	0.398	0.332	0.413	0.389	0.523	0.554	0.995	1.845	2.924	2.602	1.211	1.264	2.257	3.936	6.626	8.696	19.50	40.73	53.41	26.30	8.268	0.688	0.306	0.362	0.328	0.305	0.256	0.222
280.0	151.7	183.1	173.3	106.3	55.14	63.34	231.7	535.8	284.1	300.9	889.7	5084	8880	972.0	34.02	6.598	4.634	3.512	2.580	2.093	1.732	1.386	1.376	1.113	1.048	0.974	0.926	0.790	0.768	0.724	0.754	0.610	0.836	0.620	0.743	0.702	0.584	0.622	0.489	0.502	0.468	0.480	0.562	0.482	0.545	0.594	0.659	0.680	0.680	0.665	0.433	0.477	0.422	0.421	0.451	0.479	0.832	1.873	2.881	3.207	1.743	1.115	1.397	2.063	2.455	5.116	13.14	31.82	53.33	33.88	21.44	4.325	0.480	0.356	0.275	0.356	0.307
285.0	240.8	271.0	255.8	161.1	67.28	56.75	106.7	402.2	555.8	231.3	304.4	1472	6752	7875	641.4	13.96	6.213	4.151	3.438	2.321	1.771	1.459	1.355	1.135	1.098	0.973	0.986	0.734	0.849	0.698	0.723	0.710	0.742	0.795	0.883	0.814	0.561	0.686	0.590	0.662	0.541	0.594	0.627	0.570	0.733	0.788	0.973	1.011	0.903	0.787	0.591	0.595	0.513	0.492	0.437	0.410	0.578	0.893	1.514	3.130	3.528	2.621	1.225	1.109	1.179	1.871	3.626	8.382	19.53	37.63	59.45	31.54	15.12	1.943	0.443	0.362	0.358
290.0	325.3	371.8	353.9	221.5	112.7	82.92	98.57	203.9	486.4	599.0	343.4	510.9	1910	5433	6820	2074	36.31	6.417	4.576	3.054	2.213	1.896	1.639	1.407	1.258	1.180	1.043	0.916	0.892	0.842	0.911	0.721	0.722	0.830	0.735	0.876	0.836	0.769	0.706	0.683	0.643	0.652	0.755	0.747	0.811	0.978	1.019	1.214	1.142	0.983	0.836	0.725	0.573	0.588	0.615	0.518	0.575	0.691	0.892	1.454	2.272	3.098	3.585	3.079	1.886	1.486	1.790	2.868	5.320	10.03	20.56	29.91	43.11	39.63	21.25	11.01	2.264
295.0	377.7	449.5	456.2	308.9	177.3	136.7	152.2	196.0	308.9	616.5	822.4	473.3	681.2	1408	3356	8406	718.0	41.15	6.928	4.395	2.889	2.342	1.992	1.645	1.614	1.346	1.197	1.112	0.967	0.902	0.996	0.663	0.717	0.826	0.911	0.901	0.956	0.843	0.792	0.799	0.741	0.718	0.804	0.822	1.041	0.983	1.219	1.442	1.462	1.249	1.073	1.067	0.847	0.729	0.747	0.674	0.730	0.849	1.042	1.146	1.545	1.797	2.543	4.256	4.989	3.740	2.457	2.349	2.663	3.613	5.806	7.796	11.17	16.60	35.44	58.44	33.13
300.0	429.6	547.8	565.0	394.1	249.3	227.8	251.1	303.3	349.2	596.3	1077	936.9	629.1	647.8	1053	4985	5926	574.3	21.46	5.848	3.876	2.782	2.286	2.056	1.646	1.236	1.229	1.163	0.955	0.907	0.933	0.787	1.039	0.956	0.959	1.045	1.132	0.923	0.966	0.832	0.765	0.886	0.861	0.904	1.040	1.470	1.395	1.679	1.660	1.550	1.281	1.183	1.063	1.099	1.169	1.095	1.229	1.340	1.529	1.675	1.900	2.130	2.566	3.411	4.746	6.061	5.551	4.162	3.436	3.059	3.347	3.416	3.927	5.172	10.73	26.98	49.97
305.0	518.4	668.6	674.8	504.0	365.6	343.8	417.1	532.1	658.7	858.1	1229	1622	1112	779.9	718.9	1636	5993	5169	80.27	10.34	5.061	3.302	2.706	2.324	1.914	1.432	1.495	1.189	1.094	1.095	1.060	0.911	0.972	0.947	1.044	1.181	1.174	1.084	1.090	0.872	0.919	0.987	0.910	1.060	1.263	1.657	1.706	2.050	2.022	1.813	1.570	1.609	1.519	1.543	1.621	1.604	1.923	2.266	2.493	2.627	3.191	3.613	3.988	4.438	5.170	6.234	8.044	8.282	6.366	4.912	4.415	3.898	3.669	3.845	4.776	8.537	16.56
310.0	600.7	826.4	835.7	636.7	485.8	477.5	565.1	697.0	841.7	1052	1305	1651	1694	1131	830.7	817.6	1986	4746	5233	1443	23.18	5.088	3.601	2.565	2.394	1.745	1.560	1.288	1.337	1.072	1.087	0.995	0.938	1.023	1.103	1.113	1.097	1.110	1.142	1.136	1.086	1.009	1.041	1.316	1.469	1.798	1.872	2.364	2.483	2.151	1.882	2.042	2.021	1.854	2.063	2.187	2.739	2.868	3.215	3.419	3.868	4.342	4.740	5.198	5.973	6.164	7.216	7.882	8.765	8.647	6.971	5.556	4.751	4.397	4.245	4.623	6.123
315.0	686.3	961.6	1008	785.4	599.6	588.8	684.6	816.0	928.8	1155	1368	1584	1687	1612	1050	726.4	895.1	1359	3100	6806	509.1	21.98	4.903	3.711	2.568	2.162	1.872	1.535	1.806	1.265	1.192	1.009	1.000	1.087	1.197	1.096	1.062	1.114	1.140	1.138	1.009	1.074	1.189	1.223	1.640	1.947	2.167	2.832	2.778	2.705	2.297	2.472	2.409	2.350	2.591	2.603	2.946	3.379	3.630	3.978	4.319	4.879	5.266	5.711	6.364	6.580	6.986	7.290	7.930	8.153	8.434	8.545	6.692	5.701	4.657	4.296	4.140
320.0	767.5	1080	1178	919.7	684.9	660.7	734.4	869.6	988.1	1209	1422	1601	1637	1660	1378	803.2	717.3	623.0	895.2	4516	4263	399.5	10.79	4.546	3.165	2.458	2.066	1.814	1.604	1.264	1.213	0.999	1.003	1.132	1.147	1.007	1.043	1.047	1.183	1.160	1.224	1.204	1.342	1.573	1.772	2.247	2.680	3.269	3.250	3.020	2.612	3.055	2.807	2.584	2.902	2.854	3.260	3.668	4.151	4.146	4.544	4.806	5.380	6.069	6.536	6.655	7.135	7.670	7.875	7.784	7.828	8.601	8.825	7.455	5.579	4.756	4.049
325.0	848.3	1246	1364	1134	811.8	699.0	766.1	896.3	990.8	1186	1410	1592	1613	1513	1500	960.4	695.6	484.8	342.6	1326	5039	3776	57.92	7.065	4.200	2.945	2.359	2.126	1.778	1.424	1.345	1.026	1.157	1.155	1.122	1.143	1.175	1.292	1.192	1.068	1.256	1.144	1.420	1.637	2.019	2.524	2.989	3.677	4.025	3.406	3.150	3.604	3.247	2.899	2.927	3.021	3.522	3.916	4.196	4.246	4.394	4.918	5.638	5.882	6.463	6.808	6.925	7.366	7.422	7.511	7.677	7.649	8.159	8.573	7.544	5.454	4.224
330.0	954.1	1464	1790	1556	1119	834.0	808.6	883.9	973.5	1153	1355	1524	1559	1435	1332	1141	807.0	489.6	264.7	414.4	1489	3903	4227	1084	18.03	3.997	3.068	2.452	1.999	1.652	1.479	1.303	1.203	1.173	1.109	1.143	1.180	1.144	1.223	1.106	1.113	1.161	1.291	1.688	2.239	2.921	3.597	4.580	5.028	4.774	4.622	4.961	4.395	3.661	3.385	3.246	3.455	3.791	4.097	4.319	4.340	4.617	5.161	5.957	6.151	6.604	6.824	7.275	7.456	7.228	7.207	7.232	7.122	7.405	7.394	6.573	6.163
335.0	997.4	1658	2125	1970	1472	1028	871.7	893.0	967.7	1117	1304	1477	1517	1415	1259	1060	1017	631.7	312.9	263.4	442.4	974.9	2917	5690	411.3	17.52	4.276	3.237	2.413	1.924	1.563	1.471	1.214	1.144	1.070	1.203	1.191	1.077	1.176	1.191	1.074	1.347	1.409	1.718	2.402	3.335	3.869	5.299	6.070	5.790	5.864	6.307	5.703	4.800	4.137	3.398	3.792	3.881	3.966	4.248	4.332	4.803	4.968	5.602	5.981	6.225	6.610	6.888	7.172	7.220	7.397	6.928	6.992	6.991	6.823	6.189	6.282
340.0	1050	1689	2275	2101	1584	1099	877.2	888.1	936.8	1062	1239	1414	1470	1383	1221	991.8	947.9	781.5	384.6	258.4	230.4	303.3	818.8	4141	3483	334.3	8.108	4.006	3.055	2.229	1.872	1.549	1.313	1.198	1.184	1.210	1.111	1.229	1.187	1.154	1.178	1.262	1.579	1.691	2.166	3.155	3.755	5.289	5.978	6.449	5.978	6.713	6.629	5.362	4.435	3.716	4.073	3.955	4.108	4.275	4.247	4.315	4.667	5.317	5.596	6.010	6.283	6.664	6.942	6.892	7.274	6.873	6.882	6.447	6.361	5.649	5.475
345.0	1026	1670	2257	2139	1637	1134	873.5	857.2	902.8	1011	1162	1318	1368	1307	1170	952.2	832.4	785.9	512.5	286.1	202.1	171.2	257.3	1238	4521	3146	49.68	5.520	3.325	2.408	2.304	1.647	1.562	1.286	1.210	1.214	1.263	1.063	1.191	1.061	1.194	1.216	1.456	1.803	2.307	2.782	3.949	5.060	6.101	6.573	5.958	6.731	6.517	5.393	4.670	3.922	3.875	4.000	3.975	4.120	4.026	4.309	4.423	4.858	5.315	5.400	6.252	6.505	6.488	6.420	6.802	6.742	6.443	6.194	5.738	5.346	4.770
350.0	954.1	1601	2112	2105	1684	1177	884.7	852.4	873.6	969.8	1084	1208	1254	1205	1102	923.2	780.8	669.8	588.7	424.9	248.2	178.9	160.7	345.4	1352	3356	3514	920.6	15.77	3.720	2.803	1.736	1.596	1.352	1.226	1.227	1.236	1.069	1.072	1.098	1.167	1.329	1.394	1.592	2.221	2.715	3.514	4.982	5.776	6.060	5.975	6.880	6.420	5.471	4.875	3.924	3.745	3.805	4.001	4.056	3.969	4.221	4.322	4.687	5.011	5.124	5.364	5.719	6.008	5.982	6.100	6.383	6.009	5.991	5.498	5.230	4.958
355.0	902.7	1457	1963	2015	1679	1210	928.4	871.5	883.7	939.0	1038	1129	1156	1128	1033	891.3	773.8	634.8	532.7	538.8	374.6	224.1	175.4	172.4	361.3	818.3	2440	4669	379.6	15.97	3.498	2.314	1.886	1.503	1.268	1.243	1.085	1.085	1.055	1.160	1.153	1.326	1.300	1.627	2.053	2.668	3.245	4.316	5.348	5.300	5.620	6.758	6.515	5.781	5.018	3.951	4.292	3.934	3.919	3.981	4.112	4.309	4.243	4.729	4.569	4.879	5.075	5.272	5.514	5.512	5.539	5.638	5.679	5.917	5.339	5.200	4.796
360.0	826.2	1308	1778	1891	1607	1228	942.8	877.7	878.0	936.4	1011	1069	1094	1066	992.7	865.5	759.8	636.0	518.6	503.2	482.0	294.7	200.6	155.6	157.3	232.9	668.1	3444	3200	316.1	7.869	3.242	2.451	1.685	1.521	1.198	1.208	1.087	1.137	1.142	0.997	1.217	1.266	1.580	1.981	2.371	3.168	4.130	4.922	4.955	5.303	6.480	6.105	5.556	4.988	4.009	4.203	4.062	3.893	4.095	4.081	4.519	4.282	4.467	4.345	4.740	4.855	5.163	5.038	5.323	5.603	5.052	5.536	5.614	5.018	5.007	4.784
365.0	791.3	1229	1645	1767	1554	1206	960.8	882.4	898.3	924.4	986.4	1035	1049	1023	947.7	846.2	748.7	643.9	532.1	473.0	490.0	406.0	243.1	176.7	135.8	121.4	195.3	1029	3955	2937	46.92	5.034	2.781	1.967	1.690	1.306	1.297	1.107	1.184	1.056	1.098	1.215	1.322	1.576	1.648	2.370	2.875	3.815	4.619	4.725	4.893	6.051	5.696	5.396	4.811	4.116	4.006	3.938	3.881	4.056	3.969	4.402	4.284	4.596	4.392	4.455	4.840	4.845	5.095	5.200	5.186	5.148	5.374	5.547	4.847	5.064	4.718
370.0	747.6	1136	1506	1628	1490	1195	982.5	908.4	909.5	927.0	971.9	992.8	992.3	968.6	907.2	820.5	742.4	653.4	559.9	491.0	453.0	454.3	364.4	232.6	165.0	125.8	114.7	279.6	1186	3106	3304	855.9	14.37	3.028	2.126	1.544	1.356	1.225	1.199	1.109	1.077	1.246	1.136	1.408	1.754	2.271	2.656	3.645	3.923	4.348	4.490	5.406	5.636	5.359	4.798	4.080	4.198	3.942	3.995	3.969	3.978	4.153	4.358	4.398	4.300	4.469	4.631	4.537	4.712	4.740	4.745	4.997	4.980	4.888	4.890	4.882	4.724
375.0	688.4	1053	1372	1500	1390	1199	996.5	915.6	913.2	932.4	950.3	960.4	954.3	930.2	867.7	795.9	729.4	660.6	580.1	517.8	460.8	427.1	434.8	348.3	216.0	159.9	128.1	138.2	316.4	761.4	2320	4215	331.0	15.33	3.376	2.150	1.668	1.323	1.176	1.214	1.093	1.316	1.214	1.382	1.775	2.124	2.590	3.262	3.853	3.982	4.063	4.956	5.351	5.058	4.650	4.247	4.105	3.857	4.150	4.018	4.136	4.151	4.316	4.454	4.336	4.463	4.356	4.544	4.628	4.374	4.648	4.620	4.581	4.728	4.739	4.810	4.835
380.0	644.0	1035	1282	1407	1348	1174	1012	921.4	923.7	929.0	935.1	941.5	932.0	894.9	836.3	777.2	719.5	659.9	588.7	531.9	478.8	427.9	418.4	417.7	282.1	191.7	152.6	126.4	139.0	219.8	643.9	3091	2775	269.3	7.080	2.643	2.087	1.655	1.330	1.270	1.057	1.192	1.058	1.438	1.668	2.011	2.533	3.028	3.487	3.769	3.512	4.602	5.145	4.880	4.673	4.235	4.353	3.840	4.029	3.934	4.167	4.000	4.278	4.034	4.186	4.271	4.256	4.130	4.526	4.364	4.679	4.823	4.368	4.649	4.737	4.358	4.505
385.0	621.5	949.5	1206	1341	1313	1152	1014	924.2	925.8	918.5	921.3	928.5	914.3	874.0	818.4	755.8	709.8	658.7	596.3	542.2	489.5	443.5	403.1	412.3	361.6	235.8	179.2	143.5	115.5	111.0	194.9	920.9	3237	2475	39.18	4.361	2.382	1.860	1.487	1.250	1.234	1.242	1.141	1.399	1.647	2.037	2.235	3.102	3.312	3.533	3.590	4.336	4.940	4.741	4.640	4.378	4.393	3.897	4.055	3.890	4.064	4.175	4.233	4.203	4.330	4.399	4.178	4.028	4.265	4.474	4.359	4.629	4.369	4.516	4.400	4.327	4.558
390.0	592.1	893.7	1132	1240	1224	1116	994.3	930.1	911.9	896.0	904.1	891.8	876.6	838.0	787.9	726.9	686.7	644.3	598.2	550.1	506.2	461.0	418.0	388.7	382.4	327.2	228.9	172.7	135.0	108.0	108.3	253.2	937.3	2351	2522	726.0	13.13	2.598	1.859	1.533	1.254	1.253	1.255	1.333	1.611	1.960	2.159	2.809	3.126	3.211	3.344	4.308	4.523	4.521	4.135	4.211	4.253	4.088	4.001	4.051	4.044	4.249	4.286	4.073	4.055	4.022	4.138	4.105	4.072	4.211	4.318	4.194	4.368	4.291	4.264	4.060	4.430
395.0	602.2	842.8	1036	1174	1155	1085	984.8	946.6	904.4	886.6	886.4	862.9	842.7	810.1	751.5	697.5	665.4	630.3	591.2	552.4	510.6	474.8	437.4	399.6	369.0	363.5	318.8	219.4	167.9	133.0	108.6	119.3	247.4	565.6	1593	3142	280.5	15.71	2.492	1.901	1.483	1.446	1.350	1.488	1.548	1.937	2.047	2.630	2.957	3.090	3.241	3.939	4.384	4.018	4.306	3.994	3.974	4.114	4.002	4.075	4.123	4.010	3.995	3.912	3.913	3.943	3.952	3.912	4.177	4.208	4.075	4.129	4.133	4.226	4.172	4.065	4.012
400.0	578.8	798.6	1003	1140	1117	1058	984.2	923.6	890.8	882.9	880.0	846.7	824.0	794.4	728.3	679.3	647.1	616.9	581.9	549.7	514.8	480.2	447.6	410.6	371.2	352.9	361.2	279.3	196.1	157.6	125.8	104.4	104.6	158.6	423.9	2075	2313	246.0	8.257	2.418	1.716	1.392	1.474	1.484	1.686	1.943	1.841	2.607	2.769	2.864	3.029	3.782	4.119	4.264	4.242	4.051	4.141	4.231	3.996	4.114	3.868	3.946	4.223	4.001	3.880	3.828	3.840	3.840	3.946	4.120	3.962	3.921	3.888	4.141	3.919	3.933	4.118
405.0	556.9	802.4	990.9	1057	1082	1040	979.5	914.9	898.2	872.3	865.6	837.3	813.3	773.3	711.8	664.5	626.6	597.2	569.0	542.6	511.4	486.3	454.6	420.8	381.1	352.7	354.4	336.3	240.8	179.7	145.0	113.7	83.96	75.50	122.2	577.3	2210	2136	190.2	4.406	1.858	1.620	1.598	1.440	1.647	1.882	1.956	2.637	2.789	2.843	2.990	3.666	4.295	4.337	3.887	3.832	4.071	4.130	3.880	3.856	3.819	4.298	4.263	3.815	3.689	3.652	3.771	3.644	3.778	3.883	3.792	3.681	3.907	4.054	3.836	3.704	3.993
410.0	534.5	781.3	930.1	1019	1035	1010	961.2	911.0	884.6	855.2	840.2	810.7	781.4	741.6	688.6	639.0	599.1	573.3	546.8	526.7	498.7	478.9	455.3	429.0	392.2	361.8	339.4	339.4	302.1	223.6	170.0	131.1	93.23	68.77	63.91	154.4	606.6	1666	2030	675.8	13.17	2.124	1.915	1.597	1.635	1.872	1.881	2.558	2.875	2.652	2.811	3.609	3.806	3.916	3.780	4.079	3.956	4.194	3.878	3.915	3.827	3.928	4.041	3.894	3.675	3.662	3.724	3.655	3.590	3.807	3.664	3.795	3.623	3.853	3.702	3.641	3.774
415.0	534.8	720.3	900.3	976.4	991.9	983.4	929.7	903.3	861.5	840.8	810.5	776.6	737.3	702.6	649.9	604.8	568.2	545.6	520.5	504.3	482.1	461.4	443.0	424.3	395.9	367.1	338.8	315.9	309.5	280.9	199.1	146.6	106.1	77.31	58.65	66.57	156.9	393.0	1055	2348	262.8	16.96	2.233	1.954	1.866	1.872	1.935	2.588	2.746	2.484	2.543	3.598	3.673	3.649	3.610	3.941	4.054	3.999	3.886	3.795	3.850	3.727	3.871	3.654	3.981	3.772	3.487	3.675	3.467	3.535	3.807	3.510	3.440	3.545	3.492	3.545	3.618
