Sample:	'1
File name:	g2025081902лф©зге.FD3
Run date:	'16:29:21, 08/19/2025
Operator:	Administrator
Comment:	'

Instrument
Model:	F-2700 FL Spectrophotometer
Serial number:	23B8-004
ROM Version:	4J14000 07

Instrument parameters
Measurement type:	3-D scan
Data mode:	Fluorescence
EX  Start WL:	220.0 nm
EX  End WL:	600.0 nm
EX Sampling interval:	5.0 nm
EM  Start WL:	230.0 nm
EM  End WL:	650.0 nm
EM Sampling interval:	5.0 nm
Scan speed:	12000 nm/min
EX Slit:	5.0 nm
EM Slit:	5.0 nm
PMT Voltage:	700 V
Response:	Auto 
Corrected spectra:	Off
Contour interval:	50.000

Peak integration
Integration method:	Rectangular
Sensitivity:	1
Threshold:	1.000

Peaks
No.	ApexEX/EM(nm)	Height(Data)
1	225.0/590.0	43.99
2	225.0/605.0	41.30
3	225.0/645.0	34.44
4	230.0/345.0	925.0
5	230.0/355.0	934.3
6	230.0/500.0	348.6
7	230.0/600.0	40.85
8	235.0/510.0	321.7
9	240.0/265.0	396.9
10	240.0/385.0	1073
11	240.0/525.0	273.8
12	245.0/270.0	395.9
13	245.0/535.0	239.9
14	250.0/275.0	509.7
15	250.0/550.0	191.3
16	255.0/280.0	644.3
17	255.0/560.0	164.3
18	260.0/380.0	1033
19	260.0/575.0	136.6
20	265.0/385.0	1045
21	265.0/585.0	120.0
22	270.0/300.0	1138
23	270.0/600.0	103.6
24	275.0/305.0	1194
25	275.0/610.0	88.10
26	280.0/310.0	1003
27	280.0/625.0	70.50
28	285.0/320.0	929.3
29	285.0/635.0	53.63
30	290.0/325.0	876.2
31	295.0/330.0	733.5
32	300.0/335.0	736.0
33	305.0/345.0	684.3
34	310.0/350.0	580.9
35	315.0/355.0	552.4
36	320.0/365.0	511.6
37	325.0/370.0	481.6
38	330.0/375.0	489.3
39	335.0/385.0	499.8
40	340.0/390.0	478.2
41	430.0/505.0	48.52
42	455.0/540.0	19.14
43	480.0/260.0	2.051
44	485.0/265.0	2.332
45	495.0/270.0	2.289
46	505.0/275.0	3.519
47	510.0/385.0	5.158
48	515.0/280.0	3.606
49	520.0/285.0	4.564
50	530.0/290.0	3.876
51	540.0/295.0	5.472
52	545.0/300.0	6.132
53	555.0/305.0	6.024
54	560.0/310.0	5.371
55	575.0/315.0	5.230
56	580.0/320.0	5.310
57	585.0/325.0	5.228

Data points
	220.0	225.0	230.0	235.0	240.0	245.0	250.0	255.0	260.0	265.0	270.0	275.0	280.0	285.0	290.0	295.0	300.0	305.0	310.0	315.0	320.0	325.0	330.0	335.0	340.0	345.0	350.0	355.0	360.0	365.0	370.0	375.0	380.0	385.0	390.0	395.0	400.0	405.0	410.0	415.0	420.0	425.0	430.0	435.0	440.0	445.0	450.0	455.0	460.0	465.0	470.0	475.0	480.0	485.0	490.0	495.0	500.0	505.0	510.0	515.0	520.0	525.0	530.0	535.0	540.0	545.0	550.0	555.0	560.0	565.0	570.0	575.0	580.0	585.0	590.0	595.0	600.0
230.0	30.14	613.5	1880	643.2	28.73	2.919	3.341	2.571	1.922	2.238	2.030	1.851	1.674	1.215	1.213	1.152	0.936	0.777	0.834	0.605	0.554	0.529	0.476	0.450	0.444	0.414	0.377	0.343	0.344	0.381	0.350	0.308	0.296	0.307	0.236	0.272	0.238	0.256	0.187	0.172	0.199	0.373	0.339	0.244	0.184	0.142	0.617	3.179	6.323	5.361	2.474	0.530	0.156	0.094	0.137	0.139	0.115	0.105	0.104	0.126	0.089	0.098	0.115	0.128	0.098	0.105	0.139	0.094	0.083	0.072	0.115	0.122	0.114	0.094	0.112	0.093	0.170
235.0	87.97	167.8	1007	1920	545.7	50.01	4.503	3.045	2.506	2.449	2.600	1.854	1.556	1.562	1.325	1.189	0.873	0.656	0.875	0.635	0.671	0.589	0.449	0.572	0.472	0.441	0.378	0.395	0.332	0.483	0.383	0.428	0.268	0.240	0.204	0.222	0.267	0.209	0.189	0.204	0.161	0.308	0.300	0.390	0.363	0.224	0.264	0.830	2.164	3.966	6.848	8.235	4.265	1.131	0.204	0.125	0.121	0.139	0.100	0.107	0.132	0.107	0.099	0.162	0.124	0.115	0.096	0.078	0.149	0.097	0.079	0.116	0.111	0.169	0.105	0.105	0.109
240.0	135.6	126.0	287.5	1439	2211	442.7	25.32	4.742	3.857	2.647	2.617	2.125	1.768	1.634	1.385	1.140	1.027	0.675	0.714	0.674	0.620	0.565	0.437	0.471	0.555	0.362	0.417	0.433	0.275	0.443	0.312	0.326	0.276	0.191	0.260	0.209	0.234	0.255	0.236	0.220	0.179	0.215	0.167	0.349	0.471	0.452	0.380	0.419	0.674	1.226	3.001	8.177	11.20	9.117	3.801	0.739	0.180	0.138	0.134	0.128	0.114	0.105	0.084	0.110	0.119	0.127	0.100	0.112	0.136	0.154	0.128	0.099	0.108	0.148	0.153	0.097	0.164
245.0	94.17	207.8	137.2	449.9	2061	2379	332.7	12.34	4.401	2.702	3.429	2.296	1.783	1.714	1.673	1.282	1.023	0.952	0.725	0.735	0.572	0.764	0.602	0.392	0.500	0.432	0.451	0.393	0.379	0.556	0.305	0.289	0.240	0.376	0.265	0.267	0.250	0.229	0.253	0.250	0.174	0.174	0.129	0.212	0.248	0.473	0.722	0.705	0.395	0.441	0.832	2.483	6.453	12.24	13.99	8.859	3.144	0.480	0.091	0.160	0.160	0.110	0.078	0.091	0.118	0.102	0.149	0.140	0.106	0.091	0.191	0.083	0.109	0.142	0.078	0.089	0.099
250.0	34.04	140.2	245.0	211.9	621.7	1962	2795	1118	76.57	4.670	3.871	3.317	2.710	1.880	1.701	1.200	1.141	1.009	0.873	0.729	0.684	0.617	0.545	0.509	0.580	0.520	0.451	0.386	0.321	0.361	0.281	0.322	0.339	0.306	0.258	0.222	0.189	0.261	0.251	0.282	0.177	0.218	0.217	0.192	0.152	0.287	0.401	0.686	0.885	0.885	0.610	0.794	1.661	3.613	6.896	11.24	15.08	14.76	9.317	3.086	0.463	0.148	0.130	0.103	0.150	0.107	0.103	0.108	0.124	0.070	0.125	0.145	0.080	0.177	0.083	0.088	0.202
255.0	15.86	46.40	149.4	339.3	255.5	485.5	1793	4246	1625	84.14	6.272	3.995	3.634	2.643	2.090	1.494	1.420	1.154	1.076	0.856	0.822	0.662	0.639	0.623	0.475	0.496	0.550	0.369	0.407	0.446	0.401	0.338	0.296	0.290	0.234	0.248	0.180	0.202	0.309	0.237	0.207	0.200	0.201	0.208	0.166	0.202	0.200	0.233	0.394	0.829	1.322	1.576	1.048	1.045	1.691	2.709	4.381	10.19	21.16	24.81	15.08	3.845	0.408	0.204	0.164	0.138	0.127	0.119	0.238	0.130	0.088	0.159	0.110	0.171	0.123	0.078	0.133
260.0	21.06	23.33	54.88	266.7	348.3	177.0	503.0	2977	4967	1265	40.56	5.946	3.358	3.573	2.520	1.774	1.608	1.155	1.178	0.879	0.865	0.770	0.660	0.565	0.419	0.526	0.429	0.345	0.406	0.474	0.380	0.332	0.366	0.297	0.257	0.245	0.225	0.210	0.198	0.301	0.235	0.244	0.212	0.206	0.218	0.210	0.167	0.168	0.189	0.377	0.670	1.819	2.051	1.240	0.622	0.798	1.238	2.628	7.682	18.26	29.62	27.08	12.64	2.148	0.195	0.219	0.121	0.141	0.185	0.102	0.141	0.123	0.168	0.098	0.096	0.146	0.082
265.0	22.53	19.70	24.30	113.0	396.9	275.4	150.2	904.7	4338	5185	237.7	17.30	4.734	4.426	3.241	2.071	1.810	1.385	1.094	0.970	0.888	0.888	0.876	0.580	0.614	0.543	0.515	0.529	0.443	0.534	0.457	0.404	0.336	0.311	0.276	0.208	0.296	0.260	0.274	0.214	0.190	0.223	0.222	0.172	0.209	0.241	0.214	0.163	0.157	0.194	0.250	0.706	1.562	2.332	1.706	0.834	0.526	0.698	1.943	4.800	12.20	26.01	33.96	24.49	8.077	0.890	0.187	0.174	0.252	0.109	0.197	0.117	0.137	0.099	0.105	0.177	0.138
270.0	32.92	28.46	26.96	37.93	169.2	395.9	301.6	259.7	1271	4158	5635	888.9	60.11	5.899	3.980	2.784	2.407	1.580	1.565	1.160	0.975	0.928	0.804	0.602	0.666	0.663	0.527	0.493	0.477	0.508	0.493	0.380	0.393	0.404	0.329	0.284	0.303	0.347	0.282	0.220	0.229	0.237	0.227	0.252	0.192	0.294	0.201	0.217	0.191	0.187	0.196	0.343	0.519	1.081	1.852	2.289	2.211	1.376	0.774	1.288	3.001	6.902	13.41	22.57	27.18	29.70	17.10	6.847	1.064	0.199	0.232	0.159	0.198	0.091	0.117	0.144	0.172
275.0	65.70	70.89	48.00	32.18	51.80	158.6	509.7	344.5	338.4	1017	3326	7971	1254	63.92	6.467	3.590	2.889	2.101	1.641	1.461	1.249	1.080	1.063	0.857	0.746	0.681	0.635	0.481	0.592	0.524	0.381	0.401	0.495	0.504	0.502	0.326	0.395	0.347	0.317	0.293	0.226	0.277	0.274	0.307	0.324	0.416	0.299	0.371	0.301	0.272	0.196	0.202	0.327	0.380	0.538	0.883	1.983	3.519	2.579	1.221	0.933	1.893	3.247	5.362	7.131	14.75	33.69	46.31	26.59	8.119	0.631	0.182	0.240	0.122	0.108	0.116	0.147
280.0	128.6	121.6	89.54	49.80	38.42	58.25	287.5	644.3	271.1	299.0	926.5	5333	7739	896.5	26.70	5.429	3.877	2.671	2.010	1.747	1.537	1.154	1.047	0.930	0.821	0.751	0.557	0.453	0.682	0.471	0.547	0.390	0.536	0.434	0.487	0.473	0.497	0.300	0.300	0.368	0.298	0.320	0.363	0.309	0.393	0.596	0.512	0.563	0.434	0.304	0.272	0.302	0.283	0.316	0.265	0.411	0.799	1.892	3.370	3.606	1.948	0.985	1.146	1.607	1.938	3.892	9.880	25.39	43.10	35.21	20.52	4.135	0.292	0.195	0.102	0.204	0.231
285.0	178.5	173.0	149.0	84.08	47.96	45.66	118.3	520.0	593.9	225.6	323.1	1592	6786	6341	129.5	12.50	5.182	3.427	2.332	1.936	1.595	1.328	0.914	1.158	0.682	0.723	0.714	0.520	0.733	0.422	0.644	0.552	0.560	0.539	0.457	0.500	0.555	0.443	0.421	0.396	0.390	0.337	0.412	0.506	0.460	0.659	0.639	0.753	0.534	0.406	0.335	0.300	0.292	0.287	0.298	0.372	0.424	0.709	1.530	3.342	4.564	2.909	1.326	0.952	1.020	1.467	2.816	6.511	14.56	31.21	48.06	31.43	13.78	1.601	0.241	0.285	0.285
290.0	248.4	268.3	231.2	137.8	79.22	69.32	87.37	236.3	604.6	673.1	355.0	563.8	1988	5153	5744	1495	33.90	5.253	3.397	2.448	1.877	1.534	1.264	1.202	0.974	0.767	0.769	0.722	0.701	0.643	0.511	0.619	0.593	0.610	0.677	0.622	0.733	0.564	0.461	0.419	0.464	0.526	0.459	0.512	0.618	0.713	0.827	0.995	0.782	0.714	0.494	0.506	0.429	0.383	0.407	0.417	0.514	0.563	0.834	1.504	2.344	3.533	3.876	3.347	2.070	1.507	1.788	2.457	4.267	8.317	16.00	24.40	34.08	34.30	20.95	10.10	1.726
295.0	289.0	343.2	308.2	192.7	117.6	97.77	109.9	173.3	321.6	762.1	878.9	483.6	690.8	1330	3281	6955	704.6	36.31	5.327	3.494	2.579	1.802	1.816	1.239	1.083	1.121	1.006	0.764	0.743	0.650	0.601	0.561	0.593	0.709	0.694	0.767	0.797	0.682	0.603	0.493	0.552	0.621	0.596	0.616	0.749	0.920	0.941	1.069	1.151	0.976	0.740	0.722	0.653	0.617	0.669	0.583	0.768	0.758	0.850	1.092	1.308	1.715	2.314	4.212	5.472	4.029	2.373	1.983	2.380	3.129	4.761	6.377	8.747	13.11	28.94	49.64	31.98
300.0	342.8	391.0	351.5	225.8	145.7	127.5	139.6	180.8	276.0	523.4	1138	770.9	475.0	485.5	912.5	4627	5804	535.5	15.86	4.717	3.242	2.298	1.813	1.532	1.221	1.190	1.056	0.784	0.760	0.772	0.579	0.611	0.639	0.688	0.728	0.897	0.751	0.738	0.612	0.551	0.562	0.628	0.580	0.623	0.835	0.988	0.936	1.321	1.286	1.023	0.785	0.829	0.707	0.629	0.756	0.677	0.793	0.765	0.935	1.099	1.288	1.408	1.847	2.612	4.130	6.132	5.633	3.161	2.361	2.215	2.353	2.516	2.705	3.590	7.947	21.35	40.34
305.0	334.9	423.3	381.1	257.3	171.9	154.2	170.1	210.8	292.4	427.9	863.3	1194	594.4	344.1	330.2	1327	5486	4735	79.01	8.305	4.081	2.680	2.009	1.914	1.565	1.311	0.988	0.982	0.881	0.831	0.633	0.677	0.684	0.640	0.674	0.850	0.832	0.691	0.740	0.622	0.521	0.640	0.600	0.728	0.851	1.041	1.026	1.332	1.346	1.212	0.924	1.063	0.879	0.860	0.648	0.763	0.911	0.847	0.952	1.294	1.351	1.498	1.726	2.051	2.912	3.990	5.766	6.024	4.093	2.703	2.310	1.774	1.498	1.650	2.429	5.338	12.09
310.0	343.4	428.8	402.1	285.3	194.7	182.8	203.0	251.0	323.6	439.1	634.4	979.5	1003	483.9	245.5	392.1	1556	4124	4480	1178	23.60	4.054	2.723	2.215	1.579	1.336	1.262	1.126	0.971	0.808	0.771	0.688	0.740	0.729	0.773	0.796	0.831	0.744	0.727	0.587	0.616	0.638	0.696	0.736	0.864	1.020	1.156	1.287	1.306	1.138	1.042	1.010	1.041	0.861	0.837	0.912	0.965	1.035	1.230	1.467	1.579	1.756	1.939	2.166	2.581	2.941	3.640	4.617	5.371	5.233	3.976	2.355	1.681	1.341	1.437	1.880	3.322
315.0	357.4	452.3	411.8	309.4	230.7	221.8	239.5	277.4	351.6	454.4	587.9	712.7	885.8	890.7	361.0	241.9	463.5	1031	2733	5607	499.7	22.70	4.321	3.064	1.794	1.727	1.347	1.268	1.120	0.868	0.798	0.747	0.758	0.728	0.772	0.641	0.874	0.738	0.671	0.606	0.592	0.764	0.715	0.753	0.889	1.028	1.128	1.452	1.393	1.208	1.096	1.141	1.064	1.102	1.072	1.078	1.260	1.140	1.233	1.628	1.608	1.995	1.904	2.226	2.526	2.941	3.153	3.190	3.633	4.256	5.135	5.230	3.504	1.822	1.550	1.278	1.609
320.0	421.9	504.4	487.6	363.2	280.4	261.9	272.9	309.6	385.8	490.2	604.6	673.8	721.8	929.3	663.5	294.6	278.5	362.0	782.0	3818	4142	386.9	10.43	3.934	2.564	2.177	1.795	1.464	1.164	0.969	0.792	0.943	0.805	0.733	0.968	0.857	0.887	0.800	0.688	0.672	0.705	0.660	0.825	0.791	0.914	1.163	1.334	1.591	1.647	1.453	1.263	1.367	1.221	1.245	1.254	1.114	1.508	1.386	1.490	1.733	1.728	1.916	2.045	2.550	2.698	2.957	2.970	3.313	3.151	3.369	3.764	5.026	5.310	4.160	2.352	1.778	1.621
325.0	462.3	595.2	610.4	450.3	327.3	306.6	302.2	337.4	407.0	513.9	621.8	696.8	684.6	756.0	876.2	479.7	285.7	246.3	293.7	1142	4306	3534	59.65	6.381	3.394	2.397	1.855	1.431	1.278	1.102	0.770	0.871	0.962	0.973	0.884	0.839	0.808	0.825	0.775	0.630	0.738	0.648	0.821	0.931	1.051	1.384	1.521	1.853	2.017	1.670	1.490	1.535	1.310	1.451	1.404	1.340	1.639	1.572	1.477	1.844	1.989	2.143	2.293	2.615	2.833	3.108	3.151	3.326	3.145	3.468	3.416	3.695	4.434	5.228	4.347	2.899	2.168
330.0	499.7	674.3	737.9	569.9	425.8	360.6	347.6	374.6	442.4	538.3	645.3	716.1	709.8	669.9	716.3	733.5	467.6	274.4	221.4	368.7	1266	3265	3530	947.4	18.05	3.732	2.466	1.955	1.544	1.253	1.012	0.994	0.927	1.056	0.962	0.917	0.740	0.839	0.917	0.679	0.681	0.820	0.983	0.912	1.158	1.428	1.645	2.098	2.457	2.120	1.854	2.083	1.830	1.789	1.607	1.809	1.780	1.598	1.742	2.071	2.023	2.280	2.683	2.803	3.102	3.025	3.347	3.391	3.316	3.527	3.511	3.394	3.628	4.059	4.470	4.692	4.245
335.0	536.0	733.3	830.6	686.1	549.1	450.2	414.1	429.8	478.3	573.7	668.1	740.3	750.1	706.6	647.6	654.0	736.0	437.4	258.9	232.8	370.6	804.5	2318	4559	410.6	19.42	3.674	2.612	1.941	1.604	1.473	1.083	1.133	0.918	0.826	0.830	0.764	0.919	1.003	0.675	0.735	0.762	0.764	0.928	1.317	1.542	1.907	2.345	2.519	2.352	2.232	2.519	2.318	2.281	2.058	1.999	2.101	1.889	1.902	2.164	2.200	2.349	2.747	2.888	3.030	3.226	3.531	3.437	3.683	3.475	3.641	3.610	3.706	3.830	3.788	3.838	4.591
340.0	563.1	779.0	896.0	764.4	613.7	530.3	473.2	465.7	517.3	609.4	693.7	760.7	774.1	724.9	657.1	593.0	706.2	638.0	326.6	226.1	193.5	243.5	641.0	3243	3431	334.4	8.358	3.148	2.303	1.734	1.651	1.216	1.100	1.067	0.884	0.819	0.873	0.723	0.864	0.665	0.762	0.807	0.783	0.980	1.468	1.569	1.939	2.404	2.742	2.537	2.319	2.718	2.621	2.365	2.343	2.192	2.573	2.146	2.285	2.212	2.296	2.623	2.805	3.018	3.151	3.229	3.829	3.743	3.934	3.620	3.982	3.945	3.879	3.745	3.883	3.549	3.612
345.0	551.7	793.0	925.0	821.4	695.4	575.6	516.5	506.9	558.2	625.5	704.8	759.7	776.6	731.3	672.5	589.2	583.1	684.3	470.9	256.6	174.4	138.7	200.0	963.8	3637	2992	51.39	5.430	3.000	2.152	1.618	1.234	1.127	1.124	0.911	0.852	0.780	0.731	1.039	0.631	0.776	0.824	1.026	0.911	1.407	1.563	1.898	2.379	2.882	2.636	2.457	2.907	2.744	2.636	2.669	2.494	2.630	2.635	2.503	2.347	2.431	2.777	2.948	3.171	3.214	3.235	3.518	3.643	3.815	3.757	4.015	3.980	3.726	3.478	3.784	3.420	3.502
350.0	566.4	788.6	910.3	873.1	772.9	681.5	610.8	589.9	609.3	661.0	721.8	768.0	778.1	745.5	686.9	609.3	558.5	561.8	580.9	409.8	217.4	150.6	134.2	281.6	1076	2733	2888	763.7	16.22	3.224	2.196	1.496	1.204	1.074	1.075	0.895	0.741	0.820	0.985	0.667	0.853	0.914	0.912	1.175	1.316	1.630	1.896	2.547	2.844	2.729	2.772	3.204	2.988	3.132	2.991	2.920	2.895	2.838	2.893	2.706	2.859	2.981	3.163	3.423	3.156	3.483	3.653	3.652	3.722	3.879	4.186	3.972	3.887	3.873	3.892	3.776	3.621
355.0	571.3	787.8	934.3	909.1	845.7	802.3	721.7	705.7	724.8	745.3	771.1	792.4	806.2	766.9	715.8	639.4	589.0	530.2	502.4	552.4	355.3	199.6	155.2	161.1	309.9	680.8	1906	3403	374.7	17.24	3.247	2.185	1.731	1.159	1.094	0.966	0.880	0.742	0.843	0.714	0.821	0.895	0.854	0.977	1.369	1.742	1.869	2.459	2.691	2.764	2.932	3.338	3.433	3.524	3.523	3.209	3.249	3.479	3.098	3.214	3.395	3.523	3.455	3.627	3.564	3.722	3.826	3.659	3.644	3.936	4.100	3.970	4.231	4.052	4.114	3.771	4.012
360.0	558.8	757.3	924.3	940.4	910.6	859.6	813.5	797.9	811.3	818.2	817.7	831.7	821.2	781.3	744.3	670.4	615.1	538.4	479.0	515.0	493.9	281.5	192.7	156.0	160.9	215.2	534.0	2566	3108	306.4	7.431	2.872	2.070	1.413	1.282	1.057	0.852	0.836	0.922	0.740	0.728	0.903	0.896	1.076	1.336	1.671	1.838	2.450	2.709	2.880	2.836	3.481	3.628	3.957	3.695	3.610	3.784	3.473	3.475	3.677	3.713	4.137	4.000	3.936	3.831	3.796	3.764	3.832	3.999	4.146	3.848	4.064	4.278	4.169	3.866	4.248	3.911
365.0	569.9	745.9	915.6	937.0	953.0	909.4	875.5	867.2	870.7	888.7	875.1	863.0	833.0	788.2	751.4	689.5	629.2	560.8	495.1	463.3	511.6	412.4	248.4	186.3	151.7	132.4	176.0	774.5	3111	2695	48.68	4.524	2.388	1.837	1.415	1.155	0.934	0.902	1.026	0.729	0.822	0.848	0.959	1.083	1.248	1.573	1.822	2.433	2.867	2.796	2.965	3.510	3.770	3.992	3.850	3.704	4.042	3.869	3.827	3.982	3.920	4.161	4.246	4.077	4.103	4.020	3.968	3.972	3.926	4.253	4.041	4.356	4.085	4.307	4.124	4.140	4.023
370.0	546.8	745.6	912.7	959.7	989.1	976.5	954.6	931.6	936.1	951.7	925.5	897.9	851.0	806.9	765.1	708.2	652.8	591.5	530.8	476.7	456.3	481.6	393.2	254.6	188.8	147.8	124.1	232.2	921.5	2434	2599	674.7	14.47	2.653	1.827	1.256	1.009	0.929	0.982	0.874	0.893	0.878	0.947	1.200	1.379	1.573	1.936	2.487	2.747	2.778	2.930	3.721	3.847	3.977	4.128	4.006	4.183	4.143	4.006	4.148	4.124	4.470	4.617	4.335	4.524	4.127	4.139	4.070	4.241	4.127	4.110	4.223	4.302	4.204	4.220	4.221	4.148
375.0	534.1	722.3	923.9	988.4	1038	1018	1002	988.4	1003	994.4	975.0	932.2	882.4	826.2	776.1	717.6	678.6	623.2	568.5	515.5	467.9	450.7	489.3	393.3	258.0	195.4	149.5	137.8	265.3	607.7	1743	3049	323.8	13.78	2.460	1.676	1.485	1.166	0.996	0.854	0.911	0.959	1.119	1.146	1.369	1.499	1.921	2.429	2.609	2.901	2.918	3.758	3.810	3.922	4.082	4.246	4.499	4.334	4.385	4.618	4.397	4.546	4.597	4.431	4.783	4.306	4.453	4.214	4.346	4.192	4.166	4.125	4.373	4.319	4.313	4.266	4.347
380.0	544.8	745.4	910.0	1001	1053	1063	1044	1023	1033	1019	1008	963.7	904.5	836.4	781.7	722.1	687.9	641.3	595.0	542.5	493.9	461.0	476.0	495.8	345.9	245.2	186.4	141.8	138.8	189.7	491.5	2291	2606	247.3	6.250	2.342	1.686	1.420	1.122	0.934	0.972	0.908	0.907	1.312	1.385	1.471	1.832	2.335	2.367	2.784	3.078	3.814	3.964	4.439	4.453	4.696	4.850	4.302	4.592	4.755	4.394	4.685	4.802	4.513	4.698	4.435	4.324	4.465	4.333	4.271	4.398	4.434	4.235	4.380	4.093	4.350	4.470
385.0	562.2	731.9	875.3	1006	1073	1072	1059	1029	1026	1045	1020	971.7	905.2	840.4	772.2	729.4	693.4	651.8	608.7	562.2	521.8	479.4	460.2	499.8	452.1	298.7	221.7	169.0	130.4	113.1	159.1	691.5	2517	2078	39.19	4.061	2.293	1.797	1.250	1.051	1.010	0.900	0.930	1.208	1.363	1.623	1.894	2.348	2.492	2.744	3.017	3.897	4.148	4.316	4.402	4.626	4.718	4.583	5.158	4.635	4.562	4.882	4.918	4.839	4.597	4.608	4.454	4.401	4.270	4.406	4.607	3.908	4.007	4.553	4.267	4.211	4.283
390.0	539.5	743.3	846.9	976.5	1059	1066	1060	1037	1035	1043	1014	970.1	903.7	835.9	773.2	724.6	688.0	659.8	622.7	584.4	543.7	504.1	474.0	466.1	478.2	413.4	284.6	207.6	159.6	122.5	104.3	202.4	734.9	1812	1861	166.1	12.02	2.481	1.583	1.288	1.163	1.012	1.110	1.196	1.384	1.568	1.979	2.363	2.508	2.758	2.904	3.931	3.934	4.221	4.256	4.719	4.619	4.653	5.042	4.553	4.551	4.508	4.704	4.693	4.646	4.517	4.448	4.408	4.120	4.212	4.301	4.144	4.196	4.413	4.158	4.319	4.443
395.0	549.6	709.3	844.2	954.6	1021	1059	1047	1042	1041	1034	993.1	955.5	901.4	832.4	766.3	717.5	679.1	657.4	628.2	593.7	560.7	531.3	500.8	472.5	451.8	458.3	389.2	264.2	198.4	158.1	119.6	112.3	207.1	451.1	1209	2180	272.0	12.12	2.479	1.752	1.358	1.218	1.210	1.235	1.436	1.689	1.980	2.253	2.624	2.571	2.725	3.877	3.926	4.100	4.379	4.413	4.776	4.581	4.495	4.734	4.634	4.425	4.895	4.782	4.564	4.457	4.335	4.366	4.268	4.194	4.275	4.038	4.012	4.097	4.131	4.186	4.194
400.0	545.5	699.5	853.0	944.1	1015	1042	1035	1030	1024	1005	1008	952.6	890.3	824.8	755.6	709.4	671.7	645.2	628.0	603.2	566.6	543.9	518.5	487.6	457.5	441.3	447.6	336.9	236.6	187.3	143.4	110.3	105.5	140.1	338.5	1551	1919	216.2	6.081	2.240	1.560	1.409	1.298	1.344	1.396	1.491	1.985	2.278	2.417	2.698	2.819	3.632	3.787	3.988	4.532	4.333	4.804	4.491	4.533	4.537	4.366	4.479	4.601	4.749	4.583	4.373	4.351	4.442	4.085	4.176	4.176	4.007	4.090	4.018	4.219	3.969	4.095
405.0	500.4	694.6	845.8	930.9	981.3	1027	1030	1022	1010	999.0	986.6	942.6	890.9	811.6	747.7	699.3	668.7	637.4	627.6	604.5	571.6	552.1	528.7	505.1	468.4	436.1	440.2	409.7	288.2	219.7	169.2	126.7	98.50	81.61	111.1	457.2	1711	1563	36.39	3.612	1.839	1.520	1.551	1.368	1.433	1.433	1.935	2.342	2.404	2.744	2.960	3.604	3.775	4.165	4.338	4.283	4.566	4.693	4.471	4.465	4.312	4.245	4.416	4.440	4.305	4.088	4.285	4.274	4.236	4.104	3.944	4.276	4.201	4.108	4.130	4.112	3.948
410.0	462.8	664.5	813.6	901.6	954.6	1003	1004	1008	998.5	981.0	958.3	914.7	862.1	798.9	732.1	679.8	649.3	630.5	609.2	592.1	567.7	552.1	530.7	511.3	480.3	442.9	413.4	411.3	370.6	271.2	201.5	154.4	114.8	85.62	72.03	135.7	489.3	1254	1379	155.8	11.23	2.095	1.745	1.539	1.568	1.692	1.912	2.353	2.483	2.580	2.835	3.613	3.655	4.069	4.043	4.085	4.537	4.525	4.280	4.509	4.391	4.293	4.457	4.481	4.459	4.216	4.036	3.936	4.139	3.942	3.960	3.994	4.034	3.872	3.947	3.795	3.829
