Sample:	'1
File name:	Default_20240316_162410.FD3
Run date:	'16:17:49, 03/16/2024
Operator:	dsjg
Comment:	'

Instrument
Model:	F-2700 FL Spectrophotometer
Serial number:	2198-001
ROM Version:	4J14000 07

Instrument parameters
Measurement type:	3-D scan
Data mode:	Fluorescence
EX  Start WL:	220.0 nm
EX  End WL:	600.0 nm
EX Sampling interval:	5.0 nm
EM  Start WL:	230.0 nm
EM  End WL:	650.0 nm
EM Sampling interval:	5.0 nm
Scan speed:	12000 nm/min
EX Slit:	5.0 nm
EM Slit:	5.0 nm
PMT Voltage:	700 V
Response:	Auto 
Corrected spectra:	Off
Contour interval:	50.000

Peak integration
Integration method:	Rectangular
Sensitivity:	1
Threshold:	1.000

Peaks
No.	ApexEX/EM(nm)	Height(Data)
1	225.0/580.0	43.54
2	225.0/610.0	33.41
3	225.0/620.0	25.12
4	230.0/305.0	474.0
5	230.0/595.0	38.81
6	235.0/375.0	231.5
7	235.0/515.0	107.6
8	240.0/525.0	96.12
9	245.0/540.0	80.47
10	250.0/420.0	274.3
11	250.0/545.0	73.85
12	255.0/280.0	197.4
13	255.0/555.0	55.08
14	260.0/285.0	222.8
15	260.0/405.0	275.9
16	260.0/445.0	275.2
17	260.0/570.0	46.43
18	265.0/420.0	284.1
19	265.0/580.0	48.22
20	270.0/385.0	270.8
21	270.0/400.0	278.9
22	270.0/435.0	280.2
23	270.0/590.0	41.66
24	275.0/305.0	522.1
25	275.0/405.0	274.3
26	275.0/605.0	36.86
27	280.0/310.0	453.8
28	280.0/615.0	30.92
29	285.0/630.0	19.66
30	300.0/335.0	188.7
31	305.0/340.0	196.4
32	310.0/350.0	168.1
33	315.0/355.0	166.9
34	320.0/360.0	188.4
35	325.0/365.0	174.5
36	330.0/375.0	173.9
37	335.0/380.0	189.8
38	340.0/385.0	187.9
39	345.0/395.0	171.8
40	350.0/400.0	182.1
41	355.0/405.0	181.7
42	365.0/420.0	164.8
43	370.0/425.0	154.3
44	380.0/440.0	119.5
45	385.0/445.0	109.6
46	415.0/485.0	45.69
47	420.0/490.0	39.61
48	425.0/495.0	35.67
49	430.0/505.0	31.29
50	435.0/510.0	26.93
51	440.0/515.0	24.11
52	445.0/525.0	21.25

Data points
	220.0	225.0	230.0	235.0	240.0	245.0	250.0	255.0	260.0	265.0	270.0	275.0	280.0	285.0	290.0	295.0	300.0	305.0	310.0	315.0	320.0	325.0	330.0	335.0	340.0	345.0	350.0	355.0	360.0	365.0	370.0	375.0	380.0	385.0	390.0	395.0	400.0	405.0	410.0	415.0	420.0	425.0	430.0	435.0	440.0	445.0	450.0	455.0	460.0	465.0	470.0	475.0	480.0	485.0	490.0	495.0	500.0	505.0	510.0	515.0	520.0	525.0	530.0	535.0	540.0	545.0	550.0	555.0	560.0	565.0	570.0	575.0	580.0	585.0	590.0	595.0	600.0
230.0	17.79	482.2	 1514	534.6	15.90	3.324	3.831	2.998	2.717	1.817	1.818	1.443	1.566	1.009	0.636	0.676	0.604	0.688	0.761	0.612	0.495	0.596	0.381	0.476	0.478	0.437	0.405	0.521	0.347	0.335	0.446	0.376	0.318	0.339	0.393	0.452	0.582	0.501	0.511	0.492	0.443	0.413	0.383	0.376	0.329	0.354	0.314	0.957	2.927	3.969	2.294	0.632	0.249	0.247	0.184	0.187	0.183	0.209	0.190	0.151	0.124	0.133	0.128	0.086	0.076	0.138	0.141	0.144	0.097	0.086	0.099	0.068	0.093	0.073	0.092	0.107	0.099
235.0	23.75	141.5	977.4	 1892	686.3	23.81	2.601	2.718	3.334	2.325	1.275	0.922	1.390	1.250	0.679	0.905	0.549	0.925	0.699	0.381	0.632	0.680	0.291	0.524	0.576	0.609	0.431	0.526	0.401	0.468	0.366	0.333	0.340	0.416	0.251	0.539	0.488	0.490	0.498	0.607	0.344	0.353	0.315	0.439	0.393	0.355	0.422	0.480	1.000	2.151	3.734	5.195	3.984	1.247	0.276	0.216	0.068	0.225	0.162	0.178	0.201	0.127	0.093	0.186	0.084	0.197	-0.016	0.082	0.051	0.179	0.086	0.205	0.153	0.057	0.066	0.152	0.039
240.0	34.66	51.78	307.5	 1579	 2238	519.3	12.33	3.770	3.314	3.104	1.794	1.592	1.380	1.106	1.131	0.701	0.618	0.652	0.669	0.668	0.604	0.539	0.531	0.621	0.579	0.521	0.617	0.525	0.245	0.307	0.370	0.350	0.301	0.386	0.287	0.382	0.371	0.497	0.550	0.579	0.410	0.353	0.314	0.470	0.450	0.441	0.496	0.342	0.379	0.740	1.468	4.202	7.490	6.552	3.048	0.528	0.155	0.204	0.094	0.183	0.159	0.203	0.137	0.347	0.158	0.152	0.145	0.002	0.073	0.162	0.125	0.155	0.133	0.037	-0.021	0.096	0.155
245.0	34.75	75.28	90.42	556.7	 2227	 2255	364.2	7.208	3.921	3.211	2.554	3.003	1.234	1.525	1.409	0.728	0.419	0.716	0.704	0.538	0.598	0.556	0.630	0.578	0.487	0.424	0.543	0.487	0.232	0.377	0.413	0.376	0.461	0.305	0.401	0.467	0.306	0.400	0.428	0.653	0.536	0.401	0.332	0.368	0.338	0.348	0.467	0.402	0.270	0.375	0.560	1.409	3.901	7.438	9.630	6.448	2.243	0.408	0.129	0.255	0.220	0.179	0.085	0.153	0.223	0.222	0.168	0.074	0.069	0.131	0.102	0.164	0.151	0.012	0.007	0.052	0.054
250.0	21.19	69.25	107.1	159.4	725.2	 2046	 2493	995.9	61.22	4.481	3.355	2.826	1.685	1.979	1.230	0.728	0.951	0.606	0.784	0.673	0.769	0.490	0.666	0.514	0.522	0.332	0.408	0.590	0.363	0.415	0.395	0.370	0.308	0.365	0.440	0.331	0.313	0.299	0.348	0.526	0.459	0.525	0.397	0.375	0.384	0.289	0.316	0.481	0.500	0.445	0.487	0.539	1.149	2.316	4.501	7.160	9.638	8.924	5.534	1.956	0.326	0.221	0.202	0.216	0.162	0.174	0.144	0.138	0.073	0.074	0.134	0.043	0.140	0.106	0.073	0.141	0.120
255.0	12.19	20.90	78.14	141.9	200.1	516.6	 1735	 3448	518.0	59.96	4.907	3.757	2.443	2.171	1.870	1.314	0.732	0.411	0.636	0.905	0.708	0.604	0.511	0.586	0.460	0.473	0.465	0.684	0.436	0.359	0.427	0.242	0.391	0.321	0.327	0.297	0.343	0.165	0.284	0.339	0.597	0.537	0.452	0.478	0.511	0.335	0.327	0.329	0.381	0.378	0.563	0.697	0.662	0.728	1.175	1.779	3.095	6.516	12.42	14.34	8.311	2.085	0.214	0.225	0.218	0.109	0.141	0.095	0.100	0.103	0.178	0.102	0.082	0.124	0.043	0.104	0.069
260.0	12.29	10.32	34.16	121.4	151.3	138.3	517.0	 2534	 3585	440.0	26.06	5.035	3.334	1.891	1.520	1.100	0.997	0.830	0.733	0.740	0.878	0.655	0.539	0.406	0.555	0.335	0.616	0.506	0.491	0.303	0.334	0.443	0.583	0.392	0.457	0.294	0.308	0.294	0.269	0.267	0.364	0.439	0.533	0.562	0.429	0.396	0.326	0.301	0.279	0.283	0.352	0.671	0.821	0.538	0.659	0.529	0.860	1.769	4.855	11.02	17.25	14.56	6.095	1.042	0.145	0.201	0.179	0.079	0.104	0.132	0.165	0.141	0.012	0.064	0.102	0.136	0.021
265.0	9.398	11.69	15.06	61.16	157.2	113.2	130.5	819.9	 3277	 3384	347.8	11.36	3.914	3.154	1.797	0.918	1.091	1.091	1.389	0.654	0.914	0.495	0.695	0.464	0.560	0.624	0.480	0.589	0.599	0.533	0.370	0.576	0.398	0.276	0.374	0.192	0.407	0.230	0.256	0.243	0.351	0.338	0.458	0.441	0.435	0.433	0.425	0.349	0.317	0.288	0.377	0.363	0.697	0.783	0.809	0.466	0.395	0.558	1.199	3.229	8.422	16.63	18.88	12.37	3.444	0.426	0.119	0.135	0.126	0.075	0.160	0.187	0.032	0.105	0.143	0.151	0.027
270.0	19.71	18.83	23.70	26.14	74.55	145.7	120.3	209.2	976.1	 2722	 3389	 1371	90.92	4.490	2.871	1.634	1.600	1.267	1.139	0.874	0.908	0.799	0.758	0.724	0.646	0.666	0.456	0.584	0.603	0.397	0.518	0.522	0.370	0.338	0.362	0.310	0.321	0.245	0.303	0.323	0.277	0.206	0.315	0.451	0.435	0.566	0.490	0.434	0.398	0.379	0.284	0.328	0.426	0.491	0.635	0.806	0.683	0.556	0.447	0.935	2.132	4.718	8.492	13.28	16.23	14.39	9.023	3.103	0.489	0.113	0.237	0.123	0.077	0.168	0.038	0.076	0.020
275.0	37.76	50.43	54.88	27.15	24.18	67.88	164.9	158.5	244.3	668.7	 1946	 4402	 2027	104.4	4.565	2.602	2.028	1.646	1.293	1.208	0.997	0.734	0.889	0.936	0.587	0.790	0.687	0.554	0.735	0.523	0.555	0.423	0.472	0.360	0.395	0.304	0.344	0.349	0.278	0.308	0.284	0.210	0.288	0.294	0.381	0.592	0.513	0.539	0.527	0.454	0.261	0.248	0.377	0.337	0.294	0.532	0.591	0.979	0.949	0.557	0.748	1.302	2.168	3.122	5.019	9.720	17.58	20.98	12.98	3.290	0.294	0.067	0.170	0.138	0.084	0.087	0.089
280.0	64.18	91.99	87.03	43.22	21.18	28.48	104.2	197.4	150.8	187.6	556.4	 2635	 4661	 1572	48.73	4.193	2.862	1.910	1.515	1.286	1.016	0.743	0.941	0.764	0.537	0.776	0.665	0.714	0.613	0.512	0.591	0.571	0.492	0.411	0.462	0.400	0.250	0.412	0.350	0.309	0.307	0.245	0.284	0.216	0.403	0.502	0.639	0.642	0.519	0.582	0.370	0.402	0.317	0.495	0.377	0.319	0.376	0.717	0.882	0.934	0.758	0.713	0.804	0.935	1.346	2.621	6.508	14.72	22.47	20.37	9.343	1.384	0.187	0.145	0.115	0.186	0.163
285.0	105.4	154.9	159.0	84.21	35.15	28.96	57.00	166.4	222.8	137.5	199.5	832.2	 3220	 4449	 1122	13.18	4.209	2.777	1.818	1.605	1.268	1.160	0.860	0.732	0.641	0.733	0.606	0.732	0.660	0.564	0.526	0.544	0.564	0.328	0.483	0.603	0.360	0.281	0.339	0.355	0.184	0.383	0.309	0.179	0.318	0.568	0.747	0.760	0.779	0.626	0.495	0.509	0.444	0.495	0.394	0.377	0.411	0.511	0.593	0.859	1.209	0.977	0.646	0.503	0.655	1.005	2.014	4.277	9.923	18.67	23.83	17.51	5.191	0.396	0.179	0.100	0.204
290.0	150.2	263.3	297.4	181.5	79.46	47.62	53.74	106.6	215.4	282.2	235.7	340.3	 1014	 2586	 3643	 1877	57.96	4.313	2.783	1.793	1.465	1.441	0.956	0.984	0.890	0.822	0.694	0.758	0.830	0.570	0.545	0.641	0.672	0.420	0.388	0.478	0.333	0.283	0.423	0.318	0.233	0.410	0.288	0.300	0.425	0.571	0.694	0.917	1.130	0.973	0.838	0.710	0.630	0.569	0.458	0.361	0.435	0.425	0.460	0.629	0.793	1.160	1.175	1.100	0.928	0.908	1.025	1.587	2.814	5.513	10.10	15.18	19.39	17.74	12.19	4.014	0.381
295.0	203.5	369.3	422.1	277.4	121.5	67.51	68.82	102.7	166.4	312.4	421.8	341.4	421.9	720.9	 1624	 3791	 3071	67.87	4.286	2.494	2.085	1.784	1.133	1.282	0.903	0.800	0.767	0.726	0.966	0.771	0.678	0.608	0.354	0.545	0.454	0.481	0.396	0.417	0.341	0.263	0.312	0.339	0.279	0.391	0.445	0.573	0.712	1.264	1.324	1.236	1.177	0.830	0.768	0.635	0.453	0.460	0.532	0.432	0.433	0.690	0.733	0.724	0.967	1.484	1.727	1.529	1.281	1.228	1.492	2.082	2.905	3.848	5.566	10.40	21.77	27.12	17.48
300.0	233.7	403.0	463.7	323.1	149.2	79.10	83.93	110.4	172.8	281.6	454.4	458.1	327.1	306.1	471.9	 2009	 4610	 1038	31.89	3.372	2.732	2.147	1.434	1.309	1.172	1.004	1.064	0.858	0.777	0.775	0.715	0.779	0.366	0.583	0.601	0.588	0.514	0.480	0.490	0.292	0.373	0.276	0.289	0.342	0.573	0.580	0.763	0.997	1.365	1.529	1.226	1.105	0.975	0.719	0.561	0.572	0.652	0.505	0.534	0.717	0.705	0.785	1.087	1.282	1.573	2.151	1.924	1.328	1.260	1.358	1.341	1.338	1.611	2.914	7.506	17.46	29.17
305.0	226.1	394.9	474.0	330.9	165.6	88.07	87.23	118.7	172.1	258.8	400.4	522.1	398.5	223.2	172.2	593.8	 2598	 4576	782.4	8.868	3.552	2.452	2.003	1.481	1.399	1.369	1.062	0.883	0.813	0.786	0.747	0.894	0.612	0.637	0.617	0.593	0.610	0.563	0.432	0.229	0.466	0.423	0.318	0.520	0.516	0.666	0.991	1.069	1.361	1.347	1.159	1.112	0.900	0.736	0.537	0.534	0.622	0.599	0.590	0.763	0.844	0.813	1.076	1.112	1.341	1.617	2.145	2.224	1.597	1.207	1.135	0.783	0.675	0.877	2.005	4.791	12.14
310.0	218.6	382.3	452.8	316.5	157.1	86.94	92.73	126.0	171.8	245.6	334.1	428.0	453.8	290.7	117.7	169.5	718.1	 2295	 3767	 2027	37.45	4.094	2.695	1.988	1.701	1.367	0.987	0.988	0.925	0.743	0.745	0.639	0.712	0.511	0.613	0.518	0.617	0.457	0.410	0.347	0.418	0.425	0.442	0.358	0.513	0.617	0.816	0.999	1.208	1.275	1.125	1.081	0.908	0.698	0.624	0.529	0.584	0.544	0.595	0.756	0.847	0.992	1.028	1.079	1.189	1.346	1.677	2.021	2.018	1.839	1.501	0.760	0.620	0.592	0.746	1.273	3.029
315.0	208.7	342.5	414.0	281.1	145.0	87.11	90.46	125.1	165.9	237.2	306.0	346.4	369.2	365.1	177.3	83.04	186.5	546.9	 1454	 4049	 3034	43.61	3.348	2.249	1.927	1.673	1.149	1.054	1.133	0.873	0.612	0.597	0.919	0.704	0.577	0.597	0.641	0.477	0.454	0.251	0.338	0.297	0.422	0.431	0.443	0.738	0.799	0.871	1.021	1.091	0.970	0.883	0.982	0.770	0.565	0.530	0.627	0.540	0.694	0.762	0.830	0.825	1.057	1.159	1.317	1.334	1.497	1.467	1.383	1.598	1.834	1.428	0.785	0.747	0.432	0.503	0.937
320.0	200.2	300.7	370.8	262.0	134.3	89.99	89.34	119.0	162.7	222.6	286.2	312.6	307.7	309.1	257.9	95.15	74.12	144.1	380.6	 1852	 5080	727.3	21.00	3.327	2.388	2.049	1.496	1.392	1.395	1.199	0.699	0.865	0.691	0.569	0.705	0.466	0.749	0.535	0.389	0.382	0.336	0.345	0.419	0.453	0.422	0.753	0.657	0.773	1.010	1.026	0.786	0.757	0.733	0.754	0.566	0.616	0.637	0.623	0.536	0.629	0.727	0.854	1.058	0.989	1.246	1.111	1.237	1.235	1.187	1.331	1.442	1.483	1.371	0.993	0.443	0.535	0.588
325.0	168.4	279.3	360.5	244.4	131.0	87.24	92.17	117.8	162.7	211.8	271.0	291.7	280.7	249.0	252.7	172.9	60.47	61.09	105.5	511.0	 2611	 4917	561.0	7.192	3.083	2.235	1.715	1.403	1.298	1.257	0.887	0.741	0.779	0.636	0.665	0.671	0.627	0.567	0.541	0.351	0.479	0.364	0.437	0.381	0.482	0.660	0.607	0.802	0.980	0.863	0.782	0.718	0.616	0.665	0.620	0.688	0.706	0.591	0.628	0.720	0.775	0.743	0.852	0.958	1.200	1.201	1.187	1.095	1.198	1.221	1.076	1.068	1.206	1.493	0.945	0.630	0.515
330.0	150.3	255.4	323.1	245.3	134.6	96.77	95.69	125.0	160.8	208.9	258.2	282.2	271.6	225.6	189.2	205.5	134.1	58.80	50.69	135.7	685.4	 2398	 4004	 1982	30.61	3.697	2.807	1.823	1.694	1.302	1.096	1.030	0.879	0.663	0.771	0.638	0.570	0.604	0.537	0.463	0.461	0.414	0.429	0.375	0.472	0.677	0.578	0.710	0.892	0.828	0.757	0.639	0.633	0.565	0.608	0.710	0.659	0.630	0.656	0.675	0.739	0.795	0.940	1.011	1.124	1.076	1.274	1.074	1.165	1.092	1.098	1.025	0.926	1.051	1.200	1.118	0.900
335.0	137.2	240.0	293.5	237.2	144.9	98.62	101.5	129.4	156.7	206.3	243.7	271.1	264.2	220.4	166.0	149.7	188.7	130.1	51.31	57.94	174.7	563.2	 1456	 4708	 2829	37.21	4.078	2.844	2.204	1.584	1.328	1.221	0.984	0.785	0.961	0.852	0.558	0.537	0.545	0.411	0.453	0.389	0.468	0.484	0.502	0.662	0.722	0.767	0.754	0.772	0.709	0.749	0.690	0.590	0.554	0.545	0.611	0.604	0.644	0.651	0.792	0.837	0.917	1.009	1.176	1.120	1.108	1.123	1.232	1.151	1.122	1.008	0.998	0.810	0.957	0.977	1.292
340.0	122.1	225.1	283.5	234.7	154.5	113.9	108.2	128.3	160.1	196.0	238.3	259.5	258.9	219.4	166.4	131.1	147.8	196.4	89.42	47.59	66.01	147.1	370.3	 2072	 5631	586.1	18.38	3.546	2.716	1.855	1.410	1.494	1.017	0.873	0.938	0.792	0.723	0.609	0.570	0.493	0.544	0.401	0.496	0.568	0.331	0.574	0.587	0.680	0.759	0.681	0.795	0.785	0.719	0.601	0.581	0.453	0.669	0.715	0.766	0.755	0.792	0.690	0.854	0.942	1.096	1.187	1.088	1.033	1.022	1.093	1.134	1.041	0.923	0.804	0.798	0.738	0.944
345.0	118.0	222.1	270.0	236.8	159.6	125.8	119.5	134.1	161.7	199.5	231.0	256.6	253.5	219.2	174.5	130.2	118.2	173.4	165.3	62.81	47.65	59.80	105.0	548.5	 3091	 4790	462.7	7.196	2.658	2.145	1.603	1.244	1.083	0.921	0.987	1.038	0.751	0.607	0.554	0.544	0.488	0.413	0.355	0.507	0.363	0.549	0.710	0.629	0.689	0.701	0.767	0.771	0.610	0.558	0.577	0.443	0.643	0.665	0.860	0.698	0.770	0.914	0.851	1.158	1.002	1.127	1.108	1.128	0.963	1.031	0.936	1.085	0.935	0.761	0.901	0.624	0.863
350.0	114.3	203.2	249.2	233.4	173.8	142.2	132.0	142.4	168.2	198.1	229.2	247.0	244.5	219.8	179.9	142.6	117.1	124.9	168.1	141.8	69.26	52.11	54.07	147.3	784.1	 2616	 4015	 1766	27.42	3.449	2.468	1.664	1.503	1.123	1.013	0.937	0.776	0.747	0.608	0.582	0.479	0.478	0.424	0.548	0.486	0.500	0.617	0.672	0.813	0.770	0.668	0.760	0.650	0.629	0.614	0.523	0.627	0.566	0.709	0.876	0.789	0.958	0.887	1.033	1.062	1.118	1.098	1.023	1.158	1.000	0.954	0.991	0.916	0.765	0.899	0.717	0.690
355.0	115.1	192.0	246.5	238.4	183.4	159.6	151.3	158.2	179.7	207.5	227.9	244.6	242.7	217.5	190.5	152.7	129.0	121.1	126.2	166.9	148.5	71.19	56.25	67.65	200.3	608.7	 1497	 4786	 2605	36.66	3.896	2.302	1.788	1.345	0.996	1.119	0.602	0.795	0.771	0.654	0.505	0.505	0.424	0.543	0.475	0.405	0.556	0.701	0.863	0.825	0.756	0.701	0.644	0.677	0.638	0.521	0.634	0.615	0.659	0.953	1.007	0.749	1.114	1.023	1.033	1.216	1.188	0.968	1.115	1.018	0.879	1.101	0.928	0.980	0.773	0.849	0.893
360.0	109.0	173.2	233.8	229.8	193.8	170.7	162.3	177.3	192.7	212.6	230.7	242.3	239.5	221.2	193.9	163.7	142.7	126.7	119.1	137.6	188.4	105.6	65.33	56.78	77.56	160.5	373.9	 2163	 5551	539.0	19.78	3.218	2.075	1.798	1.157	1.019	0.886	0.722	0.824	0.621	0.592	0.437	0.502	0.588	0.492	0.407	0.567	0.594	0.677	0.747	0.653	0.693	0.820	0.722	0.684	0.696	0.644	0.686	0.723	0.808	0.967	0.926	1.006	1.005	0.882	0.926	1.158	1.073	1.107	1.127	0.884	1.045	1.005	0.932	0.837	0.970	0.948
365.0	97.56	153.8	209.0	224.1	210.2	189.7	181.3	191.7	205.9	223.5	233.7	244.7	242.5	226.3	199.6	165.4	147.8	134.4	124.0	122.2	163.9	174.5	90.20	63.66	59.06	66.86	106.4	556.1	 3204	 4417	432.0	7.616	2.909	1.982	1.636	1.132	0.998	0.906	0.676	0.693	0.602	0.589	0.500	0.520	0.535	0.538	0.573	0.532	0.717	0.716	0.630	0.789	0.869	0.682	0.678	0.636	0.637	0.627	0.710	0.833	0.875	1.019	1.036	1.061	0.992	1.151	1.348	1.062	1.037	1.001	1.068	1.148	1.100	0.937	0.868	0.939	0.937
370.0	90.20	161.5	208.2	226.7	219.9	199.7	193.1	202.6	214.7	226.7	241.0	245.6	244.2	225.6	204.2	178.4	160.8	149.5	140.5	135.6	139.5	172.1	164.9	97.89	67.65	57.34	55.62	148.1	805.8	 2637	 3952	 1617	25.21	2.812	2.039	1.489	1.132	1.020	0.776	0.786	0.669	0.693	0.519	0.554	0.381	0.518	0.541	0.549	0.736	0.620	0.640	0.747	0.802	0.718	0.796	0.783	0.710	0.744	0.841	0.736	0.956	1.063	1.162	1.170	1.098	1.182	1.260	1.012	1.099	1.078	1.054	1.137	0.944	0.985	0.944	1.030	0.994
375.0	87.88	155.7	214.7	231.5	229.9	214.5	217.7	219.0	223.4	234.6	253.2	253.1	243.2	231.9	209.4	190.7	172.7	166.9	158.1	150.2	142.6	148.4	173.9	167.7	89.33	68.83	56.80	67.32	202.8	611.8	 1540	 4677	 2365	32.12	2.919	2.157	1.312	1.179	0.997	0.892	0.774	0.677	0.589	0.481	0.451	0.503	0.639	0.667	0.767	0.588	0.686	0.722	0.788	0.751	0.804	0.750	0.762	0.897	0.892	0.801	0.876	0.936	1.067	1.178	1.085	1.118	1.285	1.105	1.197	1.062	1.075	1.117	0.946	0.974	1.079	1.117	0.865
380.0	87.13	146.1	204.4	228.4	226.5	230.5	223.9	230.3	235.4	250.3	265.3	267.1	254.6	232.4	219.7	195.4	183.3	172.8	166.0	160.0	152.3	147.5	153.7	189.8	139.4	84.99	65.92	55.61	75.94	157.9	377.1	 2149	 5026	452.0	18.54	2.625	1.763	1.402	0.977	0.901	0.671	0.624	0.688	0.592	0.648	0.569	0.656	0.653	0.739	0.718	0.634	0.636	0.870	0.786	0.763	0.853	0.941	0.803	0.918	1.025	0.901	0.894	1.023	1.052	1.172	1.318	1.182	1.188	1.211	1.236	1.100	1.171	0.991	1.117	1.084	1.127	1.087
385.0	103.1	147.2	199.8	227.3	232.5	237.2	234.7	243.3	247.3	255.2	270.8	267.9	254.0	237.5	220.0	198.8	187.9	179.2	175.8	170.3	163.4	152.8	148.3	170.4	187.9	113.6	78.48	61.84	54.54	63.46	104.8	544.0	 2929	 3656	357.8	6.742	2.224	1.586	1.226	0.937	0.870	0.717	0.681	0.599	0.508	0.614	0.634	0.683	0.630	0.683	0.700	0.781	0.849	0.873	0.730	0.817	0.811	0.744	0.907	0.986	0.897	0.813	1.050	1.006	1.113	1.327	1.160	1.167	1.043	1.034	1.012	1.121	0.994	1.163	1.038	1.121	1.109
390.0	81.75	145.5	211.5	232.8	244.0	246.1	243.9	250.6	255.8	262.5	267.6	267.7	259.1	241.2	225.7	206.0	192.0	185.8	185.0	179.5	174.0	165.4	157.4	156.6	174.9	169.1	111.8	76.95	62.49	53.74	53.27	142.9	731.5	 2188	 3127	 1309	21.66	2.336	1.661	1.212	0.959	0.827	0.711	0.581	0.551	0.606	0.643	0.549	0.588	0.637	0.682	0.860	0.968	0.827	0.870	0.814	0.948	0.868	0.848	0.918	0.874	0.951	0.982	1.109	1.045	1.169	1.038	1.203	1.141	1.049	1.170	1.088	1.138	1.203	1.219	1.150	1.128
395.0	87.14	156.6	192.6	233.7	247.1	253.8	251.2	265.7	265.2	266.9	276.0	272.7	266.0	245.7	228.6	209.9	194.4	190.0	191.1	187.3	182.8	176.5	170.3	161.7	158.3	171.8	171.6	108.4	78.47	63.78	52.52	62.52	183.0	506.3	 1192	 3649	 1963	29.41	2.551	1.648	1.302	0.943	0.879	0.591	0.692	0.677	0.522	0.720	0.614	0.654	0.705	0.817	0.891	0.864	0.938	0.878	1.047	0.972	0.905	1.042	1.012	1.035	1.070	1.262	1.128	1.112	1.000	1.307	1.378	1.166	1.171	1.069	1.272	1.089	1.156	1.157	0.945
400.0	87.07	146.2	201.9	233.9	250.2	253.7	261.6	272.6	274.7	271.8	278.9	269.9	263.3	244.8	228.0	213.8	197.2	194.7	192.4	190.1	187.4	184.2	177.4	166.6	157.9	158.0	182.1	152.4	96.44	76.15	60.41	50.53	66.99	131.3	290.0	 1646	 3909	386.4	18.38	2.278	1.630	1.164	0.784	0.599	0.687	0.778	0.506	0.682	0.578	0.696	0.643	0.690	0.925	0.912	0.846	0.877	0.942	1.067	0.883	0.974	0.968	1.031	1.069	1.059	0.996	1.042	1.107	1.171	1.150	1.222	1.101	1.294	1.214	1.094	1.090	1.135	1.087
405.0	86.05	157.0	205.1	235.9	253.2	252.4	273.7	272.6	275.9	272.7	269.6	274.3	266.6	252.6	231.5	214.5	197.8	194.0	193.1	193.6	190.8	187.5	182.4	176.0	164.6	156.7	164.4	181.7	127.7	89.00	69.81	54.21	46.17	51.14	80.54	410.4	 2158	 3066	325.3	8.093	1.852	1.227	1.101	0.815	0.739	0.633	0.684	0.739	0.779	0.606	0.744	0.691	0.937	0.931	0.859	0.934	0.976	1.034	1.066	1.167	1.047	1.112	1.188	1.121	0.996	1.044	1.258	0.980	1.141	1.251	1.100	1.211	1.114	1.162	1.144	1.161	1.263
410.0	88.41	145.1	199.5	226.8	250.6	262.3	262.9	272.3	273.6	280.9	277.6	270.2	266.1	252.0	232.4	211.5	197.0	193.4	192.3	192.2	191.0	189.9	184.0	181.6	169.6	162.0	155.8	167.4	167.0	121.0	84.01	65.19	49.44	40.09	38.66	106.7	529.7	 1679	 2540	 1108	20.30	2.085	1.298	1.066	0.899	0.773	0.696	0.721	0.695	0.614	0.730	0.774	0.835	0.799	0.886	0.853	0.976	0.991	0.985	1.109	1.044	1.215	1.210	1.079	1.063	1.207	1.108	1.084	1.202	1.195	1.105	1.118	1.182	1.100	1.145	1.019	1.231
