Sample:	'1
File name:	S20255080916¶«ÈýÂ·ÇÅ.FD3
Run date:	'14:12:33, 08/10/2025
Operator:	Administrator
Comment:	'

Instrument
Model:	F-2700 FL Spectrophotometer
Serial number:	3064-004
ROM Version:	4J14000 07

Instrument parameters
Measurement type:	3-D scan
Data mode:	Fluorescence
EX  Start WL:	220.0 nm
EX  End WL:	600.0 nm
EX Sampling interval:	5.0 nm
EM  Start WL:	230.0 nm
EM  End WL:	650.0 nm
EM Sampling interval:	5.0 nm
Scan speed:	12000 nm/min
EX Slit:	5.0 nm
EM Slit:	5.0 nm
PMT Voltage:	700 V
Response:	Auto 
Corrected spectra:	Off
Contour interval:	50.000

Peak integration
Integration method:	Rectangular
Sensitivity:	1
Threshold:	1.000

Peaks
No.	ApexEX/EM(nm)	Height(Data)
1	225.0/625.0	23.87
2	230.0/580.0	50.73
3	235.0/350.0	863.8
4	235.0/605.0	35.88
5	240.0/520.0	282.0
6	240.0/615.0	29.30
7	245.0/265.0	337.2
8	245.0/530.0	258.4
9	245.0/625.0	22.89
10	245.0/635.0	21.96
11	250.0/545.0	239.8
12	255.0/280.0	644.8
13	255.0/555.0	222.3
14	260.0/285.0	803.7
15	260.0/570.0	173.8
16	265.0/290.0	881.5
17	265.0/580.0	167.0
18	270.0/295.0	 1226
19	270.0/380.0	 1470
20	270.0/595.0	149.9
21	275.0/305.0	 1455
22	275.0/605.0	144.3
23	280.0/310.0	 1395
24	280.0/615.0	110.6
25	285.0/315.0	 1362
26	285.0/630.0	87.86
27	290.0/320.0	 1281
28	290.0/640.0	68.16
29	295.0/330.0	 1038
30	300.0/335.0	941.6
31	305.0/340.0	941.2
32	315.0/355.0	813.3
33	320.0/360.0	891.8
34	325.0/370.0	873.2
35	330.0/375.0	893.0
36	335.0/380.0	943.7
37	340.0/385.0	930.4
38	445.0/525.0	59.44
39	460.0/545.0	34.06
40	505.0/275.0	2.818
41	510.0/280.0	3.770
42	520.0/285.0	3.853
43	530.0/290.0	3.931
44	540.0/295.0	5.536
45	545.0/300.0	6.500
46	550.0/305.0	7.222
47	560.0/310.0	6.607
48	565.0/380.0	6.726
49	570.0/315.0	6.629
50	575.0/320.0	6.604
51	580.0/325.0	6.442
52	590.0/330.0	5.782

Data points
	220.0	225.0	230.0	235.0	240.0	245.0	250.0	255.0	260.0	265.0	270.0	275.0	280.0	285.0	290.0	295.0	300.0	305.0	310.0	315.0	320.0	325.0	330.0	335.0	340.0	345.0	350.0	355.0	360.0	365.0	370.0	375.0	380.0	385.0	390.0	395.0	400.0	405.0	410.0	415.0	420.0	425.0	430.0	435.0	440.0	445.0	450.0	455.0	460.0	465.0	470.0	475.0	480.0	485.0	490.0	495.0	500.0	505.0	510.0	515.0	520.0	525.0	530.0	535.0	540.0	545.0	550.0	555.0	560.0	565.0	570.0	575.0	580.0	585.0	590.0	595.0	600.0
230.0	15.25	418.4	 2762	 1821	102.4	7.843	7.202	5.894	4.990	5.411	4.242	4.917	4.154	3.997	3.023	2.697	2.615	2.456	2.026	1.898	1.949	1.777	1.612	1.367	1.412	1.206	1.161	1.286	1.034	1.027	0.901	0.956	0.969	0.758	0.803	0.861	0.784	0.646	0.668	0.737	0.612	0.772	0.667	0.626	0.506	0.608	1.383	5.332	10.64	8.353	3.441	0.932	0.401	0.354	0.358	0.371	0.387	0.366	0.341	0.298	0.286	0.282	0.273	0.251	0.173	0.287	0.258	0.208	0.302	0.215	0.155	0.197	0.186	0.232	0.204	0.262	0.234
235.0	46.38	114.4	 1126	 3264	 1117	164.6	8.390	5.087	7.212	4.698	4.723	5.222	3.777	5.452	3.612	2.581	2.880	1.881	1.968	1.878	1.749	1.547	1.687	1.262	1.673	1.257	1.476	1.298	0.923	1.280	0.877	0.818	0.757	0.891	0.838	0.722	0.819	0.740	0.689	0.720	0.648	0.719	0.877	0.557	0.654	0.516	0.812	1.702	3.997	7.080	9.804	10.71	5.381	1.272	0.446	0.454	0.446	0.418	0.258	0.427	0.225	0.318	0.262	0.159	0.139	0.203	0.267	0.287	0.276	0.302	0.194	0.264	0.359	0.220	0.264	0.190	0.274
240.0	48.98	76.94	281.0	 1791	 3932	954.8	76.51	7.093	7.796	7.359	6.826	5.254	4.976	5.179	4.035	2.511	3.033	2.190	1.309	1.707	1.840	1.760	1.638	1.242	1.522	1.097	1.642	1.550	1.118	1.089	1.080	0.833	0.986	0.807	0.849	0.832	0.819	0.803	0.743	0.973	0.682	0.647	0.595	0.574	0.653	0.928	0.799	0.900	1.287	2.222	5.051	11.61	15.33	9.647	3.740	0.680	0.492	0.389	0.285	0.371	0.230	0.256	0.439	0.235	0.163	0.229	0.210	0.252	0.231	0.224	0.094	0.147	0.178	0.147	0.238	0.163	0.206
245.0	32.05	97.21	115.8	481.3	 2666	 4664	787.5	39.19	8.208	7.388	6.097	6.765	4.962	5.771	3.658	3.526	2.558	2.373	1.930	1.936	2.459	1.944	1.395	1.405	1.530	1.430	1.409	1.279	1.041	0.926	1.033	1.276	0.943	0.836	0.815	0.666	0.788	0.678	0.917	0.898	0.782	0.570	0.638	0.549	0.537	0.962	0.951	1.048	0.727	0.990	1.530	3.766	9.337	16.68	16.12	8.818	2.512	0.501	0.437	0.291	0.220	0.211	0.295	0.417	0.164	0.258	0.140	0.359	0.270	0.184	0.157	0.185	0.202	0.182	0.202	0.196	0.186
250.0	16.96	51.12	147.0	207.1	697.5	 2678	 4664	 2690	225.1	11.59	7.850	6.973	6.513	5.218	3.854	3.740	2.530	2.758	2.459	2.264	2.103	1.803	1.784	1.528	1.730	1.265	1.388	1.342	1.155	1.096	1.094	1.065	0.717	0.970	0.847	0.742	0.572	0.651	0.716	0.739	0.702	0.633	0.607	0.476	0.595	0.794	0.658	0.897	0.957	1.025	0.916	1.309	2.558	5.034	9.136	13.80	17.52	14.99	8.959	2.901	0.487	0.266	0.365	0.257	0.269	0.230	0.235	0.284	0.280	0.210	0.218	0.232	0.171	0.183	0.292	0.188	0.216
255.0	9.626	25.60	64.06	237.8	295.1	629.5	 1934	 6310	 4173	312.0	14.41	8.031	7.030	6.116	5.237	4.427	2.937	2.718	2.355	2.822	2.082	2.239	1.793	1.495	1.593	1.521	1.476	1.266	1.188	1.064	1.237	1.065	0.728	0.848	0.829	0.679	0.611	0.607	0.560	0.579	0.573	0.797	0.599	0.697	0.568	0.640	0.624	0.633	0.786	0.996	1.219	1.374	1.302	1.626	2.545	3.538	6.137	13.86	26.22	25.14	14.68	2.951	0.474	0.304	0.243	0.354	0.450	0.247	0.348	0.345	0.246	0.218	0.240	0.242	0.136	0.185	0.214
260.0	13.25	20.35	23.40	148.1	350.6	227.8	481.2	 3054	 8364	 3555	178.9	11.80	8.732	6.942	6.226	4.643	3.843	3.297	2.641	2.376	2.039	2.150	2.182	1.791	1.769	2.000	1.681	1.322	1.427	1.397	1.150	1.026	1.063	0.824	0.881	0.685	0.603	0.853	0.556	0.458	0.629	0.535	0.467	0.741	0.657	0.699	0.835	0.549	0.544	0.560	0.730	1.411	1.444	1.304	0.957	1.304	1.886	3.957	11.09	23.43	34.96	28.08	10.33	1.347	0.356	0.332	0.451	0.228	0.329	0.317	0.202	0.213	0.179	0.191	0.364	0.170	0.120
265.0	11.16	17.28	13.67	58.24	272.6	337.2	164.6	798.4	 4762	9999.9	 2726	80.73	10.97	9.221	7.057	5.618	5.071	3.858	3.258	2.631	2.517	2.522	1.894	2.162	1.809	1.680	1.723	1.775	1.560	1.535	1.198	0.959	1.133	0.876	0.787	0.775	0.691	0.700	0.625	0.605	0.654	0.683	0.553	0.695	0.556	0.737	0.571	0.711	0.493	0.395	0.534	0.900	1.332	1.938	1.503	0.977	0.814	1.404	3.039	6.897	18.46	34.63	40.95	25.40	6.260	0.674	0.500	0.173	0.406	0.333	0.215	0.280	0.401	0.183	0.279	0.265	0.219
270.0	25.16	27.29	30.61	32.48	98.77	307.7	375.3	274.6	 1214	 4908	 9299	 5394	178.7	13.98	9.286	6.728	4.979	4.541	3.676	2.842	3.176	2.589	2.161	2.273	2.024	1.790	1.956	1.632	1.387	1.409	1.283	1.109	1.309	1.122	0.934	0.867	0.774	0.658	0.770	0.605	0.551	0.727	0.729	0.712	0.706	0.897	0.762	0.716	0.523	0.508	0.474	0.581	0.761	1.146	1.893	2.055	1.920	1.344	1.211	1.962	4.739	9.993	19.07	31.24	38.67	34.74	19.72	5.153	0.803	0.315	0.242	0.301	0.334	0.318	0.294	0.366	0.317
275.0	63.59	62.74	78.29	44.77	47.30	109.2	375.9	536.9	379.1	 1173	 3240	9999.9	 8712	226.2	16.18	9.966	6.475	4.501	4.501	2.877	2.751	2.537	2.261	2.331	1.771	2.300	2.022	2.023	1.601	1.422	1.243	1.204	1.326	0.934	0.946	1.252	0.881	0.776	0.797	0.805	0.603	0.844	0.756	0.733	0.889	0.968	0.812	0.784	0.768	0.695	0.418	0.563	0.538	0.580	0.877	1.048	1.970	2.818	2.447	1.171	1.532	2.708	4.982	7.598	12.59	26.17	53.12	51.02	29.55	4.531	0.469	0.360	0.320	0.351	0.306	0.391	0.379
280.0	95.59	105.4	123.5	74.32	48.07	57.88	174.9	644.8	477.2	381.0	880.3	 4186	9999.9	 2535	137.1	12.83	7.885	6.516	4.917	4.036	3.054	2.880	3.129	2.140	1.979	1.835	1.569	1.645	2.008	1.538	1.550	1.325	1.113	0.969	0.758	1.107	0.837	0.988	0.700	0.746	0.795	0.897	0.874	0.894	1.000	1.027	0.897	1.022	0.872	0.652	0.624	0.700	0.663	0.622	0.522	0.552	1.259	2.065	3.770	2.973	2.058	1.343	1.869	2.433	3.626	7.266	19.28	44.28	70.77	46.17	17.12	1.563	0.373	0.142	0.294	0.290	0.399
285.0	134.4	168.9	161.8	114.5	65.68	52.46	94.34	361.0	803.7	402.5	371.1	 1157	 5602	9999.9	 1928	66.66	10.57	7.723	6.028	5.008	4.500	3.684	3.044	2.321	2.536	1.449	2.085	1.427	1.643	1.878	1.887	1.353	1.310	1.072	1.029	1.241	0.886	0.939	1.029	0.949	0.941	1.198	1.002	1.010	1.292	1.176	1.182	1.114	1.041	0.972	0.939	0.773	0.729	0.563	0.492	0.635	0.965	1.184	2.152	3.021	3.853	2.568	1.376	1.494	1.658	2.502	5.336	12.22	30.73	61.90	72.94	36.32	7.287	0.626	0.387	0.224	0.484
290.0	154.3	229.8	243.0	168.6	106.0	89.66	106.8	194.8	523.1	881.5	588.6	560.1	 1573	 5051	9999.9	 6540	109.1	11.92	7.540	6.506	4.958	3.597	3.131	2.733	2.386	1.977	2.149	1.727	1.998	2.020	1.532	1.476	1.689	1.076	1.092	1.253	1.058	1.053	1.089	1.056	1.101	1.156	1.241	1.338	1.350	1.525	1.463	1.512	1.378	1.133	0.985	0.851	0.756	0.710	0.689	0.675	0.864	0.949	1.424	1.587	2.592	3.641	3.931	3.356	2.393	2.137	2.549	4.148	8.168	17.00	31.14	46.53	51.07	50.27	23.69	6.255	0.693
295.0	180.5	250.0	288.0	220.6	140.2	138.8	140.4	200.5	316.0	635.6	 1226	720.3	729.5	 1380	 3061	9999.9	 8948	141.6	12.52	8.301	6.207	4.672	3.787	3.361	2.857	2.734	2.224	1.919	2.029	1.814	1.435	1.623	1.551	1.223	1.095	1.298	1.381	1.423	1.221	1.204	1.232	1.121	1.131	1.385	1.217	1.395	1.549	1.559	1.322	1.264	1.090	0.847	1.138	0.959	0.897	0.716	0.905	1.122	1.282	1.224	1.761	2.089	2.950	4.385	5.536	3.944	2.752	2.690	3.513	4.991	8.258	11.58	15.32	34.92	71.36	57.87	33.90
300.0	176.1	253.2	297.7	251.2	182.4	156.5	183.6	222.3	312.6	472.0	 1076	 1282	656.1	642.0	896.6	 3643	9999.9	 6384	97.37	9.630	7.606	5.726	4.346	3.311	3.131	2.621	2.215	2.205	2.181	2.081	1.582	1.734	1.349	1.187	1.256	1.072	1.319	1.338	1.256	1.023	1.245	1.353	1.369	1.397	1.357	1.562	1.458	1.577	1.452	1.390	1.261	1.014	1.222	1.132	0.944	1.000	0.940	1.274	1.300	1.084	1.696	1.663	2.179	2.671	4.905	6.500	5.213	3.180	3.006	2.722	3.360	4.076	4.449	9.100	24.36	53.88	90.38
305.0	183.6	267.0	325.3	284.9	205.1	191.7	215.9	270.7	358.4	472.0	780.9	 1455	 1065	557.8	457.3	989.9	 4864	9999.9	 1243	55.48	10.16	6.026	5.323	3.793	3.781	2.215	2.206	2.604	2.031	1.973	1.852	1.596	1.203	1.215	1.191	1.132	1.350	1.447	1.252	1.283	1.137	1.253	1.448	1.622	1.383	1.440	1.434	1.681	1.698	1.396	1.366	1.399	1.095	1.196	0.880	1.139	1.148	1.207	1.404	1.307	1.661	1.834	2.060	2.398	3.284	5.016	7.222	5.903	3.679	3.078	2.833	2.628	2.060	3.339	6.489	14.46	39.36
310.0	189.0	284.5	338.7	296.8	234.1	221.3	247.9	312.1	402.7	520.4	709.9	 1030	 1395	989.6	475.8	439.9	 1262	 4623	 8631	 4823	79.02	9.855	7.256	4.810	4.279	3.373	2.717	2.740	2.133	2.075	1.909	1.629	1.613	1.327	1.306	1.317	1.336	1.334	1.267	1.219	1.288	1.411	1.364	1.375	1.459	1.441	1.465	1.599	1.586	1.442	1.298	1.577	1.313	1.241	1.304	1.209	1.339	1.347	1.571	1.575	1.871	2.041	2.313	2.564	3.025	3.572	4.858	5.561	6.607	5.329	3.810	3.026	2.106	2.179	2.669	4.171	9.817
315.0	177.1	307.0	353.5	325.3	268.4	260.7	287.0	353.0	443.5	565.7	722.5	888.9	 1056	 1362	856.7	396.5	471.7	 1162	 2575	 9811	 7063	105.3	10.01	7.059	5.666	4.222	3.416	2.816	2.645	2.060	1.900	1.719	2.064	1.352	1.147	1.284	1.387	1.408	1.121	1.409	1.188	1.449	1.160	1.329	1.244	1.799	1.893	1.821	1.787	1.448	1.396	1.459	1.403	1.224	1.481	1.447	1.424	1.536	1.724	2.092	1.865	2.102	2.425	2.981	3.447	3.560	3.919	4.467	4.783	5.527	6.629	5.509	2.906	2.321	1.995	2.183	3.414
320.0	218.3	356.3	453.3	396.1	302.4	285.9	320.9	385.3	476.4	601.4	765.8	909.7	975.8	 1150	 1281	575.3	349.4	426.4	691.2	 3526	9999.9	 5239	73.13	10.32	6.783	4.622	3.444	3.483	2.531	2.511	1.991	1.700	2.004	1.310	1.437	1.292	1.639	1.498	1.240	1.509	1.390	1.390	1.127	1.483	1.869	1.700	1.797	2.082	2.149	1.727	1.481	1.702	1.524	1.492	1.474	1.467	1.360	1.625	1.801	1.947	1.967	2.822	2.803	3.254	3.360	3.331	3.748	3.907	4.011	4.541	5.489	6.604	5.663	3.761	2.440	2.169	2.163
325.0	241.5	437.7	572.1	497.0	361.7	308.1	341.8	415.3	510.2	662.6	803.7	956.1	 1001	 1024	 1239	962.9	415.6	311.7	303.2	915.1	 4916	9999.9	926.2	44.96	7.971	5.684	4.350	3.450	3.092	2.594	1.881	2.292	2.049	1.639	1.440	1.254	1.457	1.217	1.200	1.406	1.418	1.323	1.356	1.334	1.802	2.379	1.941	2.417	2.157	2.096	1.814	1.813	1.799	1.451	1.513	1.725	1.615	1.791	1.751	2.494	2.146	2.851	3.113	3.139	3.382	3.545	3.832	4.057	4.351	4.417	4.559	5.078	6.442	6.330	4.675	2.641	2.526
330.0	270.2	492.1	706.3	653.4	461.3	373.6	383.6	441.8	551.7	682.4	854.5	975.3	 1058	 1026	 1000	 1038	802.8	404.2	279.3	360.9	 1247	 4490	 8510	 3731	61.56	8.890	5.567	4.514	3.619	3.179	2.687	1.991	2.260	1.980	1.520	1.381	1.222	1.424	1.167	1.510	1.402	1.273	1.561	1.389	1.819	2.399	2.061	2.709	2.759	2.543	2.219	1.954	1.977	1.868	1.685	1.785	1.954	2.030	2.115	2.430	2.278	2.908	2.906	3.363	3.488	3.791	4.065	4.333	4.753	4.515	4.465	4.405	4.691	5.004	5.782	5.545	4.412
335.0	286.9	504.0	767.0	731.7	543.5	461.2	442.1	505.3	582.7	716.5	895.2	 1000	 1094	 1073	971.0	856.7	941.6	754.8	368.6	298.7	443.8	 1120	 2631	 9095	 5645	83.21	9.527	6.096	4.711	3.757	3.078	2.093	2.005	2.076	1.560	1.408	1.541	1.296	1.187	1.422	1.531	1.754	1.470	1.695	2.200	2.320	2.503	2.876	2.836	2.883	2.595	2.384	2.138	2.020	2.110	2.043	2.189	2.335	2.443	2.341	2.454	2.888	2.963	3.519	3.518	4.488	4.773	4.503	4.876	4.620	4.781	4.657	4.584	4.689	5.033	4.355	5.844
340.0	285.0	507.3	812.9	822.2	607.6	533.4	501.0	538.2	637.8	746.2	930.5	 1039	 1128	 1097	 1010	846.1	795.2	941.2	564.0	330.1	306.1	401.9	703.3	 3577	9999.9	 4293	59.52	8.672	6.014	4.376	3.031	2.461	2.164	2.250	1.895	1.344	1.707	1.315	1.232	1.491	1.669	1.577	1.406	1.568	2.134	2.075	2.650	3.335	3.027	2.896	2.768	2.762	2.800	2.448	2.173	2.078	2.238	2.044	2.922	2.474	2.835	2.978	3.619	3.547	3.557	4.476	4.333	4.444	4.970	5.402	4.723	4.766	4.481	4.352	4.574	4.285	4.515
345.0	280.2	522.8	819.0	843.0	696.4	589.7	559.9	590.3	690.2	782.2	933.1	 1034	 1115	 1117	 1035	873.3	733.9	840.4	826.6	445.8	321.5	288.9	307.7	931.4	 5100	9999.9	762.6	36.43	7.692	5.351	3.663	2.897	2.402	2.261	2.198	1.428	1.669	1.356	1.498	1.764	1.688	1.527	1.541	1.670	2.088	2.324	2.661	3.260	3.211	3.112	2.905	2.931	2.705	2.760	2.354	2.401	2.427	2.106	2.785	2.871	2.851	3.079	3.618	3.564	3.993	4.175	4.187	4.294	4.794	5.108	5.327	4.398	4.891	4.426	4.697	4.529	3.731
350.0	264.3	464.7	741.4	863.8	748.1	701.8	676.6	712.5	783.8	885.3	976.8	 1097	 1146	 1143	 1058	921.6	784.7	739.8	814.2	750.3	464.7	342.3	290.0	370.3	 1311	 4726	 7891	 3152	52.73	8.906	5.533	3.958	3.124	2.558	2.073	1.801	1.923	1.730	1.446	1.418	1.873	1.555	1.370	1.921	1.952	2.234	2.373	3.132	3.034	3.008	2.953	3.057	2.948	2.890	2.816	2.869	2.961	2.939	2.794	3.049	3.333	3.685	3.710	4.167	4.100	4.139	4.583	4.636	5.140	4.673	5.286	4.955	4.921	4.679	4.888	4.399	4.537
355.0	256.4	467.1	699.5	857.8	870.0	822.5	826.0	839.9	952.3	 1017	 1088	 1142	 1182	 1185	 1117	995.1	879.9	794.9	740.6	813.3	773.1	473.4	365.4	322.3	470.2	 1180	 2688	 8701	 4763	72.43	8.443	5.636	3.700	3.423	2.306	2.014	2.097	1.605	1.574	1.511	1.689	1.486	1.590	1.657	1.868	2.285	2.339	3.014	3.129	3.081	3.012	3.402	3.389	3.757	3.181	2.834	3.083	3.343	3.359	3.494	3.964	3.707	3.832	4.055	4.565	4.821	4.767	5.259	5.055	5.114	5.364	5.112	5.117	5.120	5.556	5.028	4.885
360.0	266.0	440.8	722.0	862.8	930.5	907.8	924.5	989.0	 1043	 1129	 1186	 1210	 1222	 1239	 1150	 1045	939.8	845.2	773.8	767.0	891.8	684.0	449.1	366.5	332.1	428.7	729.2	 3765	9999.9	 3596	48.47	7.927	4.643	3.804	2.745	2.393	1.873	1.586	1.646	1.802	1.601	1.420	1.638	1.765	1.988	1.999	2.473	2.893	3.147	2.967	3.176	3.359	3.614	4.015	3.963	3.508	3.867	3.965	4.139	4.083	4.354	3.935	4.196	4.798	4.925	5.442	5.644	5.064	5.807	5.319	4.733	5.187	4.562	5.566	5.198	5.414	5.400
365.0	263.3	443.7	715.0	853.8	959.2	990.6	 1020	 1055	 1137	 1218	 1265	 1267	 1272	 1245	 1185	 1095	988.9	903.5	828.7	780.7	848.9	870.0	594.2	441.7	358.9	308.7	316.4	989.8	 5467	 9923	671.4	28.06	6.320	4.524	3.216	2.385	1.761	2.163	1.735	1.963	1.659	1.629	1.841	1.578	1.951	2.032	2.369	2.523	3.099	3.124	3.170	3.686	3.627	3.541	3.773	3.793	3.851	4.238	4.116	4.530	4.700	4.808	4.758	5.240	5.272	5.261	5.199	4.885	5.621	5.253	5.425	6.124	4.975	5.029	5.365	5.509	5.521
370.0	238.3	422.3	690.7	882.0	981.7	 1066	 1098	 1139	 1239	 1317	 1335	 1343	 1297	 1281	 1208	 1127	 1047	961.0	911.8	854.2	818.8	873.2	840.8	605.6	450.9	360.3	290.4	373.6	 1403	 4982	 7623	 2729	42.50	7.218	4.264	3.012	2.567	2.193	2.161	1.865	1.714	1.595	1.639	1.573	1.763	2.260	2.311	2.710	2.682	2.864	2.947	3.592	3.780	4.049	3.823	4.349	4.195	4.515	4.198	4.951	4.802	5.019	4.905	5.379	5.315	5.177	5.754	5.593	5.506	5.444	5.261	5.769	5.347	5.472	5.435	5.866	6.020
375.0	242.9	424.5	695.0	884.3	994.4	 1158	 1149	 1244	 1298	 1398	 1417	 1404	 1360	 1318	 1221	 1161	 1091	 1031	984.4	930.0	888.2	855.3	893.0	869.5	607.3	469.6	366.0	298.6	460.5	 1215	 2868	 8563	 3899	54.12	7.116	4.510	3.493	2.307	2.424	1.901	1.586	1.884	1.682	1.845	2.003	2.327	2.100	2.567	3.025	2.990	3.107	3.792	3.906	4.391	4.282	4.347	4.461	4.557	4.820	4.774	5.194	5.133	5.118	5.295	6.059	5.665	5.409	5.793	5.892	6.342	5.858	6.087	5.497	5.858	5.689	6.215	5.777
380.0	243.7	423.5	680.2	873.9	 1047	 1137	 1224	 1282	 1360	 1418	 1470	 1432	 1394	 1339	 1264	 1179	 1109	 1053	 1016	969.9	934.0	904.3	876.6	943.7	805.8	559.7	442.9	336.0	297.1	405.4	750.9	 4039	 9054	 2719	35.26	6.364	3.983	3.440	2.594	2.085	1.740	2.092	1.804	1.890	2.257	2.253	2.108	2.495	2.973	2.974	3.226	3.359	4.002	4.192	4.172	4.295	5.018	4.989	4.976	4.878	5.266	5.801	5.399	5.992	5.862	5.713	5.780	5.936	6.339	6.726	5.895	6.131	5.629	5.893	5.990	6.538	6.899
385.0	256.6	405.0	699.7	864.3	 1047	 1168	 1261	 1306	 1347	 1430	 1456	 1454	 1404	 1321	 1279	 1173	 1108	 1081	 1045	 1010	974.7	940.0	895.9	907.8	930.4	703.9	510.8	395.3	303.8	258.5	282.5	 1051	 5369	 8187	511.5	17.08	5.096	4.114	3.185	2.213	2.087	2.176	2.040	1.857	2.299	2.133	2.103	2.611	3.088	2.769	3.014	3.678	3.866	3.755	4.247	4.469	5.226	4.570	4.840	4.996	5.219	5.685	5.270	5.739	6.222	6.180	5.807	5.921	5.837	6.230	6.074	5.464	5.390	5.561	6.191	6.239	6.480
390.0	240.6	402.5	660.6	874.7	 1045	 1196	 1273	 1291	 1376	 1425	 1456	 1447	 1392	 1324	 1264	 1180	 1125	 1096	 1065	 1040	 1014	990.4	942.3	901.4	911.7	865.1	661.1	484.1	370.4	286.0	231.9	352.3	 1385	 4446	 5178	 2059	32.96	6.231	3.944	2.853	2.465	2.337	2.137	2.278	2.253	2.246	2.326	2.879	2.735	2.701	2.998	3.759	4.093	4.205	4.481	4.705	5.113	4.750	5.322	5.352	5.106	5.706	5.489	5.784	5.569	6.150	5.796	6.077	6.327	5.849	5.791	5.614	5.968	5.551	5.938	5.748	6.202
395.0	231.1	407.0	646.5	864.5	 1044	 1168	 1261	 1310	 1371	 1436	 1440	 1427	 1380	 1308	 1220	 1151	 1120	 1084	 1072	 1053	 1036	 1013	973.2	939.7	890.4	880.5	848.6	610.7	455.6	358.6	283.0	244.9	421.9	 1072	 2256	 6929	 3000	41.98	6.134	4.431	3.117	2.331	2.390	2.243	2.209	2.382	2.442	2.568	2.755	2.879	2.967	3.477	4.063	4.184	4.377	4.612	5.359	4.914	4.976	5.449	4.915	5.685	5.814	5.541	5.642	5.575	5.663	6.220	6.094	5.428	6.203	5.919	5.884	5.976	5.823	6.005	6.599
400.0	257.9	417.8	627.7	827.6	 1028	 1133	 1219	 1324	 1357	 1421	 1433	 1434	 1380	 1290	 1214	 1145	 1106	 1080	 1061	 1054	 1052	 1022	 1004	953.6	907.0	863.8	881.8	755.4	535.0	419.5	333.6	259.6	237.7	336.1	594.6	 3461	 7102	500.8	27.12	5.840	3.801	2.849	2.516	2.383	2.076	2.392	2.366	2.859	2.661	2.733	3.157	3.670	3.825	4.090	4.139	4.538	4.569	4.572	4.895	5.193	5.069	5.483	5.184	5.856	5.768	5.397	6.047	5.558	5.743	5.693	5.572	5.900	5.422	5.976	5.684	6.594	6.319
405.0	257.4	389.4	611.9	833.5	994.6	 1138	 1228	 1284	 1333	 1394	 1404	 1399	 1334	 1269	 1204	 1131	 1081	 1075	 1051	 1051	 1036	 1027	 1007	963.6	921.9	872.6	849.7	840.7	650.3	483.0	385.5	297.5	232.1	203.8	221.1	908.8	 4431	 5887	422.0	12.73	4.633	3.171	3.096	2.604	2.575	2.611	2.432	2.513	2.711	2.780	3.067	3.623	3.492	3.857	4.519	4.237	4.883	4.570	4.829	5.130	4.540	5.678	5.478	5.749	6.035	5.446	6.103	5.624	5.818	5.343	5.464	5.707	5.305	5.642	5.547	6.089	5.608
410.0	269.8	401.7	600.1	793.8	982.6	 1106	 1193	 1258	 1340	 1385	 1403	 1382	 1316	 1226	 1160	 1092	 1059	 1039	 1034	 1019	 1015	 1017	994.5	973.2	940.4	894.5	836.5	811.7	778.0	606.8	464.0	364.2	274.8	209.8	166.4	284.2	 1146	 3458	 4227	 1594	28.27	5.237	3.851	2.868	2.612	2.519	2.806	2.435	2.806	2.743	2.936	3.725	3.527	3.699	4.033	4.410	5.013	4.414	5.094	4.956	5.209	5.161	5.807	5.462	5.575	5.290	5.817	5.719	5.377	5.954	5.725	5.389	5.214	5.388	5.424	5.741	5.758
