Sample:	'1
File name:	w01007´´»Ô¶þÔ°ÅÅË®5±¶.FD3
Run date:	'16:01:44, 04/11/2024
Operator:	Administrator
Comment:	'

Instrument
Model:	F-2700 FL Spectrophotometer
Serial number:	23B8-004
ROM Version:	4J14000 07

Instrument parameters
Measurement type:	3-D scan
Data mode:	Fluorescence
EX  Start WL:	220.0 nm
EX  End WL:	600.0 nm
EX Sampling interval:	5.0 nm
EM  Start WL:	230.0 nm
EM  End WL:	650.0 nm
EM Sampling interval:	5.0 nm
Scan speed:	12000 nm/min
EX Slit:	5.0 nm
EM Slit:	5.0 nm
PMT Voltage:	700 V
Response:	Auto 
Corrected spectra:	Off
Contour interval:	50.000

Peak integration
Integration method:	Rectangular
Sensitivity:	1
Threshold:	1.000

Peaks
No.	ApexEX/EM(nm)	Height(Data)
1	230.0/345.0	2858
2	230.0/495.0	363.7
3	235.0/510.0	285.0
4	240.0/260.0	356.9
5	240.0/520.0	246.6
6	245.0/270.0	345.9
7	245.0/380.0	2348
8	245.0/530.0	208.6
9	250.0/275.0	443.3
10	250.0/545.0	174.1
11	255.0/280.0	618.0
12	255.0/560.0	152.2
13	260.0/285.0	675.4
14	260.0/570.0	125.8
15	265.0/290.0	763.3
16	265.0/585.0	119.9
17	270.0/300.0	1063
18	270.0/600.0	95.78
19	275.0/305.0	1185
20	275.0/610.0	81.36
21	280.0/310.0	1020
22	280.0/625.0	70.54
23	285.0/320.0	1004
24	285.0/635.0	52.20
25	290.0/325.0	1023
26	330.0/375.0	385.4
27	335.0/380.0	376.1
28	365.0/420.0	160.1
29	380.0/440.0	95.97
30	400.0/300.0	4.764
31	400.0/465.0	45.27
32	405.0/295.0	4.968
33	410.0/475.0	28.99
34	415.0/485.0	25.12
35	420.0/490.0	20.77
36	425.0/495.0	18.58
37	430.0/505.0	16.07
38	435.0/510.0	13.32
39	440.0/515.0	11.77
40	445.0/525.0	10.47
41	450.0/530.0	8.043
42	455.0/535.0	7.088
43	460.0/345.0	9.377
44	460.0/545.0	5.727
45	475.0/360.0	9.015
46	475.0/565.0	2.684
47	480.0/375.0	8.787
48	485.0/265.0	2.247
49	490.0/380.0	8.844
50	495.0/270.0	2.008
51	495.0/385.0	8.985
52	505.0/275.0	2.982
53	515.0/280.0	3.502
54	520.0/285.0	4.008
55	530.0/290.0	4.307
56	540.0/295.0	5.854
57	545.0/300.0	6.034
58	550.0/305.0	6.211
59	560.0/310.0	5.385
60	585.0/325.0	5.845

Data points
	220.0	225.0	230.0	235.0	240.0	245.0	250.0	255.0	260.0	265.0	270.0	275.0	280.0	285.0	290.0	295.0	300.0	305.0	310.0	315.0	320.0	325.0	330.0	335.0	340.0	345.0	350.0	355.0	360.0	365.0	370.0	375.0	380.0	385.0	390.0	395.0	400.0	405.0	410.0	415.0	420.0	425.0	430.0	435.0	440.0	445.0	450.0	455.0	460.0	465.0	470.0	475.0	480.0	485.0	490.0	495.0	500.0	505.0	510.0	515.0	520.0	525.0	530.0	535.0	540.0	545.0	550.0	555.0	560.0	565.0	570.0	575.0	580.0	585.0	590.0	595.0	600.0
230.0	69.26	1235	3778	1312	50.50	6.434	6.178	4.387	3.105	3.283	3.003	2.548	2.220	1.953	1.551	1.499	1.289	1.173	0.917	0.876	0.732	0.669	0.609	0.519	0.499	0.445	0.450	0.408	0.383	0.340	0.395	0.322	0.353	0.288	0.256	0.274	0.286	0.289	0.273	0.286	0.445	0.919	0.775	0.473	0.339	0.256	1.730	8.009	12.49	8.195	2.965	0.565	0.220	0.160	0.188	0.178	0.171	0.179	0.144	0.159	0.129	0.130	0.138	0.171	0.127	0.183	0.147	0.148	0.129	0.126	0.149	0.132	0.152	0.143	0.140	0.139	0.144
235.0	210.4	337.1	1778	3147	617.3	73.15	6.474	5.107	4.403	3.339	3.306	2.588	1.998	2.428	1.447	1.230	1.378	0.981	0.757	0.760	0.751	0.638	0.515	0.643	0.591	0.400	0.392	0.393	0.446	0.290	0.316	0.351	0.364	0.294	0.298	0.222	0.273	0.263	0.211	0.242	0.344	0.428	0.722	0.824	0.787	0.442	0.596	2.099	4.371	6.988	9.214	9.606	4.383	1.113	0.198	0.195	0.164	0.195	0.150	0.144	0.092	0.186	0.205	0.156	0.152	0.139	0.178	0.136	0.141	0.129	0.131	0.153	0.165	0.100	0.152	0.155	0.110
240.0	249.5	206.4	471.9	2039	2976	502.7	35.63	5.645	4.798	4.580	3.795	3.086	2.259	2.124	1.726	1.437	1.323	1.114	0.952	0.965	0.676	0.719	0.584	0.600	0.517	0.369	0.470	0.435	0.471	0.411	0.357	0.354	0.309	0.305	0.253	0.245	0.270	0.242	0.240	0.241	0.249	0.261	0.340	0.558	0.869	0.987	0.685	0.734	1.152	1.927	4.435	11.01	13.76	9.449	3.779	0.670	0.187	0.174	0.189	0.125	0.162	0.156	0.195	0.156	0.165	0.138	0.190	0.136	0.137	0.167	0.140	0.217	0.124	0.117	0.101	0.118	0.147
245.0	144.2	280.9	202.7	592.8	2499	2870	379.2	16.12	6.587	5.039	4.536	3.064	2.698	2.474	1.767	1.534	1.431	0.961	0.936	1.056	0.682	0.673	0.620	0.445	0.659	0.487	0.455	0.420	0.451	0.347	0.401	0.397	0.419	0.333	0.218	0.268	0.360	0.210	0.257	0.280	0.265	0.189	0.247	0.286	0.468	0.753	1.141	1.027	0.600	0.647	1.177	3.402	8.603	13.51	14.88	8.792	2.541	0.339	0.217	0.131	0.157	0.157	0.168	0.140	0.160	0.143	0.121	0.152	0.176	0.141	0.161	0.175	0.141	0.081	0.129	0.097	0.202
250.0	49.14	165.8	290.2	250.0	711.2	2080	2962	1321	89.55	6.901	5.789	3.864	3.556	2.813	2.358	1.903	1.425	1.262	1.013	1.010	0.739	0.746	0.634	0.559	0.657	0.545	0.475	0.449	0.460	0.452	0.338	0.324	0.327	0.367	0.333	0.266	0.336	0.298	0.274	0.247	0.284	0.209	0.252	0.258	0.275	0.358	0.619	0.943	1.202	1.037	0.799	0.996	2.135	4.095	7.767	11.44	15.15	13.56	8.090	2.482	0.430	0.186	0.193	0.144	0.160	0.172	0.160	0.159	0.157	0.146	0.125	0.141	0.118	0.136	0.202	0.146	0.171
255.0	25.57	51.24	160.2	344.5	278.2	508.0	1607	4132	1847	100.2	9.144	5.337	4.297	3.323	2.555	1.936	1.445	1.464	1.122	1.042	0.935	0.840	0.797	0.650	0.846	0.558	0.474	0.481	0.512	0.399	0.415	0.371	0.294	0.389	0.239	0.311	0.245	0.310	0.280	0.204	0.253	0.242	0.243	0.276	0.188	0.265	0.313	0.405	0.527	0.979	1.352	1.479	1.002	1.130	1.951	2.810	4.916	10.99	20.29	23.04	13.12	3.043	0.306	0.189	0.291	0.151	0.212	0.143	0.173	0.152	0.114	0.117	0.128	0.142	0.190	0.111	0.110
260.0	15.54	22.16	55.88	254.6	356.9	179.9	431.4	2545	4743	1424	47.22	6.639	4.831	3.588	2.378	2.153	1.881	1.541	1.391	1.209	0.843	0.820	0.825	0.754	0.642	0.499	0.618	0.499	0.416	0.506	0.373	0.314	0.312	0.389	0.322	0.310	0.283	0.256	0.314	0.217	0.289	0.234	0.205	0.289	0.255	0.245	0.180	0.231	0.311	0.411	0.773	1.665	1.847	1.180	0.766	0.865	1.294	2.885	7.768	17.53	27.23	23.71	10.57	1.570	0.285	0.176	0.211	0.179	0.175	0.189	0.154	0.157	0.096	0.149	0.157	0.098	0.129
265.0	16.00	17.55	23.08	99.33	355.6	267.3	135.5	742.4	3631	4954	248.9	16.88	5.403	4.384	3.258	2.638	2.150	1.787	1.604	1.233	0.885	0.841	0.683	0.736	0.658	0.547	0.543	0.523	0.494	0.470	0.473	0.356	0.397	0.257	0.278	0.348	0.295	0.285	0.251	0.230	0.316	0.273	0.253	0.315	0.241	0.305	0.216	0.202	0.255	0.259	0.292	0.792	1.547	2.247	1.562	0.762	0.523	0.874	1.962	4.964	12.62	25.53	31.96	21.53	6.402	0.732	0.362	0.237	0.200	0.215	0.137	0.126	0.107	0.123	0.208	0.136	0.140
270.0	57.84	37.00	26.53	36.88	140.2	345.9	303.1	222.5	1027	3438	5364	918.5	61.69	6.303	4.471	3.693	2.710	2.038	1.621	1.395	1.093	1.020	0.816	0.826	0.708	0.692	0.627	0.570	0.484	0.529	0.484	0.446	0.575	0.416	0.479	0.544	0.473	0.464	0.376	0.353	0.360	0.335	0.333	0.418	0.380	0.336	0.299	0.334	0.252	0.243	0.188	0.381	0.586	1.072	1.726	2.008	1.978	1.136	0.788	1.397	3.231	7.099	13.43	22.14	27.31	26.78	15.62	5.325	0.778	0.206	0.251	0.159	0.139	0.162	0.175	0.158	0.155
275.0	239.5	167.9	91.02	42.67	50.09	131.7	443.3	362.0	310.8	871.4	2775	6807	1331	65.81	7.184	4.886	3.097	2.664	1.952	1.577	1.490	1.112	0.888	1.002	0.797	0.701	0.637	0.697	0.541	0.527	0.483	0.523	0.654	0.851	1.027	1.126	1.222	1.097	1.037	0.939	0.772	0.788	0.950	0.829	0.747	0.873	0.667	0.618	0.464	0.287	0.362	0.294	0.355	0.416	0.637	0.909	2.056	2.982	2.534	1.157	1.142	2.064	3.553	5.480	7.913	15.04	30.84	35.67	24.52	6.248	0.747	0.253	0.169	0.263	0.224	0.181	0.207
280.0	542.1	376.0	201.0	85.13	43.65	59.54	247.4	618.0	315.6	334.1	840.8	4067	6927	984.4	32.70	5.429	4.344	3.005	2.322	1.867	1.552	1.209	1.215	0.962	0.942	0.794	0.797	0.671	0.743	0.710	0.629	0.469	0.724	1.144	1.633	2.045	2.494	2.268	1.805	1.703	1.484	1.519	1.402	1.567	1.560	1.546	1.379	1.127	0.895	0.537	0.401	0.325	0.338	0.295	0.394	0.465	0.874	1.874	3.176	3.502	1.793	1.228	1.524	2.003	2.636	4.483	9.944	22.69	41.10	35.42	19.57	3.321	0.378	0.229	0.232	0.234	0.345
285.0	792.0	631.2	352.5	143.0	62.61	56.98	120.3	463.8	675.4	310.5	407.0	1269	5214	6373	658.8	13.33	4.905	4.220	2.495	2.198	1.747	1.493	1.272	1.172	0.896	0.792	0.726	0.662	0.585	0.740	0.523	0.617	0.840	1.444	2.425	3.008	3.520	3.626	2.866	2.716	2.229	2.260	2.213	2.276	2.397	2.457	1.924	1.778	1.342	0.813	0.570	0.480	0.426	0.367	0.342	0.418	0.630	0.863	1.723	3.405	4.008	2.972	1.686	1.499	1.712	2.149	3.334	6.468	14.71	28.94	44.40	31.29	12.89	1.682	0.314	0.376	0.395
290.0	1038	890.8	521.5	222.7	106.8	83.94	109.6	241.4	596.8	763.3	491.2	563.6	1522	4329	5751	1768	35.92	5.764	3.630	2.734	2.156	1.744	1.454	1.289	1.133	0.871	0.794	0.742	0.679	0.777	0.546	0.651	1.059	1.816	3.107	3.832	4.360	4.422	3.893	3.548	2.850	2.779	2.785	2.873	3.070	3.073	2.572	2.463	1.861	1.136	0.826	0.751	0.593	0.509	0.453	0.530	0.590	0.684	0.945	1.605	2.534	3.592	4.307	3.686	2.789	2.160	2.088	2.748	4.538	7.819	14.96	22.46	28.28	32.65	21.75	10.54	2.452
295.0	1154	997.1	634.2	298.1	161.7	126.9	139.2	206.4	356.2	721.9	981.8	527.3	571.4	1103	2675	6807	755.4	39.19	5.285	4.129	2.774	2.135	1.642	1.646	1.182	1.215	0.863	0.855	0.839	0.797	0.698	0.611	1.166	1.956	3.282	4.038	4.724	4.968	4.378	3.860	3.279	3.045	3.027	3.158	3.237	3.308	2.994	3.080	2.274	1.422	1.114	0.986	0.675	0.744	0.604	0.548	0.787	0.778	0.978	1.167	1.617	1.999	2.765	4.299	5.854	4.326	2.696	2.272	2.316	2.937	4.197	5.770	7.100	12.38	25.73	44.08	34.59
300.0	1152	1021	660.6	339.3	204.2	172.4	184.8	241.6	322.0	523.8	1063	851.2	419.5	408.7	738.1	3844	6053	597.9	17.67	5.356	3.493	2.423	2.052	1.780	1.570	1.282	0.897	1.011	0.804	0.821	0.748	0.739	1.055	1.895	3.113	3.933	4.764	4.749	4.336	3.905	3.440	3.121	3.100	3.322	3.342	3.541	3.193	2.990	2.402	1.511	1.338	1.061	0.968	0.909	0.818	0.788	1.056	0.991	1.176	1.311	1.489	1.875	2.053	2.850	4.343	6.034	5.339	3.452	2.446	1.955	1.979	2.125	2.375	3.511	7.177	18.45	38.00
305.0	1103	994.6	704.7	382.6	255.6	223.1	258.1	303.2	370.3	493.5	794.3	1185	603.4	318.6	289.8	1072	4722	5144	82.51	9.917	4.632	2.914	2.394	1.990	1.697	1.457	0.986	0.926	0.939	0.813	0.897	0.740	1.121	1.801	2.908	3.630	4.291	4.392	4.303	3.804	3.242	3.088	2.848	2.798	3.152	3.270	3.122	2.953	2.510	1.657	1.426	1.312	1.221	1.142	0.991	1.153	1.289	1.180	1.358	1.566	1.817	2.093	2.281	2.488	3.125	4.225	6.211	5.962	4.347	2.602	1.853	1.660	1.465	1.633	2.489	4.841	11.30
310.0	1018	977.6	736.7	454.5	331.3	328.6	358.2	406.8	445.5	536.5	675.5	951.0	1020	563.2	299.0	393.7	1326	3720	4517	1495	25.16	4.711	3.372	2.579	2.012	1.709	1.324	1.135	1.036	0.983	0.851	0.849	1.106	1.748	2.644	3.103	3.708	3.890	3.699	3.393	3.054	2.978	2.974	2.807	2.987	3.245	3.113	2.888	2.584	1.996	1.549	1.735	1.387	1.422	1.435	1.447	1.655	1.807	1.963	2.021	2.185	2.175	2.454	2.690	3.073	3.357	4.107	4.814	5.385	5.332	3.846	2.875	1.746	1.721	1.859	2.318	3.552
315.0	1051	999.0	803.4	562.9	410.7	399.1	434.4	496.3	519.1	585.2	679.4	780.9	884.2	996.7	485.7	307.3	451.7	943.3	2329	6226	529.8	26.72	4.396	3.072	2.677	1.800	1.515	1.234	1.072	1.202	0.785	0.835	1.034	1.631	2.262	2.421	3.181	3.429	3.249	3.118	3.018	2.857	2.971	2.753	2.946	3.501	3.346	3.042	2.832	2.220	1.951	2.066	1.701	1.840	1.719	1.652	1.930	1.992	2.287	2.196	2.359	2.757	2.660	2.825	3.177	3.132	3.576	3.842	4.048	4.515	5.345	5.699	3.956	2.607	2.068	2.042	2.252
320.0	1185	1282	1131	766.2	518.9	470.6	483.1	549.6	572.9	643.9	729.2	801.7	823.7	1004	835.5	382.7	299.6	343.0	644.8	3681	4335	442.2	13.43	3.965	3.066	2.303	1.774	1.610	1.284	1.277	1.169	1.036	1.070	1.448	2.126	2.299	2.839	2.939	3.062	3.061	2.951	2.864	3.034	3.105	3.448	3.870	4.060	4.269	3.977	3.189	2.602	2.732	2.338	2.155	1.928	1.921	2.284	2.215	2.526	2.543	2.662	2.847	2.905	3.124	3.383	3.513	4.309	4.034	3.973	4.388	4.542	5.330	5.901	5.058	3.190	2.601	2.353
325.0	1419	1727	1754	1219	698.8	545.2	545.5	605.2	641.9	705.0	809.0	894.9	905.3	924.7	1023	633.1	336.3	256.0	255.6	1014	3947	3878	63.68	6.798	4.091	2.831	2.102	1.799	1.558	1.325	1.185	0.942	0.967	1.431	1.707	2.292	2.639	2.822	3.066	3.094	3.009	3.270	3.293	3.706	4.187	4.964	5.357	6.182	5.935	4.857	4.120	3.930	2.724	2.446	2.204	2.358	2.323	2.573	2.634	2.959	3.064	3.139	3.150	3.463	3.726	4.156	4.279	4.579	4.545	4.720	4.658	4.706	5.456	5.845	5.407	4.097	2.901
330.0	1610	2086	2310	1776	1033	683.0	609.5	634.6	682.7	756.3	869.8	980.6	1001	967.3	922.6	870.9	554.5	300.5	214.8	324.8	1119	3123	3814	1186	20.63	4.192	2.856	2.306	1.792	1.487	1.430	1.143	1.127	1.387	1.637	2.047	2.454	2.762	2.752	2.983	2.951	3.329	3.648	4.059	4.789	5.637	6.242	7.653	7.735	6.673	5.896	5.500	4.235	3.134	2.595	2.674	2.782	2.853	2.956	3.077	3.307	3.444	3.413	3.729	4.026	4.390	4.703	4.766	5.174	5.219	4.944	5.064	5.150	4.860	5.357	5.350	5.097
335.0	1709	2300	2598	2104	1302	864.6	696.7	665.4	714.8	780.6	902.2	1017	1060	1017	893.5	779.9	763.5	462.0	245.6	200.4	343.6	776.8	2187	4955	438.4	22.91	4.026	3.218	2.140	1.859	1.621	1.337	1.143	1.388	1.689	1.886	2.174	2.210	2.472	2.991	3.026	3.428	3.854	4.204	4.805	6.047	6.895	8.500	9.121	7.525	7.279	6.437	5.037	4.111	3.378	3.091	3.263	3.120	3.206	3.100	3.393	3.552	3.656	3.728	4.164	4.243	4.777	5.035	5.128	5.183	5.422	5.039	5.281	4.829	4.936	4.561	4.560
340.0	1757	2393	2806	2323	1516	1029	788.9	724.8	748.8	827.6	924.8	1039	1090	1063	927.8	751.3	713.6	641.6	317.6	200.3	191.4	257.8	597.7	3125	3583	374.7	10.88	3.779	2.674	2.140	1.611	1.497	1.534	1.431	1.669	1.872	2.162	2.288	2.478	2.835	2.931	3.352	3.970	4.235	4.983	6.098	7.223	8.613	9.267	8.132	7.597	7.420	5.726	4.841	3.835	3.586	3.367	3.653	3.159	3.203	3.537	3.566	4.057	3.928	4.352	4.414	4.864	4.899	5.204	5.458	5.584	5.547	5.206	5.183	5.287	4.468	4.335
345.0	1737	2385	2858	2482	1713	1205	900.9	808.4	791.1	860.8	941.4	1058	1107	1079	958.5	773.5	643.0	655.0	474.8	234.9	181.3	161.5	203.8	877.8	3646	3276	54.98	5.930	3.411	2.590	1.886	1.684	1.597	1.119	1.523	1.879	1.952	2.226	2.450	2.541	2.821	3.287	3.697	4.225	4.974	6.294	6.660	8.794	9.377	8.630	7.854	8.124	6.838	5.507	4.520	4.038	4.090	3.783	3.766	3.574	3.610	3.787	4.241	4.125	4.291	4.676	4.894	4.794	5.342	5.551	5.518	5.798	5.633	5.056	5.482	4.946	4.232
350.0	1677	2234	2702	2504	1917	1483	1170	998.3	941.6	955.1	994.3	1078	1116	1091	983.4	815.9	656.8	566.7	550.1	384.3	221.4	167.4	140.3	260.1	1050	2828	3126	1025	18.25	3.389	2.411	1.871	1.649	1.451	1.726	1.759	1.977	2.191	2.392	2.635	2.868	3.206	3.691	4.082	4.705	5.885	6.554	8.328	8.820	8.332	7.772	8.429	7.555	6.510	5.782	5.063	5.055	4.719	4.324	4.341	4.424	4.358	4.601	4.682	4.690	4.700	5.025	5.215	5.439	5.703	5.542	5.835	5.637	5.479	5.380	4.838	4.386
355.0	1625	2166	2580	2464	2119	1788	1456	1278	1213	1148	1108	1131	1147	1128	1031	870.8	720.7	579.1	488.1	492.2	348.8	205.4	155.7	147.4	293.6	686.5	1909	4345	403.0	20.19	3.397	2.269	2.094	1.488	1.868	1.904	2.118	2.052	2.362	2.725	2.945	3.344	3.683	4.129	4.704	5.628	5.944	7.624	8.352	8.094	7.507	8.790	8.087	7.526	6.947	6.304	6.337	5.923	5.871	5.459	5.697	5.545	5.548	5.229	5.080	5.347	5.143	5.333	5.666	5.566	5.763	5.779	6.159	6.013	5.423	5.258	5.038
360.0	1550	2035	2437	2450	2223	1993	1669	1445	1355	1287	1206	1185	1176	1153	1051	909.2	762.3	612.0	486.3	454.0	454.5	272.1	175.8	140.9	140.8	202.4	513.3	2912	3308	349.1	10.35	3.274	2.404	1.949	1.893	1.848	2.108	2.150	2.362	2.486	3.174	3.136	3.751	3.986	4.776	5.864	6.076	7.384	8.194	7.503	7.422	9.015	8.526	8.094	7.768	6.916	7.095	7.075	6.755	6.218	6.313	6.229	6.124	5.895	5.651	5.621	5.547	5.527	5.559	5.814	6.116	5.584	6.208	5.989	5.718	5.592	5.201
365.0	1521	1947	2338	2400	2261	2116	1814	1550	1450	1340	1259	1209	1176	1150	1056	921.5	787.6	639.6	502.4	416.7	450.1	379.3	213.8	155.1	120.9	106.6	153.9	828.4	3412	3063	51.89	5.273	2.983	2.295	2.010	1.838	2.133	2.170	2.425	2.370	2.726	3.627	3.413	3.931	4.422	5.465	5.924	7.134	7.584	7.014	7.181	8.876	8.461	8.489	8.262	7.541	7.602	7.387	6.782	6.440	6.632	6.640	6.522	6.142	6.418	5.453	5.916	5.888	5.536	5.836	5.968	5.875	5.976	6.141	5.536	5.650	5.276
370.0	1465	1845	2191	2349	2320	2210	1957	1674	1524	1404	1291	1217	1176	1138	1056	927.8	804.4	666.8	527.6	429.5	391.3	406.3	327.4	198.1	137.9	103.5	88.09	222.0	977.0	2747	3092	901.6	16.83	3.033	2.336	2.274	2.378	2.313	2.447	2.540	2.725	3.428	3.582	3.847	4.140	5.136	5.387	6.560	7.135	6.678	6.968	8.668	8.579	8.561	8.596	8.160	8.436	7.849	7.429	6.981	7.002	6.719	6.524	6.507	6.264	5.736	5.680	5.723	5.582	5.783	5.849	5.806	5.888	5.800	5.708	5.551	5.564
375.0	1402	1728	2045	2231	2300	2328	2061	1774	1582	1451	1317	1222	1168	1108	1031	920.1	809.0	688.5	553.1	452.3	388.7	363.1	385.4	306.6	183.5	131.5	95.12	98.24	248.9	652.7	1941	3875	356.1	18.00	3.118	2.698	2.590	2.335	2.450	2.746	2.944	3.269	3.487	3.646	4.454	4.572	4.929	6.056	6.690	6.410	6.627	8.342	8.787	8.024	8.620	8.595	8.402	8.570	8.019	7.656	7.064	7.018	6.913	6.492	6.353	5.936	5.791	5.734	5.497	5.576	5.781	5.464	5.597	5.645	5.207	5.785	5.585
380.0	1364	1661	1962	2152	2275	2348	2100	1801	1581	1437	1276	1193	1153	1071	1000	893.5	806.4	685.8	566.4	471.7	404.8	359.5	361.9	376.1	250.7	162.0	113.8	86.38	96.56	171.2	512.0	2667	2908	295.3	8.168	3.155	2.812	2.518	2.523	2.697	2.742	3.083	3.536	3.629	4.342	4.745	4.949	5.833	5.995	6.142	6.492	7.838	8.631	8.306	8.844	8.756	8.671	8.725	7.987	7.481	7.122	6.991	6.813	6.674	5.836	5.698	5.444	5.469	5.394	5.318	5.633	5.677	5.733	5.630	5.360	5.628	5.708
385.0	1326	1558	1857	2053	2228	2317	2109	1765	1544	1386	1239	1156	1109	1039	955.7	869.7	780.9	673.4	563.3	476.9	415.0	372.9	340.3	362.6	329.6	201.6	134.9	95.92	72.32	69.31	135.2	759.5	3057	2554	42.31	4.623	3.142	3.018	2.502	2.623	2.824	2.869	3.216	3.529	3.973	4.614	4.692	5.543	5.831	5.850	6.218	7.745	8.004	8.494	8.652	8.985	8.649	8.427	7.827	7.259	6.795	6.676	6.644	6.660	5.974	5.592	5.548	5.428	5.501	5.225	5.544	5.342	5.534	5.340	5.463	5.115	5.340
390.0	1244	1466	1707	1914	2109	2231	2045	1723	1468	1297	1175	1076	1028	963.6	897.5	822.5	746.7	651.4	550.2	470.8	417.3	374.7	335.1	319.8	328.9	275.3	165.4	110.9	77.06	55.37	55.99	186.7	868.5	2218	2371	699.2	14.67	3.514	2.891	2.981	2.885	3.008	3.271	3.486	3.920	4.213	4.528	5.249	5.221	5.344	5.717	7.352	7.754	7.855	8.258	8.636	8.571	8.052	7.734	7.007	6.644	6.251	6.149	5.982	5.608	5.261	5.299	5.199	5.390	4.971	4.960	5.226	5.110	5.132	5.079	5.027	4.997
395.0	1149	1349	1590	1770	1951	2124	1955	1659	1404	1218	1072	994.0	946.7	886.2	828.5	770.6	703.8	620.7	531.1	463.3	410.6	376.9	338.3	307.9	284.5	291.6	233.2	133.8	86.08	59.52	43.16	61.79	207.1	521.5	1505	2957	296.5	16.83	3.406	3.262	3.111	3.029	3.047	3.249	3.924	3.949	4.142	4.840	4.936	4.986	5.220	6.841	7.047	7.432	8.137	8.009	8.138	7.534	7.172	6.880	6.061	6.059	6.037	5.502	4.880	5.025	4.625	4.806	4.698	4.369	4.802	4.507	4.855	4.711	4.463	4.970	4.695
400.0	1101	1263	1476	1681	1840	2019	1869	1607	1342	1146	994.2	930.0	881.8	834.7	778.6	723.6	664.9	595.5	516.8	456.3	409.9	377.7	339.9	307.9	273.8	259.5	262.3	175.0	98.20	66.36	45.65	38.11	62.28	127.4	390.9	1972	2426	257.6	8.661	3.500	3.024	3.134	3.277	3.441	3.590	3.912	4.160	4.517	4.762	4.582	4.905	6.124	6.753	7.034	7.809	7.631	8.019	7.880	7.127	6.927	6.084	5.793	5.715	5.327	4.690	4.579	4.449	4.382	4.286	4.186	4.420	4.464	4.428	4.211	4.262	4.265	4.437
405.0	1048	1224	1373	1549	1737	1913	1802	1552	1294	1090	943.6	869.2	827.9	779.0	726.9	674.4	629.8	564.9	496.4	443.5	405.3	372.8	338.1	307.0	274.0	241.2	241.4	217.9	123.0	73.42	49.65	34.87	32.45	41.01	96.95	543.8	2318	2200	38.66	4.622	3.100	3.116	3.279	3.336	3.394	3.960	3.753	4.419	4.416	4.284	4.748	6.036	6.472	6.845	7.301	7.119	7.774	7.225	6.587	6.288	5.803	5.563	5.138	4.837	4.525	4.275	4.216	4.066	3.985	3.823	4.286	4.139	4.135	4.056	4.003	3.985	4.046
410.0	1005	1147	1266	1418	1586	1771	1706	1486	1230	1009	872.0	783.4	754.7	710.0	667.7	625.2	583.6	525.0	472.1	422.3	387.5	360.9	331.0	301.7	269.1	233.0	205.4	205.3	172.7	99.93	59.60	40.13	29.31	24.73	31.88	129.3	632.7	1732	1970	653.1	14.85	3.499	3.246	3.185	3.165	3.616	3.333	4.071	3.945	4.096	4.245	5.558	5.842	6.211	6.736	6.759	7.235	6.870	6.400	6.486	5.676	5.233	4.717	4.413	4.156	3.966	3.813	3.646	3.696	3.598	3.729	3.788	3.757	3.689	3.610	3.725	4.031
