Sample:	'1
File name:	2025031110µã.FD3
Run date:	'10:50:45, 03/13/2025
Operator:	Administrator
Comment:	'

Instrument
Model:	F-2700 FL Spectrophotometer
Serial number:	23B8-004
ROM Version:	4J14000 07

Instrument parameters
Measurement type:	3-D scan
Data mode:	Fluorescence
EX  Start WL:	220.0 nm
EX  End WL:	600.0 nm
EX Sampling interval:	5.0 nm
EM  Start WL:	230.0 nm
EM  End WL:	650.0 nm
EM Sampling interval:	5.0 nm
Scan speed:	12000 nm/min
EX Slit:	5.0 nm
EM Slit:	5.0 nm
PMT Voltage:	700 V
Response:	Auto 
Corrected spectra:	Off
Contour interval:	50.000

Peak integration
Integration method:	Rectangular
Sensitivity:	1
Threshold:	1.000

Peaks
No.	ApexEX/EM(nm)	Height(Data)
1	225.0/340.0	5569
2	230.0/500.0	344.0
3	235.0/510.0	269.0
4	240.0/265.0	438.8
5	240.0/525.0	238.6
6	245.0/270.0	421.8
7	245.0/535.0	199.9
8	250.0/275.0	525.9
9	250.0/455.0	791.8
10	250.0/550.0	162.7
11	255.0/280.0	612.6
12	255.0/565.0	127.2
13	260.0/290.0	539.8
14	260.0/575.0	100.7
15	265.0/585.0	87.13
16	275.0/615.0	127.7
17	280.0/325.0	2252
18	280.0/625.0	122.7
19	285.0/635.0	104.3
20	320.0/360.0	346.8
21	330.0/375.0	225.3
22	335.0/380.0	210.0
23	345.0/395.0	153.3
24	350.0/400.0	160.8
25	355.0/405.0	145.3
26	360.0/415.0	132.2
27	365.0/420.0	135.1
28	375.0/435.0	104.5
29	380.0/440.0	111.2
30	395.0/460.0	63.44
31	400.0/465.0	53.12
32	415.0/485.0	26.62
33	425.0/500.0	18.82
34	430.0/505.0	17.33
35	440.0/520.0	12.05
36	445.0/525.0	10.44
37	455.0/540.0	7.476
38	460.0/340.0	15.49
39	475.0/565.0	3.201
40	485.0/265.0	2.314
41	495.0/270.0	2.324
42	505.0/275.0	3.494
43	510.0/280.0	3.629
44	520.0/285.0	4.129
45	530.0/290.0	3.592
46	560.0/325.0	11.36
47	570.0/315.0	11.51
48	575.0/320.0	11.71

Data points
	220.0	225.0	230.0	235.0	240.0	245.0	250.0	255.0	260.0	265.0	270.0	275.0	280.0	285.0	290.0	295.0	300.0	305.0	310.0	315.0	320.0	325.0	330.0	335.0	340.0	345.0	350.0	355.0	360.0	365.0	370.0	375.0	380.0	385.0	390.0	395.0	400.0	405.0	410.0	415.0	420.0	425.0	430.0	435.0	440.0	445.0	450.0	455.0	460.0	465.0	470.0	475.0	480.0	485.0	490.0	495.0	500.0	505.0	510.0	515.0	520.0	525.0	530.0	535.0	540.0	545.0	550.0	555.0	560.0	565.0	570.0	575.0	580.0	585.0	590.0	595.0	600.0
230.0	123.1	2573	3885	718.0	25.64	5.538	4.895	4.477	3.474	3.464	3.344	2.996	2.693	2.457	1.752	1.754	1.785	1.306	1.153	0.872	0.815	0.703	0.746	0.681	0.625	0.606	0.478	0.508	0.504	0.453	0.435	0.429	0.429	0.362	0.372	0.373	0.368	0.326	0.329	0.351	0.630	0.895	0.740	0.424	0.293	0.353	2.278	10.45	13.47	6.676	2.082	0.421	0.234	0.210	0.193	0.198	0.199	0.187	0.199	0.185	0.180	0.182	0.155	0.163	0.174	0.185	0.184	0.168	0.193	0.191	0.175	0.185	0.179	0.173	0.172	0.174	0.187
235.0	202.4	740.1	2789	3241	518.9	41.12	6.056	4.273	4.242	3.573	3.200	3.239	2.917	2.521	1.966	1.756	1.786	1.434	1.197	0.856	1.141	0.872	0.770	0.714	0.603	0.603	0.522	0.473	0.520	0.469	0.470	0.368	0.455	0.380	0.404	0.386	0.300	0.339	0.333	0.362	0.355	0.501	0.706	0.928	0.673	0.421	0.780	2.762	5.325	7.934	11.17	9.326	4.510	0.770	0.231	0.189	0.220	0.197	0.180	0.185	0.180	0.175	0.163	0.158	0.179	0.191	0.196	0.154	0.206	0.211	0.197	0.183	0.181	0.166	0.180	0.174	0.188
240.0	294.0	288.7	869.5	3085	3360	397.1	19.83	6.524	5.405	4.762	3.797	3.639	3.177	2.688	2.406	2.124	1.795	1.354	1.339	0.922	0.968	0.870	0.793	0.744	0.566	0.593	0.600	0.473	0.508	0.462	0.422	0.452	0.490	0.425	0.456	0.307	0.296	0.368	0.338	0.375	0.291	0.302	0.391	0.681	0.987	0.923	0.681	0.919	1.412	2.416	6.598	13.45	20.18	9.446	2.864	0.557	0.272	0.229	0.215	0.183	0.173	0.174	0.163	0.179	0.186	0.187	0.181	0.185	0.184	0.201	0.185	0.194	0.178	0.162	0.191	0.181	0.214
245.0	236.1	323.5	277.0	1123	3972	3085	275.3	11.28	6.583	5.747	4.901	3.989	3.800	2.592	2.292	2.284	2.089	1.514	1.250	0.977	1.074	1.078	0.825	0.807	0.592	0.660	0.608	0.569	0.499	0.480	0.540	0.446	0.520	0.334	0.373	0.284	0.367	0.347	0.359	0.362	0.294	0.277	0.308	0.395	0.521	0.924	1.096	0.867	0.619	0.757	1.760	4.967	15.87	19.54	17.73	10.84	2.173	0.366	0.230	0.168	0.203	0.193	0.186	0.223	0.153	0.220	0.191	0.199	0.210	0.192	0.211	0.166	0.186	0.251	0.237	0.175	0.204
250.0	89.02	237.7	326.3	353.2	1326	3597	3741	1126	58.51	8.302	6.889	5.223	4.207	3.560	2.749	2.520	2.239	1.735	1.358	1.019	0.993	0.994	0.865	0.831	0.722	0.762	0.546	0.550	0.478	0.446	0.521	0.450	0.529	0.448	0.376	0.373	0.322	0.322	0.328	0.348	0.312	0.315	0.341	0.317	0.343	0.423	0.682	1.044	1.206	0.997	0.885	1.390	3.937	6.566	11.95	20.13	22.91	17.26	10.48	2.460	0.434	0.224	0.188	0.203	0.178	0.201	0.212	0.173	0.205	0.205	0.184	0.194	0.204	0.216	0.183	0.209	0.202
255.0	48.44	90.31	242.1	387.1	381.9	942.4	3334	6528	1510	65.03	9.625	7.423	5.220	3.799	2.892	2.681	2.410	1.826	1.413	1.165	1.059	0.933	0.821	0.901	0.776	0.782	0.634	0.593	0.594	0.591	0.598	0.537	0.529	0.442	0.457	0.408	0.345	0.307	0.428	0.395	0.350	0.281	0.310	0.331	0.362	0.313	0.354	0.493	0.623	0.959	1.588	1.565	1.436	1.715	2.928	4.958	8.875	20.08	39.31	27.27	17.20	2.765	0.332	0.248	0.259	0.255	0.206	0.185	0.192	0.181	0.199	0.192	0.228	0.206	0.192	0.186	0.195
260.0	39.98	47.41	95.02	346.8	370.9	270.8	1058	5689	6752	1183	33.48	10.07	6.812	4.302	3.942	3.278	3.383	2.053	1.697	1.216	1.398	1.189	0.956	0.906	0.696	0.837	0.705	0.632	0.598	0.535	0.551	0.578	0.537	0.460	0.426	0.465	0.336	0.324	0.406	0.362	0.344	0.306	0.302	0.297	0.327	0.344	0.310	0.331	0.371	0.431	1.037	1.852	2.106	1.284	0.989	1.398	2.330	5.436	16.74	34.35	55.81	26.18	11.59	1.193	0.325	0.285	0.229	0.248	0.210	0.232	0.168	0.195	0.209	0.205	0.213	0.224	0.191
265.0	39.47	34.61	42.15	169.2	438.8	266.1	282.2	1973	7562	7473	208.8	17.96	8.065	5.501	4.500	3.730	3.501	2.576	1.732	1.364	1.285	1.183	1.061	0.968	0.819	0.762	0.729	0.788	0.641	0.492	0.511	0.511	0.542	0.524	0.434	0.439	0.373	0.351	0.411	0.380	0.385	0.290	0.368	0.369	0.364	0.361	0.318	0.367	0.269	0.285	0.460	0.951	2.006	2.314	1.587	0.878	0.864	1.526	4.212	10.12	30.84	47.79	53.03	21.76	6.252	0.615	0.252	0.258	0.201	0.277	0.185	0.205	0.201	0.220	0.234	0.222	0.239
270.0	47.09	43.93	32.66	58.58	218.3	421.8	294.7	499.5	2432	7827	9999.9	2849	52.01	9.518	6.562	5.048	4.895	2.841	2.159	1.590	1.430	1.341	1.129	1.056	0.800	0.864	0.705	0.858	0.663	0.665	0.665	0.592	0.702	0.582	0.553	0.466	0.463	0.390	0.376	0.369	0.380	0.301	0.377	0.402	0.342	0.347	0.314	0.355	0.289	0.256	0.293	0.454	0.782	1.318	1.908	2.324	2.039	1.251	1.318	2.590	7.407	13.69	26.34	36.70	36.50	52.33	15.32	5.730	0.595	0.322	0.258	0.241	0.244	0.258	0.253	0.229	0.277
275.0	76.99	72.75	40.88	39.25	76.65	205.8	525.9	360.7	585.1	1934	7538	9999.9	1156	56.08	9.486	7.680	6.075	3.196	2.712	1.818	1.739	1.524	1.230	1.178	1.010	0.931	0.840	0.842	0.684	0.756	0.823	0.664	0.700	0.642	0.633	0.603	0.532	0.538	0.436	0.467	0.483	0.352	0.427	0.446	0.500	0.379	0.393	0.401	0.364	0.312	0.272	0.316	0.506	0.565	0.728	1.171	2.419	3.494	2.493	1.371	2.057	3.395	6.194	8.668	11.22	35.64	56.21	63.16	23.40	6.670	0.559	0.276	0.305	0.319	0.246	0.251	0.249
280.0	106.4	101.0	61.11	40.42	43.12	85.82	330.3	612.6	282.0	481.1	2130	9999.9	9877	869.2	27.99	9.744	7.554	4.542	3.155	2.361	2.099	1.596	1.446	1.286	1.110	1.017	0.885	0.832	0.750	0.772	0.784	0.654	0.730	0.729	0.766	0.695	0.660	0.550	0.547	0.495	0.560	0.451	0.413	0.521	0.522	0.544	0.493	0.502	0.462	0.303	0.343	0.354	0.327	0.383	0.470	0.594	1.075	2.152	3.629	3.087	1.897	1.243	1.780	2.333	2.917	8.919	18.95	42.11	64.53	32.82	19.43	3.860	0.424	0.342	0.323	0.313	0.251
285.0	145.7	144.9	92.08	50.94	40.06	52.61	138.3	520.3	530.4	206.3	545.9	3058	9999.9	8123	120.0	16.66	10.54	5.616	4.299	2.413	2.296	1.797	1.743	1.513	1.093	1.100	0.947	0.806	0.844	0.770	0.867	0.811	0.816	0.842	0.888	0.889	0.887	0.623	0.601	0.625	0.553	0.549	0.563	0.691	0.536	0.659	0.618	0.562	0.525	0.413	0.370	0.358	0.397	0.344	0.428	0.477	0.563	0.875	1.852	3.271	4.129	2.457	1.183	0.980	1.002	2.576	4.737	10.84	25.57	55.19	82.13	31.61	13.82	1.679	0.403	0.344	0.326
290.0	214.4	191.1	138.9	79.10	54.68	52.24	77.54	226.3	539.8	485.5	264.8	785.3	2927	8768	9531	2416	40.87	9.250	5.436	3.284	2.769	2.459	1.939	1.755	1.370	1.248	1.032	0.888	0.955	0.903	0.845	0.799	0.988	1.014	1.122	1.061	0.979	0.782	0.710	0.707	0.683	0.624	0.574	0.675	0.681	0.735	0.683	0.756	0.692	0.521	0.420	0.441	0.447	0.445	0.432	0.431	0.501	0.623	0.834	1.297	2.293	3.217	3.592	2.809	1.540	1.294	1.679	3.046	6.355	14.16	29.68	41.01	60.40	61.15	43.29	9.542	1.577
295.0	302.3	289.4	213.8	134.0	105.0	96.05	116.0	179.7	276.9	641.3	704.9	349.1	795.1	2169	5876	9999.9	3574	44.69	8.209	4.721	3.831	3.238	2.327	2.129	1.541	1.564	1.188	1.108	0.883	0.842	0.885	0.847	1.022	1.160	1.197	1.250	1.105	0.926	0.870	0.879	0.907	0.722	0.833	0.821	0.935	0.955	1.042	0.977	0.922	0.721	0.622	0.611	0.610	0.647	0.587	0.596	0.692	0.708	0.856	0.995	1.194	1.527	2.338	3.935	5.127	3.427	1.757	1.698	2.510	4.063	7.389	9.931	15.35	27.58	61.45	69.82	31.80
300.0	456.8	496.7	375.6	254.5	210.6	213.3	247.6	309.9	316.5	605.7	1127	807.8	587.1	797.5	1736	8743	9999.9	589.9	25.88	7.076	4.454	3.586	3.011	2.441	1.656	1.819	1.262	1.342	1.186	0.901	1.084	0.925	1.149	1.549	1.444	1.496	1.331	1.192	1.198	1.117	1.085	1.059	1.170	1.201	1.180	1.393	1.356	1.466	1.369	1.121	1.077	1.067	1.028	0.957	0.914	1.141	1.176	1.339	1.451	1.651	1.634	1.838	2.365	3.118	4.883	6.119	5.256	3.362	2.853	3.085	3.746	3.724	5.329	7.934	18.08	35.99	69.03
305.0	743.3	795.8	656.8	466.9	393.4	407.9	442.3	636.6	726.4	967.3	1396	1579	1155	908.7	976.4	2864	9999.9	9999.9	411.9	12.56	6.006	4.831	3.495	2.961	1.949	2.056	1.529	1.382	1.259	0.980	1.084	1.135	1.321	1.436	1.632	1.746	1.918	1.654	1.743	1.616	1.740	1.634	1.728	1.769	1.669	1.975	1.991	2.293	2.041	1.599	1.611	1.693	1.776	1.701	1.627	1.898	2.248	2.672	2.732	3.000	3.169	3.552	4.251	4.463	5.495	6.587	8.369	8.469	6.908	5.675	5.083	4.660	4.650	5.214	7.065	11.01	23.93
310.0	1076	1204	1011	724.4	595.2	607.2	748.9	921.8	998.6	1251	1556	1909	1969	1375	1075	1255	3393	7745	7217	1591	25.61	6.855	4.723	3.675	2.461	2.413	1.906	1.453	1.411	1.277	1.168	1.118	1.448	1.559	1.904	1.985	2.200	2.253	2.207	2.171	2.115	2.063	2.079	2.334	2.405	2.797	2.819	3.310	2.982	2.626	2.252	2.608	2.505	2.477	2.528	2.768	3.148	3.770	3.950	4.338	4.328	4.710	5.625	6.074	6.753	7.390	8.111	9.437	10.22	10.33	8.656	7.042	6.255	6.115	5.931	6.280	8.636
315.0	1549	1720	1492	1023	808.6	812.4	958.8	1123	1172	1420	1743	1996	2154	2023	1369	1016	1365	2096	4482	8397	508.0	29.37	7.068	4.885	3.274	2.985	2.292	1.709	1.739	1.304	1.307	1.276	1.484	1.604	2.073	2.175	2.352	2.631	2.634	2.645	2.768	2.529	2.538	2.964	3.061	3.981	4.553	5.021	4.404	3.501	3.097	3.536	3.395	3.111	3.298	3.573	4.050	4.585	4.740	4.868	5.224	5.805	6.563	7.136	7.461	8.155	9.075	8.932	10.26	10.75	11.51	11.42	8.879	7.693	6.622	5.683	5.934
320.0	2303	2770	2265	1321	953.4	914.0	1108	1271	1293	1584	1925	2145	2203	2180	1744	1066	955.0	834.2	1236	5292	7719	437.7	16.16	6.087	3.760	3.609	2.456	2.044	1.836	1.454	1.485	1.273	1.600	1.708	2.167	2.330	2.554	2.780	2.951	3.102	3.319	3.310	3.411	3.942	4.711	6.142	6.586	7.598	6.648	4.982	4.093	4.048	3.878	3.483	3.621	3.951	4.676	5.252	5.531	5.651	5.958	6.220	7.013	7.678	8.309	9.109	9.543	9.851	11.06	11.02	11.09	11.71	11.30	10.06	7.892	6.393	5.502
325.0	3059	3973	3256	1761	1068	983.7	1143	1332	1373	1661	2000	2238	2252	2083	1916	1230	870.4	561.3	408.8	1490	6798	7104	60.51	10.37	5.035	4.350	2.719	2.450	1.833	1.816	1.614	1.444	1.780	1.803	2.044	2.429	2.606	2.860	3.079	3.390	3.376	3.767	4.234	5.116	6.569	8.055	9.335	10.83	10.10	7.407	5.324	4.678	4.150	3.811	3.814	4.204	4.900	5.696	5.820	6.107	5.754	6.826	7.220	7.730	8.565	9.572	10.08	10.48	11.36	10.97	10.94	10.86	10.60	11.31	9.714	7.283	5.887
330.0	3577	4641	4127	2458	1532	1170	1172	1322	1361	1600	1941	2185	2205	1979	1723	1390	980.8	534.1	275.3	442.4	1923	5756	5651	1367	22.04	6.060	3.825	2.884	2.479	1.862	1.726	1.527	1.940	1.749	2.133	2.367	2.578	2.835	3.211	3.456	3.745	4.293	4.845	5.630	7.225	9.071	11.08	12.76	12.34	9.712	7.418	7.036	6.172	5.398	5.045	4.551	5.010	5.628	5.721	6.130	6.049	6.692	7.397	7.857	8.697	9.669	9.582	10.01	10.57	10.64	10.89	10.28	9.732	10.00	9.255	8.569	7.809
335.0	4090	5465	5114	3482	2414	1564	1268	1357	1373	1597	1938	2182	2210	2026	1696	1342	1209	705.4	348.5	288.8	578.1	1425	3796	8424	1840	24.43	5.336	3.697	2.951	2.139	1.918	1.631	2.057	1.850	2.361	2.600	2.784	2.953	3.452	3.906	4.157	4.704	5.322	6.782	8.402	10.75	12.38	15.19	14.46	12.62	10.24	10.54	9.893	8.332	6.851	5.505	5.638	5.921	6.080	6.072	6.141	6.556	7.058	8.029	8.628	9.697	9.591	10.33	10.38	10.79	10.76	10.58	10.03	9.638	8.681	8.183	8.381
340.0	4138	5569	5397	3768	2667	1671	1283	1311	1312	1520	1827	2044	2085	1938	1617	1239	1093	855.2	407.5	265.5	289.3	435.6	1052	5791	6908	370.3	10.86	4.505	3.454	2.563	2.186	1.719	2.283	1.936	2.464	2.454	2.765	3.175	3.355	3.786	3.855	4.415	5.165	6.891	8.719	10.90	12.76	15.36	15.49	13.27	10.78	11.75	11.09	9.156	7.512	5.747	5.606	5.697	5.937	5.718	5.922	6.308	6.807	7.661	8.020	8.752	9.238	9.633	9.865	10.35	10.58	9.844	9.436	9.277	8.247	7.553	6.984
345.0	3725	5088	4980	3613	2517	1575	1159	1181	1180	1356	1611	1778	1839	1714	1439	1094	897.5	788.7	494.3	258.7	215.3	213.5	327.3	1672	6188	3285	50.53	6.347	4.419	2.828	2.412	2.126	2.420	2.049	2.539	2.387	2.866	2.987	3.299	3.424	3.631	4.156	4.807	5.985	8.043	9.615	11.52	14.06	14.27	12.09	10.58	11.05	9.980	8.713	6.899	5.477	5.171	5.041	5.319	5.157	5.606	5.661	6.029	6.731	7.194	7.779	7.811	8.192	8.608	9.020	9.154	8.830	8.313	8.163	7.646	6.805	6.241
350.0	3248	4334	4342	3369	2435	1514	1034	1024	1007	1147	1352	1503	1555	1466	1238	957.7	762.3	610.4	522.4	356.6	215.3	168.0	172.4	442.5	1762	4467	4355	1073	16.89	3.905	3.012	2.301	2.599	2.065	2.383	2.298	2.639	2.663	2.940	3.008	3.258	3.701	4.268	5.349	6.541	8.352	9.814	12.34	12.38	10.91	9.726	10.35	9.495	8.582	6.691	5.045	4.488	4.521	4.585	4.821	4.764	4.937	5.169	5.535	6.203	6.477	6.702	7.145	7.586	7.764	8.032	7.796	7.343	6.917	6.658	5.960	5.443
355.0	2749	3697	3793	3008	2275	1384	924.6	879.2	861.8	969.6	1124	1248	1296	1239	1065	834.6	663.4	508.2	397.2	412.9	289.6	162.5	139.2	170.9	424.7	1056	3107	6027	379.7	15.76	4.083	2.801	3.069	2.350	2.414	2.214	2.278	2.325	2.647	2.585	3.221	3.401	3.760	4.461	5.576	7.189	8.631	10.51	10.60	9.506	8.658	9.418	9.219	8.240	6.344	4.719	4.240	4.014	4.119	3.968	3.905	3.989	4.688	4.642	5.021	5.496	5.848	5.866	6.383	6.427	6.610	6.620	6.475	6.043	5.923	5.395	4.652
360.0	2274	3095	3215	2610	2008	1212	801.8	751.8	733.1	812.9	945.3	1042	1080	1035	898.0	709.9	575.0	435.4	326.4	324.6	346.8	189.5	125.5	105.8	131.2	257.5	827.7	4530	5479	309.0	8.267	3.532	3.437	2.430	2.385	2.172	2.220	2.290	2.368	2.263	2.659	2.921	3.314	3.701	4.672	6.225	7.157	8.665	8.558	8.006	7.427	8.257	7.861	7.228	5.615	4.235	3.590	3.396	3.282	3.448	3.344	3.450	3.788	3.973	4.258	4.628	4.974	4.915	5.348	5.423	5.783	5.714	5.487	5.584	5.254	4.602	4.095
365.0	1895	2560	2689	2202	1726	1066	695.0	648.6	634.1	678.1	792.8	874.4	914.3	866.0	756.6	611.7	492.6	377.9	282.4	245.3	306.0	256.9	131.1	88.00	66.28	81.67	203.6	1328	5564	2946	46.41	4.991	4.313	2.566	2.239	2.133	2.277	1.916	2.203	2.190	2.214	2.307	2.733	3.205	3.923	5.279	5.968	6.953	7.175	6.784	6.390	7.387	6.693	6.178	4.866	3.713	3.247	2.931	2.968	3.064	2.944	2.937	3.205	3.426	3.612	4.019	4.257	4.151	4.467	4.728	4.632	4.877	5.029	4.637	4.423	3.698	3.870
370.0	1556	2015	2136	1828	1468	906.9	586.5	551.7	528.2	567.6	655.1	711.1	743.1	710.8	627.8	515.9	423.2	332.2	253.6	210.0	213.6	254.3	205.2	101.9	57.31	48.59	68.09	315.8	1627	3667	3921	902.6	16.09	3.268	2.776	2.404	2.219	2.030	1.925	2.098	2.047	2.046	2.504	2.811	3.365	4.200	4.608	5.747	5.791	5.667	5.261	6.307	5.880	5.175	4.262	3.017	2.837	2.441	2.535	2.578	2.516	2.468	2.759	2.935	3.069	3.222	3.397	3.632	3.839	3.751	3.984	3.905	3.931	3.677	3.535	3.221	3.163
375.0	1268	1599	1682	1482	1211	761.7	493.9	455.8	439.9	457.2	540.4	571.9	602.1	576.1	511.6	431.7	358.8	287.6	230.3	192.2	171.0	176.4	225.3	172.1	64.29	47.27	43.88	93.22	380.8	876.5	3025	5273	333.5	13.25	3.602	2.662	2.347	2.001	1.770	1.872	1.979	2.037	2.134	2.377	2.714	3.353	3.564	4.698	4.717	4.577	4.066	4.946	5.015	4.245	3.425	2.852	2.361	2.213	2.069	2.156	2.130	2.123	2.144	2.339	2.463	2.586	2.884	2.937	2.972	3.210	3.128	3.371	3.374	3.074	2.857	2.776	2.701
380.0	1008	1274	1355	1232	1024	660.5	444.6	409.8	387.4	403.2	457.7	488.4	509.6	484.2	439.1	371.4	313.1	262.6	212.1	181.0	158.5	145.3	174.5	210.0	106.6	53.46	42.41	47.97	107.1	212.4	824.3	4224	5765	252.5	6.317	3.231	2.598	2.352	1.878	1.850	1.901	1.849	1.996	2.116	2.250	2.862	2.962	3.773	3.939	3.514	3.610	4.221	3.949	3.667	3.120	2.255	2.142	2.053	1.916	1.881	1.936	1.905	2.012	2.007	2.095	2.156	2.462	2.503	2.580	2.665	2.638	2.862	2.698	2.711	2.483	2.402	2.149
385.0	856.7	1093	1157	1047	876.4	587.1	406.3	364.3	338.9	358.1	394.6	425.4	440.6	421.5	384.5	327.2	279.1	238.4	199.7	172.7	151.1	137.3	136.4	180.9	164.0	74.12	46.79	41.24	49.65	66.15	200.2	1279	6067	2446	36.80	4.285	2.788	2.675	2.016	1.745	1.749	1.654	1.750	1.983	2.129	2.443	2.588	3.132	3.340	3.036	3.168	3.661	3.672	3.504	2.778	2.149	2.074	1.979	1.839	1.761	1.703	1.825	1.673	2.011	1.932	2.123	2.279	2.170	2.251	2.169	2.351	2.649	2.483	2.340	2.351	2.161	2.154
390.0	718.0	874.1	928.8	872.9	763.2	534.8	381.2	334.7	307.9	317.4	351.9	375.1	378.6	365.4	328.7	287.4	249.2	216.8	188.2	166.5	148.7	135.0	125.8	131.1	161.5	138.0	70.38	47.76	43.32	39.33	62.99	300.4	1783	3076	3558	732.5	11.58	2.901	2.196	1.895	1.700	1.450	1.580	1.784	1.870	2.179	2.175	2.711	2.647	2.608	2.717	3.178	3.115	2.968	2.442	1.898	1.981	1.808	1.659	1.710	1.619	1.643	1.516	1.694	1.645	1.819	1.946	1.930	1.994	1.955	2.167	2.198	2.071	2.130	2.083	1.930	2.025
395.0	622.0	715.2	774.9	741.0	660.8	490.2	369.4	324.9	289.5	294.5	314.9	333.0	339.9	325.1	289.1	258.3	225.4	200.7	179.3	162.6	145.3	132.9	124.9	116.6	117.8	153.3	134.4	65.80	49.22	40.50	38.79	84.48	411.3	735.2	2900	4129	267.3	11.39	2.607	2.150	1.949	1.665	1.670	1.759	1.580	1.950	1.884	2.320	2.231	2.197	2.241	2.791	2.721	2.626	2.228	1.846	1.864	1.651	1.706	1.532	1.565	1.593	1.555	1.624	1.499	1.608	1.754	1.816	1.604	1.726	2.012	1.835	1.884	1.916	1.890	1.855	1.984
400.0	530.9	635.9	681.7	660.1	599.3	472.1	365.1	316.6	279.0	277.9	298.4	318.1	311.7	296.2	267.5	240.3	213.2	190.7	174.0	156.8	143.7	134.6	127.6	116.1	106.0	122.3	160.8	103.2	57.87	45.98	37.07	40.41	108.8	176.1	794.3	3237	3540	217.1	5.147	2.617	2.020	1.835	1.507	1.619	1.597	1.895	1.710	2.070	2.022	1.967	1.857	2.282	2.495	2.312	2.083	1.962	1.844	1.516	1.751	1.434	1.443	1.452	1.538	1.536	1.562	1.463	1.590	1.592	1.631	1.561	1.789	1.771	1.698	1.848	1.573	1.677	1.801
405.0	503.8	585.5	607.4	602.9	556.2	467.6	363.8	322.7	279.6	271.9	286.6	299.2	297.5	283.2	251.0	228.0	199.2	185.2	167.5	156.2	145.4	136.6	130.3	118.4	108.8	105.7	141.3	145.3	80.59	53.18	41.18	34.75	44.50	53.04	190.0	969.6	3680	2082	32.80	3.642	2.307	1.797	1.665	1.675	1.593	1.863	1.623	1.897	1.890	1.842	1.865	2.150	2.345	2.280	2.137	1.849	1.848	1.598	1.844	1.582	1.511	1.408	1.454	1.432	1.463	1.478	1.527	1.590	1.664	1.614	1.620	1.473	1.541	1.624	1.729	1.461	1.707
410.0	467.3	527.3	550.4	554.2	521.8	452.3	383.0	329.7	278.8	269.7	277.8	286.1	279.0	262.6	236.5	213.9	190.3	175.7	164.3	153.7	145.2	134.9	131.4	123.1	114.2	105.4	111.1	137.6	129.6	76.25	49.59	39.03	36.99	29.46	55.88	227.5	1078	2366	2108	603.7	9.986	2.152	1.772	1.685	1.680	1.719	1.582	1.768	1.779	1.706	1.809	2.234	2.113	2.119	1.993	1.922	1.814	1.803	1.797	1.590	1.553	1.436	1.474	1.411	1.450	1.543	1.400	1.460	1.541	1.521	1.577	1.515	1.434	1.538	1.518	1.484	1.614
415.0	430.5	472.7	499.5	504.5	495.1	450.3	387.6	342.2	277.4	267.7	267.2	268.5	266.7	248.6	221.5	205.4	183.5	170.7	161.0	150.5	141.9	131.0	130.6	123.5	117.6	106.9	102.1	106.4	132.2	118.2	65.48	44.81	39.40	27.41	28.25	62.26	249.4	566.0	1610	2791	236.0	9.420	2.064	1.877	1.720	1.778	1.419	1.731	1.640	1.687	1.593	2.036	1.999	2.013	1.955	1.978	2.068	1.789	1.738	1.687	1.561	1.374	1.373	1.386	1.426	1.359	1.377	1.207	1.599	1.539	1.418	1.462	1.428	1.337	1.375	1.420	1.464
