Sample:	'1
File name:	W102413颜师傅酱菜厂原水6倍.FD3
Run date:	'13:48:57, 10/25/2024
Operator:	horiz
Comment:	'

Instrument
Model:	F-2700 FL Spectrophotometer
Serial number:	23B8-004
ROM Version:	4J14000 07

Instrument parameters
Measurement type:	3-D scan
Data mode:	Fluorescence
EX  Start WL:	220.0 nm
EX  End WL:	600.0 nm
EX Sampling interval:	5.0 nm
EM  Start WL:	230.0 nm
EM  End WL:	650.0 nm
EM Sampling interval:	5.0 nm
Scan speed:	12000 nm/min
EX Slit:	5.0 nm
EM Slit:	5.0 nm
PMT Voltage:	700 V
Response:	Auto 
Corrected spectra:	Off
Contour interval:	50.000

Peak integration
Integration method:	Rectangular
Sensitivity:	1
Threshold:	1.000

Peaks
No.	ApexEX/EM(nm)	Height(Data)
1	260.0/340.0	3401
2	260.0/570.0	167.0
3	265.0/585.0	183.7
4	270.0/430.0	4861
5	270.0/600.0	187.3
6	275.0/310.0	2521
7	275.0/610.0	175.9
8	280.0/625.0	142.7
9	315.0/355.0	598.6
10	345.0/425.0	1032
11	350.0/430.0	1032
12	360.0/435.0	1041
13	515.0/345.0	18.17
14	535.0/435.0	22.28

Wavelength data
No.	EX/EM(nm)	Height(Data)	

Data points
	220.0	225.0	230.0	235.0	240.0	245.0	250.0	255.0	260.0	265.0	270.0	275.0	280.0	285.0	290.0	295.0	300.0	305.0	310.0	315.0	320.0	325.0	330.0	335.0	340.0	345.0	350.0	355.0	360.0	365.0	370.0	375.0	380.0	385.0	390.0	395.0	400.0	405.0	410.0	415.0	420.0	425.0	430.0	435.0	440.0	445.0	450.0	455.0	460.0	465.0	470.0	475.0	480.0	485.0	490.0	495.0	500.0	505.0	510.0	515.0	520.0	525.0	530.0	535.0	540.0	545.0	550.0	555.0	560.0	565.0	570.0	575.0	580.0	585.0	590.0	595.0	600.0
230.0	32.93	412.7	1160	462.9	30.61	9.956	10.31	11.79	12.13	12.58	12.46	12.50	12.80	11.83	10.96	11.02	10.83	11.18	11.59	12.01	12.27	13.07	13.29	13.94	13.85	14.22	13.08	12.95	12.60	12.38	11.80	10.98	10.63	9.696	8.385	7.356	6.509	5.844	5.330	4.971	4.462	4.241	4.030	3.887	3.761	3.494	3.570	5.015	6.137	4.973	3.358	2.333	2.126	2.045	1.901	1.797	1.768	1.646	1.521	1.344	1.293	1.233	1.167	1.084	1.035	0.984	1.009	0.804	0.814	0.744	0.674	0.654	0.609	0.601	0.589	0.564	0.522
235.0	41.34	121.9	676.0	1503	580.3	58.95	11.86	13.53	13.26	15.30	12.51	14.73	14.75	12.86	11.93	10.65	11.57	11.15	11.75	12.42	12.87	13.41	13.23	14.00	14.95	15.22	14.00	13.36	13.30	12.44	11.79	10.46	10.65	9.613	8.849	7.936	6.667	5.904	5.220	4.846	4.500	4.359	4.112	4.083	3.587	3.550	3.444	3.516	4.005	4.874	6.435	7.072	4.618	2.574	2.039	1.767	1.782	1.613	1.495	1.464	1.306	1.144	1.207	1.108	1.019	0.997	0.885	0.900	0.744	0.780	0.731	0.652	0.592	0.591	0.609	0.517	0.592
240.0	47.77	60.69	205.8	1333	2635	530.0	51.72	16.67	16.59	18.11	15.66	15.31	15.47	13.96	12.81	11.56	11.79	12.04	12.43	13.48	13.38	13.73	14.13	15.11	15.41	15.73	14.20	13.89	13.09	13.10	12.11	10.86	10.16	9.826	8.854	8.452	6.951	6.307	5.502	4.842	4.675	4.272	4.308	4.154	3.625	3.401	3.222	3.097	3.162	3.081	4.716	8.786	11.82	10.01	5.311	2.217	1.799	1.700	1.491	1.422	1.317	1.171	1.151	1.170	1.107	0.982	0.969	0.843	0.845	0.679	0.761	0.604	0.623	0.555	0.542	0.578	0.515
245.0	45.03	60.03	75.12	472.3	3258	4299	468.7	33.91	20.05	20.72	18.40	17.96	14.89	14.73	13.53	12.43	12.95	12.56	13.35	12.71	13.72	14.31	14.30	15.76	15.85	15.82	15.36	14.78	13.44	12.66	12.05	10.78	9.895	9.369	8.758	8.589	7.253	6.565	5.782	5.079	4.843	4.525	4.104	4.006	3.773	3.478	3.353	3.005	2.834	2.518	3.072	4.551	9.243	18.03	22.19	14.36	5.408	1.954	1.669	1.487	1.390	1.348	1.196	1.196	1.144	1.060	0.982	0.888	0.849	0.680	0.767	0.617	0.652	0.609	0.524	0.566	0.563
250.0	48.39	58.57	80.01	148.8	1102	5530	9396	1869	147.7	31.21	24.43	22.49	19.77	17.47	15.22	14.36	14.16	13.84	14.10	13.75	13.89	14.07	15.08	16.31	16.51	16.90	16.19	15.61	14.35	13.80	12.62	11.44	10.34	9.144	8.887	8.413	7.602	6.896	6.113	5.478	4.954	4.567	4.406	4.232	3.932	3.717	3.301	3.132	2.927	2.732	2.625	2.868	3.783	7.444	15.32	28.06	38.45	42.43	16.11	7.534	2.010	1.358	1.395	1.266	1.071	1.032	0.994	0.983	0.831	0.786	0.794	0.691	0.691	0.642	0.588	0.615	0.593
255.0	69.48	53.84	73.23	129.9	313.1	1446	9634	9999.9	2811	192.1	36.45	32.10	26.46	21.30	18.39	16.81	15.53	14.81	14.56	15.44	14.91	15.40	16.39	17.38	17.46	17.81	16.66	16.52	16.02	15.45	13.81	12.41	11.19	9.581	8.879	8.048	7.453	7.060	6.643	5.983	5.171	4.605	4.302	4.465	4.196	3.753	3.368	3.228	2.925	2.875	2.799	2.794	2.514	3.530	5.145	8.349	17.60	51.06	97.40	103.3	25.56	9.381	1.815	1.424	1.284	1.140	1.040	0.953	0.893	0.801	0.831	0.736	0.707	0.606	0.671	0.642	0.601
260.0	66.59	57.76	54.91	118.4	198.2	386.6	3033	9999.9	9999.9	2381	131.5	44.32	34.01	26.28	22.75	19.70	17.51	16.43	16.98	16.55	16.43	16.74	17.53	17.27	18.47	18.14	18.05	17.16	16.37	15.98	14.52	12.59	11.34	9.582	8.905	7.994	7.316	7.033	6.581	5.922	5.601	4.883	4.436	4.475	4.100	3.818	3.722	3.283	3.109	2.688	2.622	2.742	2.580	2.815	2.952	3.530	5.711	15.47	48.27	115.2	158.1	122.0	22.42	5.629	1.509	1.431	1.163	1.010	0.920	0.848	1.033	0.766	0.709	0.643	0.732	0.697	0.647
265.0	87.25	67.20	57.58	87.73	202.9	225.4	766.3	5035	9999.9	9999.9	1803	80.89	47.25	35.39	27.23	23.36	20.24	19.49	18.85	17.97	17.76	17.02	18.39	17.78	19.11	18.61	17.94	18.28	17.17	16.18	15.19	13.00	12.16	10.42	9.260	8.538	7.628	6.650	6.521	6.223	5.892	5.052	4.807	4.518	4.196	3.889	3.682	3.274	3.015	2.792	2.625	2.559	2.884	3.004	2.893	2.549	2.941	5.231	12.64	36.31	98.44	192.2	211.3	32.65	17.08	2.694	1.302	1.185	1.043	1.011	0.977	0.825	0.872	0.821	0.851	0.796	0.730
270.0	191.7	113.1	77.95	79.07	144.2	289.5	398.6	1307	6401	9999.9	9999.9	6971	131.3	57.36	41.67	31.72	26.86	23.24	22.50	21.11	19.82	19.85	19.78	20.06	20.29	19.24	18.75	18.80	18.36	16.64	15.85	14.28	13.00	11.41	9.868	8.826	7.995	7.577	7.014	6.523	6.447	5.954	5.567	5.029	4.592	4.272	3.922	3.650	3.353	2.983	2.714	2.539	2.660	2.731	3.046	3.236	3.167	3.385	4.631	9.989	24.84	58.43	116.6	171.2	226.1	181.5	99.50	12.71	3.127	1.389	1.317	1.097	1.031	0.940	0.902	0.864	0.825
275.0	313.5	159.3	97.91	85.91	118.6	221.9	488.3	641.8	1664	3666	9999.9	9999.9	9999.9	148.9	66.20	46.57	37.32	30.33	26.83	24.78	22.82	22.49	21.55	22.06	22.07	21.22	20.46	19.31	18.41	18.31	17.32	15.03	13.31	12.14	10.92	9.955	8.322	8.088	7.733	7.271	6.837	6.862	6.255	5.667	5.037	4.548	4.184	3.950	3.260	3.127	3.016	2.685	2.490	2.752	2.651	3.066	3.593	4.138	3.882	4.259	7.602	14.97	27.99	41.20	74.79	174.2	356.8	255.1	33.21	18.01	2.768	1.473	1.449	1.147	1.003	1.063	0.964
280.0	419.2	194.5	132.1	109.6	121.1	189.6	421.5	692.5	703.6	1131	5673	9999.9	9999.9	1388	120.7	67.19	50.08	39.49	33.73	28.65	26.22	25.99	24.07	24.54	24.05	23.65	22.24	21.42	19.74	17.85	17.39	16.11	13.86	12.72	11.83	10.78	9.334	8.824	8.033	7.534	7.334	7.058	6.455	5.790	5.318	5.161	4.307	4.172	3.560	3.270	3.135	3.023	2.736	2.716	2.835	2.746	3.180	3.844	4.413	4.284	4.204	5.655	8.518	11.56	19.00	44.75	134.9	293.4	447.6	246.7	30.14	12.21	1.843	1.424	1.368	1.298	1.234
285.0	523.6	287.0	182.1	136.6	133.9	191.0	313.4	690.1	780.0	679.7	1705	9999.9	9999.9	9999.9	1048	104.8	70.73	50.20	41.79	34.99	30.99	29.01	26.88	26.75	25.85	24.98	23.62	22.33	19.95	19.98	17.97	16.98	14.20	13.74	12.75	12.05	10.56	9.570	8.399	7.961	7.766	7.402	7.151	6.551	5.669	5.542	4.599	4.508	3.787	3.314	2.998	3.095	2.897	3.162	2.831	2.862	3.020	3.294	3.975	4.872	4.963	4.486	4.419	5.475	6.912	12.64	33.12	80.03	215.9	429.8	539.7	221.2	24.36	5.841	1.919	1.639	1.416
290.0	659.6	423.6	278.6	194.4	169.3	211.9	307.0	554.7	946.4	1073	1173	3105	9999.9	9999.9	9999.9	4254	274.9	83.22	62.19	48.32	41.33	35.37	32.99	30.72	29.62	27.74	26.39	25.01	22.43	21.44	19.96	18.08	16.10	14.62	13.31	12.06	11.11	10.71	9.562	8.783	8.288	7.794	7.540	7.214	6.193	6.112	5.172	4.811	4.238	3.708	3.488	3.402	3.313	3.181	3.213	3.067	3.187	3.442	3.707	4.077	4.962	5.841	5.906	6.309	5.798	6.619	11.31	21.74	52.56	116.1	234.9	360.1	475.2	360.5	141.2	17.33	7.136
295.0	831.1	589.2	414.7	268.9	215.8	251.5	341.0	559.4	890.6	1498	1709	1940	3241	5129	9999.9	9999.9	6231	278.2	97.14	70.25	55.13	47.09	40.63	38.00	34.27	32.45	30.24	27.87	25.18	23.28	21.58	19.24	17.52	15.68	14.04	12.98	12.45	11.37	10.19	9.575	8.857	8.542	7.808	7.528	6.814	6.879	6.075	5.414	4.636	4.059	3.823	3.677	3.465	3.354	3.276	3.431	3.801	4.056	4.128	4.656	4.950	5.331	6.186	8.447	9.111	7.816	8.279	10.53	17.35	30.94	56.81	84.66	127.5	252.9	588.7	784.1	251.7
300.0	926.5	750.1	508.3	334.6	247.0	277.2	390.7	607.5	937.4	1486	2176	2076	1934	1925	8842	9999.9	9999.9	4669	179.9	94.94	73.74	58.88	50.02	44.97	39.97	37.12	33.01	31.17	27.82	25.67	24.17	21.09	18.18	16.78	14.76	13.96	13.15	12.05	10.95	10.23	9.403	8.910	8.102	7.645	7.123	7.132	6.654	6.305	5.299	4.602	4.051	4.026	3.865	3.774	3.575	3.763	3.860	4.236	4.574	4.811	5.399	5.871	6.365	8.112	9.642	10.00	9.905	9.306	10.20	12.62	17.87	23.27	32.40	62.07	181.8	490.6	835.3
305.0	1002	820.2	559.7	363.4	273.5	308.2	432.5	659.8	1016	1502	2194	2477	1842	1290	2504	9999.9	9999.9	9999.9	707.5	149.1	104.3	78.03	64.21	54.06	47.28	42.84	38.42	34.27	31.14	28.22	26.69	22.69	20.14	17.91	15.83	14.58	13.76	12.74	11.90	10.99	10.12	9.229	8.696	8.170	7.870	7.562	7.195	6.918	5.898	4.948	4.390	4.374	4.195	4.197	3.995	4.233	4.320	4.506	4.982	5.465	5.889	6.539	6.739	8.011	8.779	10.06	11.02	11.24	9.689	9.486	9.762	10.04	11.24	17.09	44.05	120.5	307.5
310.0	1073	896.8	641.7	433.9	363.4	420.2	572.4	820.2	1169	1624	2119	2521	2230	1357	1092	2738	9999.9	9999.9	9999.9	9999.9	290.1	126.9	93.89	74.62	61.56	53.06	46.39	40.94	36.26	33.82	29.55	25.35	22.77	19.81	17.87	16.12	15.14	13.97	13.19	12.37	11.50	10.60	9.509	9.017	8.556	8.501	7.686	7.197	6.560	5.650	4.902	5.183	4.836	4.846	4.820	5.031	5.102	5.452	5.834	6.135	6.835	7.520	8.185	9.154	9.440	9.912	10.66	11.41	11.37	10.84	9.648	8.064	7.152	7.802	13.25	29.99	72.01
315.0	1135	956.7	734.8	541.5	528.2	656.2	916.0	1186	1473	1867	2245	2457	2366	1794	970.2	1015	2552	5806	9999.9	9999.9	4828	347.9	151.3	114.0	86.98	71.22	58.90	51.47	46.00	40.19	35.63	29.83	25.99	22.83	20.53	18.09	16.63	16.25	14.99	13.65	12.50	11.64	10.90	10.39	9.751	9.334	8.696	8.147	7.256	6.418	5.882	6.075	5.860	5.988	6.308	6.553	6.728	7.329	7.788	7.770	8.496	9.039	9.521	10.05	10.72	10.81	11.30	11.33	11.23	11.27	11.25	9.797	7.658	6.919	7.193	10.36	19.76
320.0	1207	1040	831.2	647.5	732.2	979.2	1320	1621	1856	2129	2462	2573	2372	2027	1230	719.3	903.4	1637	9999.9	9999.9	9999.9	4174	287.2	160.1	119.6	89.25	75.20	61.72	53.72	46.99	40.64	34.98	29.93	25.89	22.87	20.67	19.13	17.61	16.52	14.90	13.61	12.92	11.99	11.81	10.57	10.50	9.505	8.829	7.890	6.925	6.486	7.012	7.128	7.084	7.449	7.862	8.561	9.048	9.526	9.921	10.11	10.39	10.63	11.55	11.77	12.03	12.29	12.06	11.76	11.42	10.84	10.86	9.783	8.202	6.580	6.316	8.628
325.0	1309	1146	923.4	799.7	954.6	1330	1779	2127	2297	2485	2703	2761	2491	2056	1547	817.1	569.0	664.0	2647	9999.9	9999.9	9999.9	3288	246.2	164.9	120.9	94.00	77.01	63.67	55.65	48.20	40.28	34.39	29.30	25.78	22.43	20.85	19.14	17.81	16.28	14.79	14.12	13.23	12.73	11.26	11.34	10.06	9.261	8.911	7.514	7.273	7.742	7.866	8.838	8.944	9.849	10.94	11.16	11.62	11.86	11.76	12.51	12.95	13.05	12.96	13.12	13.03	12.83	12.84	12.73	11.09	11.30	10.70	9.822	8.544	6.685	6.703
330.0	1415	1252	1036	978.2	1233	1734	2313	2730	2866	2925	3021	3032	2756	2227	1630	1111	647.1	468.8	861.3	2729	9999.9	9999.9	9999.9	9999.9	346.5	193.0	140.1	106.5	83.28	70.95	58.34	50.00	41.13	35.12	30.11	26.16	23.66	21.70	19.90	18.04	16.73	15.83	14.81	13.88	12.89	12.43	11.32	10.78	9.488	8.496	8.191	8.902	9.281	10.22	10.73	11.62	13.64	13.53	14.45	14.68	14.70	14.51	14.95	15.01	15.10	14.69	14.55	14.40	14.22	13.54	12.63	11.79	11.11	10.15	9.284	8.806	7.792
335.0	1615	1397	1142	1109	1431	2047	2747	3177	3280	3266	3274	3249	2971	2423	1702	1140	874.0	510.3	461.4	862.9	2520	6982	9999.9	9999.9	9999.9	420.7	221.1	159.5	118.1	95.89	75.46	62.33	51.38	43.44	36.65	31.32	27.29	24.84	22.79	20.85	19.23	17.74	16.10	15.55	14.67	14.03	13.19	12.45	10.82	9.530	8.841	10.16	10.74	11.45	12.80	13.24	15.47	16.26	16.61	16.84	16.94	17.22	16.61	16.47	16.29	16.24	16.09	15.57	15.21	14.61	13.99	13.45	12.19	11.05	9.418	8.897	8.376
340.0	1626	1471	1200	1138	1512	2154	2894	3302	3401	3375	3338	3324	3058	2516	1759	1109	866.7	654.5	405.1	441.3	821.2	1901	9999.9	9999.9	9999.9	9999.9	376.3	214.6	157.7	119.2	91.56	74.01	60.07	49.43	41.00	34.54	30.44	27.77	24.70	22.62	20.75	19.01	17.16	16.50	15.32	15.19	13.71	13.33	11.64	10.00	9.309	10.84	11.08	12.18	13.07	13.87	15.85	17.03	17.76	18.03	17.26	17.71	17.22	17.38	16.51	16.30	16.04	16.10	15.32	15.08	14.96	14.16	12.62	11.25	10.26	9.132	8.233
345.0	1674	1475	1212	1159	1529	2168	2881	3318	3393	3336	3314	3279	3039	2539	1781	1117	780.6	713.0	490.6	363.3	437.3	704.0	2682	9999.9	9999.9	9999.9	3390	328.8	206.3	152.6	111.1	86.87	67.48	55.29	45.24	37.40	33.86	30.37	27.11	23.47	21.49	19.76	18.10	17.04	15.83	15.32	14.13	13.30	11.75	9.991	9.693	10.98	10.74	12.10	13.05	14.29	16.06	17.21	17.54	18.17	17.09	17.51	17.56	17.50	16.83	16.95	16.23	16.23	15.94	15.63	15.01	13.98	13.14	11.91	10.72	9.413	8.595
350.0	1686	1454	1172	1128	1437	2040	2686	3115	3209	3194	3183	3160	2934	2477	1773	1117	759.5	630.7	595.9	466.1	385.2	440.7	903.6	2787	9999.9	9999.9	9999.9	9999.9	375.3	223.1	157.0	112.9	83.45	66.08	53.14	43.47	37.03	33.47	29.57	25.46	23.11	21.21	19.55	18.05	16.92	16.19	14.37	13.57	12.42	10.36	9.860	11.12	10.94	12.16	12.92	13.89	15.70	16.41	17.19	17.33	16.97	16.93	17.19	16.71	16.53	16.14	15.64	15.70	15.91	14.98	14.17	13.73	13.07	11.86	10.76	9.438	8.826
355.0	1643	1427	1141	1066	1331	1854	2435	2839	2967	3005	3009	2963	2772	2347	1736	1118	785.1	615.6	558.8	598.6	490.5	424.0	518.0	955.6	2594	6175	9999.9	9999.9	9999.9	434.1	231.7	159.6	111.2	84.22	64.40	51.47	43.25	36.67	32.02	27.67	24.66	22.40	20.07	18.61	17.32	16.70	15.05	14.27	12.60	11.03	10.26	11.06	10.77	11.97	12.57	13.25	14.81	15.36	16.17	16.75	16.33	16.00	15.98	16.12	16.12	15.44	14.98	15.25	15.17	14.04	14.00	12.88	13.24	11.64	10.38	9.562	8.360
360.0	1559	1394	1109	1028	1251	1705	2238	2601	2750	2856	2856	2805	2626	2253	1692	1128	817.1	647.2	569.6	594.9	611.8	483.0	460.3	552.6	921.0	1780	9999.9	9999.9	9999.9	9999.9	392.1	209.4	145.5	104.5	75.43	58.73	47.90	40.82	35.03	29.84	26.69	24.18	21.70	19.62	18.04	17.41	15.56	14.66	12.89	11.07	10.25	11.15	11.41	11.39	12.33	12.91	14.34	14.83	15.39	15.74	15.80	15.47	15.66	15.39	15.35	15.26	14.35	14.81	14.32	13.98	13.33	13.19	12.68	11.71	10.21	9.192	8.814
365.0	1567	1315	1074	995.7	1166	1565	2038	2369	2576	2672	2729	2648	2502	2174	1658	1144	853.4	695.0	612.3	585.5	654.7	603.3	489.0	475.7	550.0	744.9	2680	9999.9	9999.9	9999.9	3349	337.3	188.7	131.5	91.81	67.10	55.01	45.99	39.28	32.74	28.46	24.87	22.89	20.89	18.94	17.54	15.52	15.19	13.01	11.26	10.94	11.41	11.04	11.31	12.01	12.55	13.67	13.84	14.67	14.90	15.11	14.87	15.35	15.21	14.94	14.27	14.24	14.57	13.54	13.75	12.91	12.72	12.40	11.46	10.06	9.399	8.915
370.0	1504	1266	1034	942.2	1093	1410	1800	2114	2320	2456	2511	2465	2350	2080	1635	1179	931.5	784.1	696.2	642.2	645.1	678.7	621.7	515.9	482.7	503.9	927.0	2694	9999.9	9999.9	9999.9	9999.9	1170	194.8	128.1	88.37	67.09	54.49	44.43	36.97	31.59	27.83	25.22	21.85	19.85	18.06	16.45	15.36	13.52	11.43	10.63	11.63	11.05	11.26	11.42	11.65	12.83	13.04	13.73	14.21	14.30	14.18	14.31	14.47	14.31	13.57	13.67	13.45	13.33	13.02	12.28	12.35	12.17	11.42	10.42	9.502	9.195
375.0	1484	1246	1000	920.4	1023	1275	1605	1871	2070	2245	2301	2308	2204	1995	1632	1251	1029	895.3	788.4	721.0	689.9	682.9	711.9	636.3	507.7	461.1	517.0	895.6	2548	4917	9999.9	9999.9	9999.9	376.0	187.2	124.6	89.84	66.15	51.31	42.73	36.21	31.11	26.80	24.17	20.79	19.44	16.97	15.65	13.73	11.70	10.52	11.93	11.15	11.74	11.34	11.52	12.35	12.52	12.57	13.19	13.29	13.35	13.97	13.87	13.46	12.82	12.94	12.40	12.84	12.40	12.35	12.02	11.92	11.17	10.27	9.475	9.430
380.0	1390	1213	972.6	908.1	999.1	1207	1479	1733	1929	2113	2190	2206	2119	1958	1650	1330	1115	977.0	862.5	783.7	741.9	708.3	713.9	717.7	572.1	471.6	435.1	488.8	850.2	1433	8480	9999.9	9999.9	9999.9	323.1	160.9	114.8	82.58	59.64	47.07	39.08	33.63	29.39	25.20	22.39	19.95	17.52	15.91	14.17	11.94	10.76	11.78	11.32	11.31	11.52	11.38	11.83	11.97	12.14	12.14	12.90	12.66	13.40	12.90	13.52	12.98	12.54	12.22	12.37	12.08	12.07	11.56	11.82	10.93	10.24	10.36	9.889
385.0	1354	1158	954.5	904.3	970.6	1152	1385	1633	1832	2009	2118	2144	2083	1958	1685	1404	1206	1064	929.6	839.2	784.3	745.9	712.1	726.6	668.1	519.7	435.0	402.8	466.4	600.7	2248	9999.9	9999.9	9999.9	9999.9	265.1	144.2	103.3	71.25	54.58	43.95	36.43	31.80	26.71	23.92	21.67	18.02	16.58	14.50	11.68	11.07	11.95	11.48	11.26	11.44	11.44	11.42	11.43	11.56	11.80	12.13	12.77	12.61	13.03	13.30	12.47	12.32	12.01	11.91	12.04	11.87	11.68	11.86	11.55	10.81	10.25	9.882
390.0	1305	1108	943.3	911.7	979.4	1147	1355	1620	1844	2062	2211	2218	2136	2001	1792	1552	1366	1196	1032	913.5	849.2	800.8	759.1	732.0	716.2	643.6	503.9	433.4	415.2	433.1	795.0	2592	9999.9	9999.9	9999.9	9999.9	1026	145.5	98.76	71.62	52.85	42.11	35.45	29.67	26.02	22.69	19.11	17.69	15.33	12.60	11.24	12.30	11.41	11.48	11.21	11.47	11.77	11.72	12.08	11.96	12.10	12.66	12.68	13.09	13.45	12.68	12.29	12.37	12.28	12.07	12.02	11.74	12.22	11.73	11.24	10.86	11.02
395.0	1264	1087	955.6	941.5	1055	1219	1453	1730	2052	2324	2487	2465	2282	2112	1941	1722	1554	1343	1138	992.7	909.3	857.6	831.5	782.1	743.9	733.0	659.4	519.9	477.9	458.3	518.2	894.3	2525	3686	9999.9	9999.9	9999.9	314.2	140.6	96.67	69.70	51.48	41.22	33.83	28.75	24.51	21.19	19.06	16.33	13.75	12.22	12.74	12.45	11.64	11.87	11.75	12.41	12.87	12.79	12.45	12.85	13.50	13.72	13.65	13.94	13.69	13.43	13.18	12.93	12.56	12.84	12.15	12.45	12.47	11.43	11.86	11.89
400.0	1252	1052	966.4	966.9	1115	1310	1543	1898	2304	2642	2857	2782	2462	2250	2064	1888	1701	1473	1233	1054	955.5	905.6	885.3	835.2	793.5	770.2	758.5	651.8	566.6	533.2	507.1	553.1	868.7	1108	5677	9999.9	9999.9	9999.9	267.7	119.4	84.14	62.67	46.64	37.08	30.93	26.37	22.43	20.15	17.38	14.35	12.62	13.28	12.26	11.99	11.75	12.03	12.69	13.15	13.14	12.95	13.66	14.19	14.49	14.69	15.29	14.94	14.14	14.15	13.75	13.37	12.93	12.49	12.84	12.50	11.85	12.05	12.40
405.0	1159	1037	972.7	1015	1183	1385	1681	2097	2595	3041	3265	3127	2673	2374	2179	2029	1839	1575	1302	1099	993.8	943.2	925.0	887.4	853.4	821.4	811.1	777.7	680.3	618.7	572.3	524.4	530.6	522.8	1530	9347	9999.9	9999.9	9999.9	211.5	101.5	73.82	53.66	41.18	33.26	28.46	23.63	21.18	18.55	14.69	12.93	13.77	12.77	12.72	12.24	12.31	13.16	13.61	13.82	13.74	14.70	15.03	15.46	15.82	16.31	16.52	15.85	15.19	14.52	14.14	13.27	13.01	13.45	12.88	12.89	12.58	13.20
410.0	1177	1064	1003	1097	1286	1520	1874	2394	2997	3559	3829	3607	2959	2542	2328	2182	1991	1694	1385	1149	1027	983.2	969.5	946.2	928.9	904.4	881.3	874.8	849.3	768.9	687.6	600.2	507.6	419.1	571.3	2311	8014	9999.9	9999.9	9999.9	227.7	101.7	68.72	52.33	38.97	31.67	25.25	22.45	19.36	15.33	13.54	14.33	13.47	13.47	12.85	12.97	13.89	14.12	14.93	15.36	16.16	17.17	17.41	18.19	18.27	18.49	18.14	16.97	15.59	15.00	14.17	13.81	13.50	13.17	13.00	13.20	13.54
415.0	1135	1042	1025	1121	1346	1624	2023	2690	3340	4036	4347	4042	3168	2667	2405	2270	2079	1756	1419	1165	1043	994.4	997.4	988.8	981.9	978.8	955.1	935.7	955.5	925.0	812.3	687.3	551.3	421.1	364.5	692.9	1943	3157	9999.9	9999.9	9999.9	269.8	96.75	66.13	48.89	37.51	28.52	24.94	20.12	16.30	14.33	14.94	14.19	13.58	13.40	13.24	14.72	14.75	15.70	16.29	17.45	18.54	19.16	20.08	20.37	19.92	19.10	18.36	16.85	15.96	14.79	14.37	13.58	13.76	13.55	13.30	13.93
420.0	1119	1020	1018	1141	1367	1689	2114	2806	3546	4262	4602	4249	3264	2694	2417	2302	2122	1784	1427	1162	1042	997.3	1003	1003	1005	1012	995.8	971.0	985.9	1002	902.9	748.4	593.1	441.2	327.5	335.4	581.7	857.7	4490	9999.9	9999.9	9999.9	223.0	82.06	59.80	45.58	32.42	26.85	21.48	17.98	15.72	16.37	14.99	14.08	14.38	14.31	15.14	15.25	16.41	17.14	17.93	19.82	20.36	20.51	21.49	20.65	19.87	18.93	17.48	15.73	14.88	14.28	13.58	13.61	13.60	13.83	13.91
425.0	1075	963.5	1002	1129	1396	1726	2170	2884	3678	4429	4751	4343	3329	2687	2409	2297	2108	1774	1418	1150	1016	989.4	987.9	997.8	1015	1032	1022	1002	1009	1022	971.1	808.8	623.1	460.2	327.3	258.4	277.0	325.1	1158	7401	9999.9	9999.9	9999.9	162.8	73.24	53.70	38.76	30.32	22.54	19.20	16.26	17.06	15.78	15.11	14.29	14.42	15.26	15.63	16.21	17.68	18.25	19.92	20.71	21.67	21.20	20.98	20.31	19.00	17.38	15.74	14.45	14.25	13.72	13.68	13.78	13.30	13.83
