Sample:	'1
File name:	淮河三源大道桥.FD3
Run date:	'12:48:26, 04/03/2024
Operator:	Administrator
Comment:	'

Instrument
Model:	F-2700 FL Spectrophotometer
Serial number:	23B8-004
ROM Version:	4J14000 07

Instrument parameters
Measurement type:	3-D scan
Data mode:	Fluorescence
EX  Start WL:	220.0 nm
EX  End WL:	600.0 nm
EX Sampling interval:	5.0 nm
EM  Start WL:	230.0 nm
EM  End WL:	650.0 nm
EM Sampling interval:	5.0 nm
Scan speed:	12000 nm/min
EX Slit:	5.0 nm
EM Slit:	5.0 nm
PMT Voltage:	700 V
Response:	Auto 
Corrected spectra:	Off
Contour interval:	50.000

Peak integration
Integration method:	Rectangular
Sensitivity:	1
Threshold:	1.000

Peaks
No.	ApexEX/EM(nm)	Height(Data)
1	225.0/640.0	34.00
2	230.0/310.0	778.2
3	230.0/385.0	388.6
4	230.0/415.0	361.8
5	230.0/500.0	214.7
6	230.0/600.0	57.46
7	235.0/510.0	177.8
8	240.0/525.0	160.4
9	245.0/445.0	316.8
10	245.0/535.0	130.5
11	250.0/430.0	338.5
12	250.0/545.0	111.7
13	255.0/280.0	447.5
14	255.0/560.0	97.27
15	260.0/575.0	79.46
16	265.0/585.0	84.47
17	270.0/300.0	937.4
18	270.0/405.0	318.9
19	270.0/600.0	86.67
20	275.0/305.0	1106
21	275.0/610.0	75.30
22	280.0/310.0	972.1
23	280.0/625.0	62.19
24	285.0/635.0	42.05
25	300.0/335.0	334.6
26	305.0/340.0	297.0
27	310.0/350.0	244.4
28	315.0/355.0	241.3
29	320.0/360.0	247.2
30	325.0/370.0	224.3
31	330.0/375.0	225.8
32	335.0/380.0	237.1
33	340.0/390.0	206.6
34	345.0/395.0	197.2
35	350.0/400.0	200.5
36	360.0/415.0	168.3
37	365.0/420.0	168.3
38	380.0/440.0	122.4
39	400.0/465.0	68.37
40	415.0/485.0	41.54
41	420.0/490.0	35.66
42	430.0/505.0	27.27
43	435.0/510.0	22.82
44	440.0/515.0	19.73
45	445.0/525.0	17.31
46	455.0/315.0	3.066
47	460.0/320.0	2.983
48	460.0/545.0	9.361
49	505.0/275.0	2.417
50	510.0/280.0	2.463
51	520.0/285.0	2.921
52	540.0/295.0	4.456
53	545.0/300.0	5.388
54	555.0/305.0	5.465
55	565.0/310.0	4.642
56	575.0/315.0	4.447
57	580.0/320.0	4.013
58	585.0/325.0	3.403

Data points
	220.0	225.0	230.0	235.0	240.0	245.0	250.0	255.0	260.0	265.0	270.0	275.0	280.0	285.0	290.0	295.0	300.0	305.0	310.0	315.0	320.0	325.0	330.0	335.0	340.0	345.0	350.0	355.0	360.0	365.0	370.0	375.0	380.0	385.0	390.0	395.0	400.0	405.0	410.0	415.0	420.0	425.0	430.0	435.0	440.0	445.0	450.0	455.0	460.0	465.0	470.0	475.0	480.0	485.0	490.0	495.0	500.0	505.0	510.0	515.0	520.0	525.0	530.0	535.0	540.0	545.0	550.0	555.0	560.0	565.0	570.0	575.0	580.0	585.0	590.0	595.0	600.0
230.0	31.06	1217	4169	1646	61.40	6.017	4.502	3.802	3.282	4.398	3.330	2.864	2.603	2.542	2.105	1.831	1.773	1.672	1.432	1.231	1.263	1.072	1.021	1.027	0.972	0.927	0.858	0.804	0.867	0.708	0.688	0.722	0.639	0.652	0.549	0.508	0.485	0.481	0.412	0.371	0.404	0.441	0.513	0.418	0.357	0.334	1.404	8.136	15.24	11.47	4.556	0.855	0.270	0.231	0.213	0.210	0.196	0.187	0.195	0.159	0.124	0.133	0.108	0.145	0.157	0.131	0.139	0.092	0.086	0.079	0.098	0.077	0.102	0.069	0.088	0.081	0.068
235.0	76.22	321.5	2110	4423	631.5	104.3	6.827	4.546	4.173	4.478	3.134	3.273	2.668	2.748	2.310	1.856	1.736	1.678	1.385	1.248	1.334	1.114	1.200	1.042	0.938	1.117	0.973	0.792	0.731	0.870	0.672	0.646	0.680	0.710	0.528	0.550	0.435	0.410	0.437	0.328	0.353	0.392	0.518	0.572	0.612	0.484	0.575	2.169	5.457	9.566	14.84	16.87	8.250	1.954	0.307	0.249	0.206	0.168	0.304	0.169	0.173	0.152	0.151	0.158	0.172	0.114	0.121	0.066	0.091	0.065	0.082	0.103	0.074	0.091	0.069	0.058	0.087
240.0	110.8	152.4	567.3	3058	4717	531.4	58.88	8.396	5.107	5.888	4.341	3.595	3.385	3.242	2.647	1.762	1.724	1.703	1.485	1.234	1.555	1.195	1.127	1.113	1.023	0.974	0.928	0.849	0.721	0.761	0.817	0.839	0.576	0.770	0.646	0.628	0.463	0.458	0.431	0.396	0.417	0.393	0.426	0.581	0.583	0.700	0.568	0.790	1.519	2.680	7.042	18.05	25.31	18.88	7.085	1.028	0.259	0.258	0.206	0.162	0.197	0.144	0.149	0.145	0.148	0.100	0.114	0.080	0.089	0.138	0.120	0.082	0.110	0.097	0.056	0.051	0.096
245.0	76.47	178.6	191.9	902.8	4317	4121	428.3	24.24	7.119	8.599	5.464	4.717	3.214	2.918	2.843	2.224	2.067	1.772	1.638	1.227	1.226	1.262	1.218	1.147	1.166	0.965	0.844	0.735	0.868	0.742	0.732	0.753	0.609	0.671	0.558	0.624	0.496	0.484	0.469	0.400	0.392	0.378	0.309	0.436	0.468	0.667	0.848	0.794	0.779	0.785	1.851	5.511	15.08	29.01	28.22	16.74	5.000	0.512	0.225	0.169	0.199	0.164	0.134	0.161	0.138	0.181	0.111	0.115	0.102	0.083	0.116	0.088	0.118	0.114	0.075	0.080	0.065
250.0	29.45	108.4	207.0	291.2	1233	3775	5116	1593	110.8	13.92	7.732	6.449	4.494	4.108	3.316	2.706	2.336	2.000	1.828	1.595	1.476	1.254	1.269	1.237	1.106	1.119	1.040	0.902	0.864	0.926	0.775	0.750	0.721	0.588	0.537	0.531	0.532	0.634	0.470	0.442	0.462	0.404	0.360	0.397	0.368	0.443	0.585	0.775	0.888	0.848	0.877	1.528	3.667	8.603	15.22	23.81	29.78	28.78	14.38	4.911	0.554	0.213	0.178	0.160	0.196	0.205	0.178	0.139	0.108	0.136	0.091	0.095	0.109	0.112	0.115	0.074	0.070
255.0	20.41	36.64	109.4	278.5	369.0	899.2	3228	9183	2304	150.7	13.08	9.499	6.462	5.643	3.941	3.457	2.696	2.512	2.224	1.657	1.612	1.317	1.228	1.261	1.156	1.230	1.183	0.988	0.969	1.001	0.815	0.719	0.801	0.805	0.620	0.554	0.575	0.554	0.528	0.469	0.433	0.331	0.382	0.379	0.383	0.441	0.424	0.411	0.482	0.718	1.179	1.495	1.328	2.217	3.668	5.692	9.573	24.07	46.53	33.17	22.04	5.133	0.345	0.245	0.230	0.216	0.182	0.139	0.102	0.195	0.109	0.107	0.133	0.143	0.101	0.060	0.088
260.0	17.89	22.49	40.13	187.7	303.6	258.4	856.9	5852	9999.9	1988	78.42	13.27	7.685	5.934	4.520	3.902	3.507	2.890	2.271	2.128	1.549	1.348	1.462	1.424	1.458	1.162	1.275	1.072	1.096	0.963	1.076	0.919	0.832	0.685	0.616	0.577	0.563	0.632	0.491	0.539	0.439	0.407	0.432	0.396	0.364	0.360	0.425	0.357	0.428	0.398	0.756	1.366	1.699	1.180	1.120	1.512	2.471	6.112	17.54	38.63	61.60	32.90	18.40	2.917	0.295	0.290	0.165	0.213	0.113	0.177	0.110	0.098	0.127	0.145	0.057	0.113	0.136
265.0	16.39	17.87	20.84	78.18	268.4	240.3	227.9	1663	8606	9999.9	1376	33.12	11.93	8.241	6.080	4.838	4.062	3.296	2.629	2.400	1.824	1.523	1.747	1.392	1.311	1.293	1.344	1.002	1.150	1.084	1.089	1.019	0.783	0.834	0.615	0.661	0.522	0.553	0.488	0.444	0.454	0.410	0.568	0.335	0.370	0.412	0.397	0.358	0.377	0.357	0.378	0.625	1.417	1.789	1.443	0.777	0.842	1.728	4.218	10.33	29.12	59.20	76.26	30.07	12.16	1.126	0.302	0.267	0.200	0.195	0.140	0.111	0.130	0.194	0.077	0.112	0.152
270.0	23.42	22.48	20.54	32.91	108.2	266.4	263.4	421.1	2394	9999.9	9999.9	4722	79.12	13.90	8.747	6.748	5.025	4.093	3.284	2.879	2.174	1.791	1.688	1.562	1.606	1.433	1.355	1.271	1.206	1.202	1.175	1.071	0.873	0.826	0.728	0.684	0.593	0.639	0.470	0.517	0.520	0.547	0.535	0.402	0.459	0.440	0.479	0.391	0.372	0.349	0.282	0.386	0.636	0.926	1.354	1.664	1.573	1.072	1.318	2.588	6.849	16.00	32.83	51.48	70.19	61.70	20.06	10.21	1.380	0.281	0.271	0.201	0.176	0.160	0.131	0.104	0.115
275.0	38.08	35.40	28.11	23.88	39.79	97.31	330.8	329.6	574.9	2361	6293	9999.9	6275	89.84	14.40	10.17	6.859	5.446	4.334	3.470	3.066	2.205	2.123	1.724	1.749	1.541	1.751	1.445	1.388	1.442	1.249	1.120	1.207	0.992	0.772	0.759	0.735	0.649	0.482	0.537	0.531	0.477	0.584	0.500	0.645	0.499	0.361	0.427	0.438	0.386	0.317	0.401	0.333	0.477	0.621	0.802	1.652	2.417	1.949	1.230	1.871	3.957	7.619	11.91	18.83	38.78	81.09	109.3	32.38	13.94	1.229	0.304	0.306	0.261	0.231	0.231	0.184
280.0	62.72	64.41	56.05	38.51	29.42	39.96	165.4	447.5	288.1	584.0	1642	9884	9999.9	1146	55.59	14.21	9.368	6.985	5.377	4.279	3.513	2.446	2.160	2.000	2.039	1.721	1.736	1.493	1.452	1.361	1.214	1.289	1.015	0.937	0.872	0.912	0.843	0.658	0.751	0.488	0.577	0.589	0.615	0.629	0.792	0.568	0.579	0.534	0.413	0.442	0.413	0.353	0.352	0.381	0.341	0.424	0.711	1.405	2.463	2.376	1.439	1.364	2.077	3.026	4.677	9.446	25.52	66.93	105.5	112.7	28.78	9.059	0.656	0.284	0.341	0.259	0.231
285.0	120.4	146.0	145.8	91.23	51.00	35.71	72.22	301.2	372.6	265.5	473.0	2803	9999.9	9999.9	828.0	28.18	12.44	8.635	6.749	4.954	3.947	3.419	3.045	2.598	1.944	1.796	1.703	1.596	1.592	1.539	1.330	1.491	1.170	1.139	1.201	1.064	1.066	0.811	0.771	0.703	0.717	0.760	0.742	0.834	0.844	0.775	0.818	0.953	0.718	0.626	0.627	0.593	0.542	0.430	0.459	0.383	0.518	0.737	1.331	2.316	2.921	2.176	1.218	1.247	1.666	2.836	6.516	16.80	38.01	90.75	126.2	107.4	23.93	4.360	0.496	0.324	0.347
290.0	271.9	347.3	342.1	219.3	105.2	55.79	65.71	149.3	385.0	492.0	400.8	873.2	3019	9999.9	9999.9	3166	51.45	14.56	9.978	7.094	5.214	4.149	3.501	3.014	2.558	2.290	2.224	2.094	1.838	1.660	1.620	1.512	1.285	1.356	1.453	1.369	1.376	1.186	1.012	0.843	0.845	0.907	0.923	0.988	1.144	1.356	1.372	1.507	1.619	1.139	0.980	0.926	0.748	0.602	0.533	0.520	0.481	0.595	0.882	1.128	1.828	2.585	2.974	2.689	2.115	2.080	2.757	5.063	9.723	22.77	42.72	74.78	94.61	76.57	73.92	16.81	5.957
295.0	408.7	573.2	555.0	368.1	164.5	95.18	88.93	137.3	258.4	559.5	820.7	626.8	1008	2478	6890	9999.9	4739	61.04	15.10	10.16	6.714	5.176	4.223	3.734	3.389	2.742	2.476	2.394	2.181	2.040	1.866	1.606	1.583	1.514	1.571	1.552	1.508	1.470	1.166	1.170	1.061	1.305	1.228	1.339	1.620	1.715	1.881	2.309	2.099	1.594	1.474	1.349	0.893	0.777	0.714	0.627	0.629	0.845	0.939	0.963	1.246	1.649	2.244	3.599	4.456	3.859	2.672	3.035	3.969	6.678	10.85	17.87	22.76	31.14	86.69	142.0	124.2
300.0	491.8	691.8	694.5	442.9	210.7	114.6	115.5	159.6	246.9	453.1	937.4	860.3	646.7	792.5	1799	9999.9	9999.9	682.9	40.95	14.05	9.124	6.028	5.198	4.632	3.871	3.125	2.959	2.417	2.382	2.198	2.104	1.690	1.720	1.556	1.636	1.900	1.888	1.818	1.481	1.338	1.212	1.316	1.278	1.512	1.576	2.111	2.317	2.827	2.505	2.077	1.702	1.621	1.249	0.882	0.873	0.711	0.777	0.895	0.874	0.855	1.170	1.466	1.927	2.484	3.911	5.388	4.738	3.703	3.074	3.470	4.175	5.193	5.897	7.851	22.63	59.32	130.9
305.0	567.4	751.4	744.2	491.7	248.9	132.9	140.1	177.9	264.2	432.5	753.7	1106	720.5	452.4	519.6	2727	9999.9	9999.9	554.5	24.75	12.81	8.242	6.441	5.426	4.414	3.405	3.222	2.814	2.640	2.350	2.114	2.102	1.746	1.783	1.963	2.054	1.941	1.830	1.492	1.411	1.387	1.509	1.270	1.623	1.678	2.414	2.514	2.797	2.785	2.305	1.876	1.708	1.377	0.992	0.942	0.840	0.866	0.907	1.039	1.156	1.336	1.499	1.986	2.326	2.950	4.014	5.190	5.465	3.921	3.086	2.886	2.587	2.323	2.629	5.842	14.13	36.92
310.0	570.5	760.7	778.2	529.9	270.2	162.5	158.5	203.7	290.9	433.5	643.1	906.6	972.1	528.3	270.5	685.9	2963	9999.9	9999.9	2250	38.40	12.66	8.973	7.181	5.677	4.412	3.762	3.333	3.108	2.588	2.340	2.153	2.043	2.119	2.211	2.034	2.158	1.982	1.770	1.600	1.486	1.541	1.485	1.684	1.858	2.421	2.400	2.813	2.893	2.427	1.999	1.858	1.423	1.220	1.044	0.937	0.959	1.084	1.113	1.215	1.547	1.712	2.110	2.362	2.780	3.166	3.719	4.486	4.627	4.642	3.971	2.595	1.762	1.612	2.096	3.752	8.820
315.0	549.1	707.1	751.3	527.2	276.1	182.9	170.5	221.3	295.3	424.8	596.5	724.7	800.2	767.1	321.6	243.2	713.3	2315	7288	9999.9	3582	45.28	13.43	10.17	7.913	5.819	4.757	3.885	3.501	2.949	2.616	2.491	2.244	2.178	2.103	2.210	2.124	2.047	1.719	1.617	1.531	1.516	1.530	1.552	2.127	2.488	2.476	3.066	2.901	2.347	1.960	1.895	1.449	1.056	1.183	1.080	1.030	1.143	1.207	1.382	1.565	1.570	1.995	2.526	2.630	2.832	3.124	3.422	3.396	3.834	4.320	4.447	2.914	1.683	1.395	1.681	2.601
320.0	518.2	706.1	753.9	524.1	278.6	200.1	183.6	222.9	299.7	423.2	574.8	671.8	665.1	695.5	519.7	179.4	217.1	558.7	1833	9999.9	9999.9	2677	32.42	13.85	9.880	7.006	5.588	4.354	4.176	3.641	3.322	2.763	2.562	2.223	2.178	2.282	2.491	2.119	1.729	1.676	1.580	1.490	1.556	1.708	2.069	2.382	2.567	2.845	2.983	2.298	1.980	1.891	1.449	1.238	1.156	1.210	1.112	1.188	1.340	1.403	1.504	1.605	1.930	2.479	2.583	2.790	2.885	3.033	3.080	3.117	3.190	3.640	4.013	3.101	1.830	1.223	1.279
325.0	497.4	664.8	731.8	517.8	284.7	204.7	194.2	230.2	301.9	407.7	554.9	636.3	611.9	534.4	579.4	287.5	118.3	168.9	446.7	2756	9999.9	9999.9	437.2	23.00	13.37	8.725	6.575	5.470	4.394	4.046	3.594	2.989	2.653	2.350	2.524	2.301	2.170	2.171	1.660	1.694	1.565	1.369	1.732	1.760	1.918	2.280	2.418	2.751	2.763	2.088	1.849	1.888	1.538	1.327	1.266	1.229	1.198	1.209	1.356	1.396	1.522	1.626	1.972	2.354	2.559	2.881	2.830	2.873	2.859	2.833	2.755	2.768	3.193	3.403	3.359	1.891	1.091
330.0	478.2	624.2	699.7	504.0	299.8	218.8	203.0	233.2	295.3	392.6	527.8	603.1	580.2	453.1	406.0	394.5	200.7	98.16	139.3	649.8	2937	9999.9	9999.9	1841	34.82	12.48	9.953	7.051	5.602	4.807	4.111	3.453	3.038	2.713	2.502	2.418	2.310	2.193	1.719	1.747	1.638	1.467	1.818	1.812	1.981	2.299	2.332	2.683	2.626	2.169	1.845	1.770	1.659	1.409	1.443	1.306	1.352	1.287	1.406	1.555	1.555	1.726	1.955	2.337	2.454	2.703	2.619	2.908	2.821	2.794	2.732	2.506	2.404	2.297	2.647	2.590	2.401
335.0	434.3	598.1	653.0	481.4	304.2	233.3	214.6	238.6	282.8	373.9	487.9	559.2	545.6	427.1	328.8	271.3	334.6	178.2	81.82	181.9	687.3	2309	7533	9999.9	3166	40.00	13.81	9.905	7.500	6.125	4.856	3.983	3.185	3.252	2.647	2.401	2.287	2.230	1.980	1.761	1.761	1.707	1.697	1.962	1.955	2.286	2.169	2.721	2.665	2.024	1.909	1.774	1.708	1.547	1.502	1.326	1.404	1.398	1.350	1.525	1.597	1.834	2.033	2.206	2.258	2.691	2.592	2.442	2.651	2.745	2.433	2.234	2.118	1.976	1.743	1.661	2.034
340.0	414.7	568.3	613.7	473.4	310.8	242.1	221.2	230.9	271.6	350.3	458.1	518.4	515.4	415.2	306.5	208.3	260.9	297.0	92.24	83.63	190.0	547.3	1932	9999.9	9999.9	2451	30.94	12.62	9.401	7.405	5.702	4.966	3.580	3.249	3.021	2.565	2.462	2.091	2.130	1.789	1.681	1.692	1.843	1.704	1.871	2.297	2.295	2.569	2.413	1.874	1.922	1.706	1.699	1.606	1.352	1.525	1.426	1.423	1.366	1.454	1.610	1.723	1.803	1.972	2.363	2.402	2.492	2.438	2.496	2.688	2.300	2.215	2.000	1.762	1.523	1.301	1.550
345.0	374.4	511.9	575.9	442.9	318.2	250.6	217.7	234.1	271.0	339.6	427.8	484.3	482.4	391.3	300.3	194.7	180.0	287.0	208.4	78.43	83.91	157.8	464.2	2897	9999.9	9999.9	393.5	19.93	11.57	8.641	6.531	5.218	3.883	3.674	3.292	2.799	2.500	2.279	2.095	1.822	1.805	1.660	1.713	1.806	1.914	2.058	2.238	2.489	2.396	1.866	1.889	1.761	1.576	1.630	1.246	1.266	1.456	1.413	1.497	1.477	1.425	1.724	1.615	1.961	2.231	2.229	2.177	2.144	2.387	2.430	2.265	2.342	2.123	1.793	1.510	1.314	1.303
350.0	353.2	460.5	518.5	420.2	316.4	254.2	228.4	236.5	253.2	315.8	395.1	441.3	447.9	368.1	291.6	195.3	158.5	182.1	244.4	178.9	77.10	80.37	142.8	681.5	3158	9999.9	9999.9	1640	31.46	12.01	8.629	6.285	4.808	3.890	3.522	2.751	2.506	2.540	2.022	1.878	1.805	1.626	1.726	1.620	1.693	2.050	1.939	2.304	2.291	1.739	1.730	1.705	1.566	1.602	1.434	1.292	1.442	1.435	1.462	1.400	1.376	1.560	1.635	1.939	2.019	1.989	2.091	2.081	2.266	2.336	2.239	2.085	1.838	1.661	1.491	1.239	1.167
355.0	333.1	431.7	481.1	394.6	310.5	257.5	240.1	239.2	250.2	297.0	361.0	408.0	409.2	347.3	281.0	200.1	160.6	150.1	164.2	241.3	168.3	78.50	81.09	194.3	739.5	2331	8148	9999.9	2943	37.48	12.17	8.066	6.080	4.735	3.890	3.042	2.626	2.722	1.996	1.696	1.772	1.513	1.600	1.581	1.602	2.000	1.821	2.154	2.040	1.659	1.621	1.796	1.657	1.547	1.308	1.364	1.441	1.261	1.407	1.509	1.466	1.449	1.573	1.794	1.848	1.817	2.113	2.088	2.252	2.153	1.968	1.999	1.746	1.691	1.468	1.148	1.312
360.0	307.1	397.8	446.6	389.8	312.5	264.3	251.6	244.0	251.7	290.9	348.2	380.8	385.4	338.0	274.3	204.4	169.5	150.1	143.4	190.6	247.2	125.8	75.26	93.01	207.2	554.1	2128	9999.9	9999.9	2366	29.06	10.91	7.640	5.747	4.235	3.470	2.955	2.645	2.345	1.885	1.894	1.737	1.574	1.637	1.630	1.762	1.806	1.936	1.883	1.734	1.526	1.697	1.683	1.455	1.410	1.477	1.415	1.400	1.571	1.443	1.424	1.516	1.517	1.530	1.744	1.719	1.851	1.777	1.817	2.076	1.982	1.945	1.768	1.619	1.414	1.337	1.401
365.0	287.9	371.8	443.8	383.6	321.4	284.2	252.3	252.0	257.1	285.6	336.2	362.3	369.3	320.2	273.5	211.1	181.2	161.0	146.6	152.2	230.2	209.4	99.79	76.52	93.52	164.0	510.1	2989	9999.9	9999.9	374.5	19.01	9.634	7.054	5.145	4.003	3.355	2.901	2.626	2.038	1.921	1.806	1.728	1.606	1.524	1.853	1.762	1.889	1.924	1.509	1.556	1.735	1.693	1.626	1.531	1.505	1.421	1.410	1.531	1.589	1.568	1.465	1.507	1.446	1.852	1.802	1.909	1.703	1.867	1.842	1.941	1.873	1.644	1.782	1.416	1.359	1.359
370.0	283.1	362.3	411.4	372.1	328.3	296.1	271.0	261.0	262.8	290.5	323.6	351.2	349.3	312.9	269.9	221.1	195.8	178.2	163.8	154.5	174.6	224.3	188.3	106.0	80.25	85.55	153.0	702.2	3296	9999.9	9999.9	1509	27.51	10.01	7.010	5.179	3.981	3.355	2.773	2.418	2.047	1.826	1.899	1.637	1.743	1.831	1.772	1.968	1.901	1.606	1.493	1.624	1.712	1.639	1.568	1.544	1.653	1.413	1.486	1.564	1.614	1.434	1.601	1.593	1.762	1.755	1.740	1.832	1.981	1.875	1.910	1.728	1.677	1.576	1.433	1.457	1.415
375.0	282.0	355.8	402.1	374.6	335.5	300.8	288.1	279.1	280.4	283.8	319.8	339.3	333.9	301.7	266.5	226.5	211.5	195.5	183.8	171.2	165.4	178.8	225.8	187.4	99.75	79.04	83.62	195.4	766.7	2363	8611	9999.9	2555	32.69	9.855	6.973	5.021	4.116	3.207	2.658	2.262	2.150	1.948	1.687	1.867	1.883	1.619	2.090	2.101	1.661	1.577	1.922	1.847	1.654	1.627	1.536	1.604	1.544	1.567	1.411	1.690	1.560	1.743	1.796	1.724	1.778	1.796	1.707	1.770	1.925	1.972	1.715	1.765	1.547	1.655	1.523	1.610
380.0	266.9	340.7	385.9	365.2	331.7	321.8	298.5	289.6	282.4	294.6	313.5	326.5	323.7	297.5	267.8	228.3	219.8	209.4	196.6	184.8	171.7	167.7	192.7	237.1	142.5	87.82	74.21	88.02	207.6	557.7	2271	9999.9	9999.9	1989	24.18	9.049	6.678	5.064	3.620	2.904	2.329	2.286	2.030	1.792	1.859	2.162	1.867	1.973	1.962	1.733	1.542	1.999	1.899	1.687	1.641	1.595	1.729	1.696	1.746	1.530	1.705	1.536	1.514	1.819	1.579	1.695	1.832	1.642	1.596	1.708	1.685	1.743	1.663	1.567	1.584	1.525	1.560
385.0	259.4	335.8	388.6	373.1	345.8	325.5	310.3	295.2	288.0	300.9	315.0	321.1	317.0	295.9	269.6	238.0	227.9	217.7	207.2	197.6	184.4	172.1	170.1	214.9	205.9	113.8	81.37	71.00	89.31	158.4	537.5	3088	9999.9	9999.9	308.4	15.03	7.914	5.875	4.299	3.288	2.471	2.367	2.150	1.937	2.156	1.976	1.791	1.960	2.053	1.617	1.595	1.817	1.824	1.729	1.842	1.645	1.737	1.716	1.662	1.607	1.753	1.521	1.548	1.793	1.707	1.649	1.557	1.528	1.719	1.684	1.608	1.707	1.557	1.607	1.654	1.582	1.610
390.0	260.7	330.9	386.4	376.0	354.4	334.4	318.7	308.3	297.2	301.9	316.6	318.5	312.6	293.5	270.3	243.5	234.1	228.7	217.8	209.2	195.9	184.0	171.7	176.2	206.6	182.5	110.0	80.02	71.89	77.66	153.1	719.0	3117	9999.9	9999.9	1203	22.94	8.346	5.891	4.216	3.262	2.784	2.447	2.328	2.195	2.173	1.779	2.142	2.090	1.712	1.605	1.880	1.854	1.850	1.782	1.722	1.750	1.772	1.673	1.706	1.674	1.577	1.563	1.721	1.656	1.620	1.598	1.536	1.731	1.799	1.613	1.605	1.615	1.647	1.506	1.549	1.563
395.0	265.9	336.8	383.0	368.2	352.7	341.9	319.4	320.8	309.0	302.9	312.3	308.5	307.3	288.4	270.7	248.1	238.7	236.4	230.0	218.2	206.8	196.3	182.6	171.7	172.2	197.2	172.4	101.9	78.03	68.32	74.36	190.9	717.6	2338	7538	9999.9	2172	28.58	8.270	5.630	4.494	3.244	2.687	2.458	2.524	2.184	2.024	2.316	2.108	1.655	1.808	1.990	1.999	1.845	1.805	1.798	1.816	1.789	1.904	1.645	1.654	1.614	1.666	1.777	1.615	1.661	1.681	1.468	1.616	1.768	1.679	1.587	1.670	1.693	1.503	1.623	1.675
400.0	255.5	331.5	378.2	367.9	363.4	349.1	335.0	329.1	310.6	311.9	312.0	307.6	301.8	285.8	269.3	248.4	245.4	238.6	232.7	225.3	213.3	203.8	191.0	177.2	164.7	174.0	200.5	141.0	92.23	72.27	61.85	78.41	186.5	543.1	1963	9273	9999.9	1791	21.04	7.439	5.043	4.013	2.974	2.622	2.611	2.326	2.021	2.367	2.231	1.775	1.737	2.039	2.155	1.916	1.876	1.861	1.857	1.781	1.778	1.745	1.875	1.657	1.668	1.774	1.693	1.654	1.581	1.603	1.582	1.657	1.680	1.647	1.565	1.647	1.594	1.804	1.721
405.0	254.3	316.7	369.8	367.5	356.8	350.6	340.5	342.6	315.7	314.9	318.9	306.4	298.0	283.5	264.2	247.7	243.8	238.7	237.4	228.0	217.9	208.0	196.0	184.0	167.9	161.1	183.2	183.0	113.1	80.64	64.74	57.00	72.24	144.7	458.6	2627	9999.9	9999.9	280.3	13.70	6.307	4.755	3.367	2.901	2.678	2.689	2.022	2.231	2.091	1.778	1.874	1.977	2.033	1.911	1.951	1.868	1.906	1.848	1.846	1.789	1.844	1.667	1.621	1.760	1.736	1.568	1.558	1.590	1.902	1.618	1.453	1.381	1.569	1.696	1.482	1.463	1.748
410.0	258.3	319.1	358.8	368.3	355.5	357.5	346.2	334.0	326.6	320.4	318.3	307.7	291.9	280.3	261.0	245.7	243.6	238.9	232.9	229.2	219.9	211.2	200.1	190.1	175.3	160.1	158.1	176.1	163.2	106.3	75.75	59.94	52.35	59.33	124.2	605.2	2792	8913	9999.9	3269	21.46	6.298	4.395	3.549	3.041	2.888	2.249	2.390	2.146	1.995	1.804	1.995	2.129	1.963	2.005	1.909	1.807	1.991	1.845	1.769	1.843	1.798	1.762	1.789	1.788	1.705	1.640	1.482	1.689	1.659	1.569	1.577	1.518	1.600	1.546	1.699	1.645
