Sample:	'1
File name:	Default_20231010_083924.FD3
Run date:	'08:33:03, 10/10/2023
Operator:	dsjg
Comment:	'

Instrument
Model:	F-2700 FL Spectrophotometer
Serial number:	2198-001
ROM Version:	4J14000 07

Instrument parameters
Measurement type:	3-D scan
Data mode:	Fluorescence
EX  Start WL:	220.0 nm
EX  End WL:	600.0 nm
EX Sampling interval:	5.0 nm
EM  Start WL:	230.0 nm
EM  End WL:	650.0 nm
EM Sampling interval:	5.0 nm
Scan speed:	12000 nm/min
EX Slit:	5.0 nm
EM Slit:	5.0 nm
PMT Voltage:	700 V
Response:	Auto 
Corrected spectra:	Off
Contour interval:	50.000

Peak integration
Integration method:	Rectangular
Sensitivity:	1
Threshold:	1.000

Peaks
No.	ApexEX/EM(nm)	Height(Data)
1	225.0/640.0	16.94
2	230.0/380.0	344.9
3	230.0/390.0	351.2
4	230.0/505.0	74.76
5	235.0/260.0	192.5
6	235.0/515.0	68.29
7	240.0/265.0	190.8
8	240.0/530.0	54.99
9	245.0/270.0	176.8
10	245.0/540.0	49.04
11	250.0/555.0	44.31
12	255.0/565.0	49.92
13	260.0/575.0	67.34
14	265.0/585.0	83.75
15	270.0/300.0	 1216
16	270.0/595.0	82.91
17	305.0/345.0	270.3
18	310.0/350.0	235.3
19	315.0/355.0	221.8
20	320.0/360.0	219.3
21	325.0/370.0	195.1
22	330.0/375.0	180.1
23	335.0/380.0	178.8
24	350.0/400.0	108.8
25	355.0/405.0	93.84
26	360.0/410.0	73.17
27	365.0/415.0	67.16
28	370.0/425.0	61.28
29	375.0/430.0	47.04
30	380.0/435.0	43.40
31	385.0/300.0	4.068
32	385.0/445.0	39.81
33	390.0/450.0	30.69
34	395.0/455.0	27.52
35	400.0/465.0	25.28
36	405.0/470.0	19.17
37	410.0/475.0	16.44
38	415.0/485.0	15.40
39	420.0/490.0	12.30
40	425.0/495.0	10.65
41	430.0/505.0	9.710
42	435.0/510.0	7.665
43	440.0/520.0	7.007
44	445.0/525.0	6.163
45	450.0/530.0	5.032
46	455.0/540.0	4.723
47	460.0/545.0	3.908
48	470.0/560.0	2.655
49	475.0/565.0	2.032
50	545.0/300.0	6.807
51	550.0/305.0	6.099

Data points
	220.0	225.0	230.0	235.0	240.0	245.0	250.0	255.0	260.0	265.0	270.0	275.0	280.0	285.0	290.0	295.0	300.0	305.0	310.0	315.0	320.0	325.0	330.0	335.0	340.0	345.0	350.0	355.0	360.0	365.0	370.0	375.0	380.0	385.0	390.0	395.0	400.0	405.0	410.0	415.0	420.0	425.0	430.0	435.0	440.0	445.0	450.0	455.0	460.0	465.0	470.0	475.0	480.0	485.0	490.0	495.0	500.0	505.0	510.0	515.0	520.0	525.0	530.0	535.0	540.0	545.0	550.0	555.0	560.0	565.0	570.0	575.0	580.0	585.0	590.0	595.0	600.0
230.0	93.88	 1172	 1410	218.7	4.365	1.757	1.617	1.166	1.009	1.032	0.987	1.016	0.655	0.612	0.519	0.529	0.404	0.413	0.315	0.271	0.271	0.267	0.217	0.218	0.228	0.208	0.200	0.170	0.201	0.188	0.197	0.172	0.202	0.164	0.200	0.299	0.282	0.257	0.273	0.234	0.318	0.491	0.487	0.322	0.204	0.177	0.617	2.893	5.178	4.051	1.446	0.291	0.107	0.081	0.087	0.080	0.081	0.060	0.053	0.054	0.036	0.048	0.041	0.026	0.029	0.031	0.026	0.016	0.039	0.023	0.028	0.011	0.012	0.016	0.016	0.014	0.018
235.0	80.06	347.9	 1095	 1113	222.8	4.999	1.918	1.139	0.851	1.290	1.058	1.160	0.488	0.706	0.600	0.637	0.448	0.313	0.321	0.401	0.403	0.303	0.164	0.218	0.157	0.193	0.198	0.200	0.203	0.171	0.191	0.230	0.198	0.183	0.163	0.218	0.287	0.284	0.286	0.208	0.299	0.314	0.411	0.453	0.464	0.322	0.293	0.811	1.818	3.041	4.449	4.287	2.028	0.428	0.072	0.094	0.067	0.094	0.071	0.027	0.028	0.054	0.031	0.027	0.014	0.022	0.012	0.008	0.031	0.031	0.043	0.010	0.011	0.010	0.024	0.026	0.006
240.0	127.0	116.7	399.8	 1227	 1000	125.1	3.532	1.229	1.521	1.299	1.238	1.149	0.773	0.714	0.742	0.699	0.475	0.290	0.361	0.418	0.320	0.325	0.210	0.277	0.199	0.226	0.221	0.201	0.214	0.229	0.259	0.234	0.211	0.183	0.193	0.147	0.194	0.308	0.297	0.220	0.233	0.220	0.248	0.310	0.501	0.650	0.344	0.345	0.521	0.959	2.228	4.768	5.974	3.964	1.165	0.143	0.090	0.095	0.058	0.053	0.042	0.078	0.012	0.026	0.055	0.019	0.020	0.011	0.055	0.053	0.025	0.009	0.018	0.009	-0.005	0.015	-0.009
245.0	121.5	131.5	114.9	533.2	 1359	427.0	67.15	2.247	1.843	1.276	1.458	1.212	0.785	0.890	0.583	0.700	0.485	0.410	0.346	0.326	0.297	0.321	0.224	0.237	0.202	0.164	0.258	0.199	0.314	0.172	0.234	0.191	0.188	0.202	0.221	0.172	0.206	0.272	0.252	0.241	0.271	0.203	0.237	0.235	0.301	0.583	0.598	0.611	0.342	0.352	0.611	1.657	3.875	6.383	6.206	3.140	0.588	0.077	0.066	0.089	0.040	0.035	0.056	0.045	0.059	0.023	0.060	0.006	0.035	0.005	0.018	0.007	0.015	0.013	0.013	0.007	-0.001
250.0	50.99	141.3	133.7	155.3	537.0	 1060	846.1	140.3	7.461	2.066	1.510	1.515	1.118	0.933	0.764	0.731	0.474	0.500	0.428	0.445	0.343	0.291	0.238	0.255	0.247	0.183	0.230	0.232	0.235	0.210	0.179	0.185	0.209	0.203	0.165	0.126	0.191	0.184	0.189	0.242	0.237	0.212	0.226	0.229	0.213	0.326	0.362	0.548	0.616	0.562	0.433	0.531	1.030	2.117	3.757	5.235	5.975	4.943	2.410	0.649	0.091	0.054	0.059	0.053	0.065	0.047	0.040	0.028	0.040	0.030	0.009	0.001	0.033	0.009	0.017	0.006	0.011
255.0	16.52	47.04	142.3	166.4	144.7	334.9	 1076	 1323	192.1	7.104	2.197	1.989	1.464	0.915	0.833	0.683	0.669	0.549	0.505	0.412	0.381	0.250	0.292	0.336	0.208	0.203	0.233	0.278	0.232	0.221	0.208	0.190	0.169	0.217	0.166	0.173	0.165	0.141	0.185	0.170	0.227	0.261	0.248	0.236	0.230	0.226	0.230	0.287	0.336	0.520	0.800	0.850	0.529	0.644	0.939	1.366	2.425	5.528	8.780	7.698	3.477	0.559	0.102	0.079	0.064	0.041	0.048	0.051	0.029	0.021	0.023	0.040	0.016	-0.008	0.028	0.008	0.024
260.0	7.829	13.80	69.89	192.5	127.5	90.28	410.3	 1404	 1256	138.4	4.407	2.149	1.899	1.213	1.007	0.919	0.600	0.706	0.571	0.483	0.308	0.272	0.257	0.258	0.254	0.198	0.317	0.271	0.220	0.268	0.211	0.194	0.191	0.196	0.162	0.205	0.163	0.168	0.168	0.119	0.244	0.293	0.273	0.228	0.213	0.194	0.286	0.176	0.216	0.273	0.564	1.068	1.038	0.700	0.367	0.414	0.657	1.670	4.224	8.044	9.678	6.730	2.173	0.276	0.046	0.042	0.045	0.029	0.055	0.032	0.032	0.036	0.022	0.015	0.008	0.018	0.006
265.0	6.129	5.793	23.83	113.8	190.8	80.43	108.7	597.0	 1659	 1080	97.14	3.241	2.001	1.226	1.145	0.919	0.843	0.807	0.539	0.509	0.446	0.325	0.283	0.353	0.295	0.227	0.288	0.214	0.290	0.239	0.194	0.267	0.230	0.225	0.180	0.180	0.133	0.163	0.172	0.123	0.171	0.281	0.309	0.247	0.254	0.215	0.242	0.233	0.192	0.210	0.255	0.500	0.939	1.149	0.731	0.371	0.273	0.466	1.135	2.680	6.206	10.32	10.17	5.431	1.158	0.075	0.078	0.053	0.064	0.017	0.025	0.037	0.032	0.019	0.008	0.028	0.017
270.0	11.29	6.520	9.870	36.41	119.0	176.8	107.5	159.8	634.7	 1380	 1358	403.2	16.66	2.193	1.456	1.519	0.955	0.829	0.707	0.626	0.481	0.383	0.287	0.450	0.293	0.292	0.248	0.218	0.289	0.273	0.320	0.322	0.321	0.295	0.264	0.224	0.194	0.225	0.168	0.155	0.164	0.194	0.234	0.245	0.294	0.259	0.203	0.234	0.176	0.175	0.166	0.222	0.401	0.639	0.896	1.070	0.927	0.552	0.421	0.731	1.636	3.398	5.790	8.201	9.446	7.706	4.016	0.977	0.114	0.080	0.040	0.030	0.042	0.026	0.032	0.044	0.018
275.0	47.72	34.41	30.35	35.32	61.73	145.0	239.7	165.9	218.8	472.6	 1294	 1875	140.0	13.94	2.182	1.847	1.196	1.005	0.849	0.697	0.625	0.455	0.366	0.371	0.346	0.319	0.285	0.234	0.317	0.280	0.265	0.308	0.493	0.651	0.589	0.494	0.407	0.480	0.363	0.364	0.320	0.330	0.260	0.322	0.394	0.338	0.328	0.293	0.218	0.262	0.288	0.231	0.365	0.364	0.490	0.658	1.186	1.582	1.360	0.822	0.747	1.177	1.809	2.472	3.986	7.779	12.13	11.65	5.212	2.385	0.122	0.081	0.039	0.058	0.023	0.055	0.021
280.0	121.9	92.75	74.61	73.03	85.10	121.9	256.2	307.0	246.9	304.9	657.2	 1755	 1684	112.9	6.102	2.538	1.678	1.144	1.085	0.778	0.618	0.535	0.385	0.520	0.386	0.366	0.298	0.265	0.299	0.284	0.350	0.543	0.894	1.044	1.234	0.977	0.779	0.827	0.782	0.553	0.496	0.652	0.469	0.515	0.485	0.624	0.442	0.539	0.421	0.381	0.408	0.404	0.436	0.522	0.510	0.612	0.940	1.348	1.961	2.099	1.432	1.072	1.475	1.650	2.342	3.331	6.267	10.96	13.78	24.72	3.091	0.290	0.072	0.086	0.046	0.094	0.003
285.0	231.6	169.3	125.2	114.3	124.8	148.0	228.3	401.2	473.8	442.0	542.3	934.8	 1815	945.9	81.23	4.517	2.041	1.421	1.362	0.898	0.637	0.547	0.492	0.438	0.438	0.398	0.279	0.325	0.358	0.362	0.406	0.639	1.376	1.834	1.973	1.519	1.230	1.047	1.086	0.844	0.713	0.859	0.787	0.722	0.740	0.770	0.727	0.682	0.624	0.495	0.476	0.571	0.651	0.664	0.666	0.738	0.861	1.132	1.540	2.344	2.906	2.469	1.974	2.317	2.780	2.742	3.200	4.879	8.346	26.05	12.82	6.832	1.267	0.136	0.117	0.099	0.022
290.0	376.5	285.9	222.9	209.9	231.6	269.1	306.8	442.5	682.6	800.2	758.4	722.7	825.4	 1232	 1202	 1000	17.57	1.915	1.535	1.066	0.856	0.703	0.577	0.450	0.510	0.393	0.368	0.350	0.310	0.358	0.420	0.958	2.053	2.812	2.853	2.247	1.907	1.580	1.625	1.341	1.201	1.212	1.169	1.086	1.110	1.096	1.030	0.987	0.963	0.851	0.800	0.921	1.096	1.140	1.199	1.331	1.524	1.565	1.797	2.377	3.051	3.848	4.136	4.432	4.026	3.789	3.723	3.797	3.770	8.096	7.032	9.316	10.35	8.564	4.403	0.967	0.155
295.0	501.4	404.1	318.5	300.7	336.9	383.9	409.6	503.3	708.9	 1005	 1100	825.4	520.7	442.2	982.7	 3397	508.4	12.88	2.279	1.315	1.083	0.847	0.733	0.577	0.553	0.454	0.388	0.391	0.370	0.395	0.460	1.106	2.450	3.554	3.560	2.964	2.263	2.098	1.848	1.649	1.509	1.556	1.491	1.485	1.332	1.416	1.298	1.245	1.255	1.095	0.938	1.344	1.507	1.596	1.749	1.766	1.964	2.043	2.347	2.586	3.190	3.765	4.393	5.763	6.245	5.646	4.649	4.364	3.114	3.187	2.537	2.820	4.083	8.130	13.38	12.82	5.324
300.0	560.7	452.6	366.0	358.1	394.3	442.3	466.5	558.7	729.0	982.1	 1216	981.2	496.9	261.4	366.1	 2100	 2296	71.23	6.655	1.749	1.298	0.873	0.898	0.683	0.533	0.515	0.516	0.375	0.403	0.440	0.394	1.100	2.694	4.068	3.701	3.253	2.282	2.307	1.953	1.709	1.630	1.632	1.601	1.516	1.487	1.543	1.281	1.337	1.454	1.246	1.129	1.402	1.649	1.727	2.070	2.110	2.424	2.366	2.596	2.828	3.267	3.760	4.412	5.351	6.333	6.807	5.647	4.813	3.203	2.431	1.691	1.446	1.536	2.640	6.147	12.22	15.50
305.0	580.2	464.9	375.3	385.4	431.8	474.0	507.2	578.2	727.1	922.0	 1124	 1088	563.5	246.6	171.0	673.1	 1917	 1903	61.26	3.127	1.505	1.176	0.881	0.863	0.736	0.601	0.523	0.448	0.541	0.398	0.459	1.064	2.636	3.797	3.653	3.237	2.422	2.204	1.997	1.697	1.678	1.545	1.470	1.515	1.543	1.599	1.374	1.373	1.284	1.286	1.240	1.424	1.633	1.900	2.113	2.282	2.538	2.646	2.686	3.171	3.514	3.865	4.422	4.802	5.576	6.012	6.099	5.960	4.032	2.378	1.725	1.302	1.055	1.196	1.809	4.052	8.822
310.0	536.6	424.6	365.3	369.3	417.9	473.7	498.1	569.9	691.2	833.2	951.8	958.8	701.5	331.5	154.4	210.2	589.9	 1427	 1920	250.9	13.90	1.596	1.186	1.045	0.815	0.705	0.621	0.544	0.456	0.376	0.472	0.929	2.161	3.173	3.252	2.798	2.338	1.961	1.746	1.533	1.564	1.472	1.429	1.445	1.546	1.420	1.305	1.314	1.145	1.193	1.194	1.553	1.673	1.918	2.117	2.214	2.466	2.495	2.713	3.055	3.366	3.595	3.984	4.337	4.909	4.840	4.906	5.270	4.600	3.557	2.406	1.551	1.100	0.901	0.938	1.326	2.431
315.0	491.1	384.4	346.6	337.6	392.4	442.5	473.6	544.1	638.6	756.8	833.2	787.3	643.9	495.7	227.1	126.8	177.0	366.7	984.2	 1711	391.6	12.31	1.611	1.256	0.939	0.922	0.702	0.749	0.456	0.417	0.514	0.851	1.654	2.635	2.716	2.360	1.809	1.769	1.576	1.389	1.296	1.250	1.259	1.398	1.415	1.379	1.216	1.209	1.179	1.151	1.104	1.359	1.763	1.844	2.016	2.256	2.430	2.329	2.528	2.674	3.145	3.498	3.762	3.941	4.146	4.264	4.230	4.063	3.641	3.408	3.338	2.627	1.708	1.122	0.834	0.822	0.934
320.0	482.8	387.9	329.9	319.7	365.3	411.9	445.9	509.4	606.5	707.5	778.5	720.5	569.0	507.3	361.6	144.9	101.5	118.8	289.6	 1132	 1681	289.9	5.316	1.570	1.229	0.928	0.695	0.710	0.485	0.642	0.521	0.856	1.498	2.206	2.280	2.108	1.616	1.508	1.391	1.283	1.219	1.211	1.377	1.365	1.383	1.416	1.211	1.280	1.159	0.996	1.096	1.195	1.597	1.701	1.894	2.018	2.101	2.181	2.335	2.620	2.872	3.233	3.446	3.717	3.904	4.036	4.014	3.736	3.304	3.044	3.064	3.132	2.806	1.866	1.012	0.860	0.727
325.0	482.6	404.3	323.4	301.3	334.2	389.9	414.5	486.0	578.0	669.7	733.5	689.6	537.2	436.1	421.1	233.9	102.8	75.41	96.32	368.9	 1310	 1530	48.63	2.650	1.392	1.057	0.741	0.736	0.719	0.676	0.646	0.823	1.343	1.907	2.105	1.679	1.444	1.448	1.261	1.203	1.144	1.143	1.150	1.304	1.238	1.438	1.310	1.292	1.062	0.972	1.033	1.200	1.409	1.544	1.670	1.982	2.018	2.181	2.358	2.548	2.887	3.056	3.392	3.473	3.572	3.775	3.639	3.717	3.293	2.950	2.529	2.426	2.952	2.684	1.693	0.981	0.822
330.0	470.0	410.9	313.6	286.1	304.0	356.0	387.2	454.5	546.6	630.2	682.7	647.0	522.1	403.8	353.6	324.8	194.6	87.74	66.99	113.4	388.1	 1076	 1356	207.9	13.77	1.593	1.065	0.817	0.817	0.706	0.622	0.831	1.162	1.664	1.773	1.386	1.292	1.255	1.082	1.115	0.973	1.059	1.008	1.166	1.246	1.412	1.221	1.260	1.111	1.004	1.022	1.191	1.335	1.392	1.571	1.759	1.879	2.042	2.173	2.372	2.674	2.755	3.189	3.378	3.386	3.564	3.393	3.426	3.011	2.810	2.540	2.210	2.248	2.145	2.171	2.078	1.638
335.0	471.9	422.6	324.9	280.8	287.8	331.7	361.8	433.1	514.2	582.3	641.2	626.5	522.9	414.5	326.1	280.2	298.8	166.9	76.29	69.74	117.3	271.3	714.7	 1607	340.9	14.62	1.678	1.230	1.049	0.804	0.765	0.819	0.972	1.334	1.397	1.235	1.080	1.099	1.025	0.930	0.941	1.070	0.981	1.013	1.377	1.312	1.358	1.390	1.135	1.018	0.905	1.146	1.169	1.363	1.499	1.708	1.884	2.078	2.147	2.302	2.464	2.527	2.970	3.413	3.279	3.197	3.327	3.335	3.002	2.850	2.534	2.258	1.981	1.886	1.762	1.939	2.217
340.0	446.5	428.4	329.2	284.8	282.9	320.5	349.7	408.4	487.5	551.8	604.3	598.4	519.5	423.0	329.6	259.7	266.6	260.9	117.5	69.52	64.33	87.45	203.3	988.5	 1650	269.6	5.206	1.477	1.090	0.928	0.718	0.912	0.954	1.153	1.325	1.185	0.981	1.049	0.960	0.767	0.893	0.866	0.934	0.944	1.313	1.263	1.183	1.308	1.275	1.074	0.964	1.205	1.180	1.396	1.444	1.612	1.756	1.853	1.994	2.299	2.363	2.481	2.856	3.039	3.045	3.249	2.990	3.277	2.977	2.734	2.524	2.300	2.048	1.895	1.806	1.623	1.656
345.0	424.0	419.4	331.3	287.3	277.7	307.2	342.0	390.2	453.7	519.3	567.8	566.7	507.4	423.8	337.0	258.5	226.7	270.3	202.9	87.57	61.59	53.29	68.28	297.3	 1277	 1463	43.19	2.736	1.301	1.152	0.881	0.881	0.897	1.166	1.283	1.070	0.920	1.071	0.825	0.841	0.754	0.798	0.925	0.899	1.218	1.174	1.196	1.284	1.127	1.013	0.970	1.247	1.198	1.263	1.436	1.429	1.648	1.810	2.072	2.268	2.247	2.443	2.510	2.919	3.010	3.049	2.754	3.016	3.013	2.636	2.462	2.574	2.098	2.017	1.689	1.631	1.597
350.0	399.4	388.8	330.8	289.7	274.5	299.0	324.3	367.8	416.8	481.1	527.9	532.0	483.0	418.0	342.1	270.2	219.1	210.4	235.3	173.5	85.87	57.52	48.13	89.43	362.8	 1028	 1260	472.3	13.82	1.499	1.017	0.928	1.048	1.116	1.118	1.083	0.946	0.919	0.812	0.858	0.715	0.771	0.813	0.860	1.085	1.054	1.110	1.229	1.169	1.080	0.951	1.169	1.218	1.245	1.341	1.361	1.616	1.618	1.939	2.126	2.041	2.421	2.405	2.530	2.635	2.689	2.670	2.890	2.839	2.525	2.580	2.341	2.208	2.058	1.827	1.666	1.460
355.0	347.9	374.6	331.4	295.7	270.1	282.4	301.9	337.5	380.3	431.0	480.7	486.7	459.2	405.6	342.9	282.0	230.7	200.2	191.4	221.8	164.1	77.69	55.08	51.93	101.6	252.0	643.2	 1570	328.0	15.72	1.443	1.076	1.113	1.113	1.075	1.065	0.889	0.901	0.837	0.772	0.672	0.770	0.752	0.889	0.934	1.002	1.096	1.082	1.123	1.079	1.020	1.227	1.192	1.116	1.308	1.419	1.517	1.475	1.766	1.955	1.990	1.935	2.318	2.510	2.502	2.437	2.644	2.677	2.485	2.334	2.460	2.289	2.244	2.098	1.945	1.775	1.602
360.0	336.9	355.5	329.3	303.7	268.5	275.3	290.2	316.4	355.9	404.0	450.5	461.3	438.1	397.4	346.9	290.8	244.0	210.8	186.3	193.1	219.3	121.6	66.07	50.79	49.22	74.45	175.1	926.0	 1610	267.4	5.210	1.290	1.186	1.145	1.051	0.885	0.819	0.887	0.909	0.779	0.641	0.714	0.724	0.876	0.945	0.934	1.069	1.078	1.155	1.007	1.044	1.197	1.162	1.162	1.280	1.356	1.459	1.529	1.593	1.907	1.897	1.946	2.241	2.264	2.181	2.437	2.472	2.416	2.273	2.287	2.344	2.349	2.320	1.983	2.020	1.844	1.711
365.0	333.3	354.2	329.7	306.9	268.5	270.0	280.0	301.0	328.7	376.9	420.7	433.4	426.1	387.3	345.5	295.5	256.9	224.7	195.2	179.1	208.3	186.7	89.09	56.58	43.10	39.26	54.80	266.6	 1253	 1547	41.88	2.700	1.324	1.304	1.115	0.907	0.982	0.993	0.861	0.749	0.687	0.654	0.761	0.917	0.896	0.907	1.095	1.079	1.152	1.089	1.045	1.134	1.144	1.207	1.248	1.411	1.386	1.564	1.528	1.663	1.729	1.883	1.961	2.008	2.111	2.290	2.162	2.387	2.338	2.146	2.175	2.400	2.133	2.174	2.018	1.695	1.913
370.0	324.0	346.8	338.6	317.4	275.3	271.1	270.7	281.4	309.5	348.5	387.0	404.8	403.3	377.1	345.2	306.4	272.6	245.1	220.1	191.5	180.0	195.1	160.5	84.49	50.76	38.99	33.10	73.30	349.6	 1124	 1267	437.3	11.44	1.545	1.346	1.011	1.012	1.036	0.814	0.787	0.787	0.812	0.786	0.810	0.820	0.946	0.992	1.066	1.120	1.060	1.169	1.245	1.230	1.263	1.255	1.327	1.334	1.494	1.482	1.438	1.548	1.649	1.775	1.983	2.008	2.124	2.148	2.275	2.218	2.176	2.148	2.136	2.187	2.214	2.074	1.948	2.009
375.0	329.2	346.9	342.4	325.4	284.3	267.8	264.6	263.0	287.6	314.6	352.2	368.5	376.0	362.7	345.1	315.8	290.8	268.1	246.1	216.1	187.9	166.7	180.1	152.8	72.14	45.74	33.38	33.60	88.84	266.6	671.1	 1529	283.1	12.50	1.552	1.256	1.102	0.994	0.935	0.839	0.903	0.790	0.855	0.876	0.888	0.987	1.065	1.102	1.122	1.098	1.141	1.436	1.227	1.350	1.426	1.366	1.334	1.372	1.429	1.265	1.402	1.572	1.587	1.817	1.920	1.911	1.980	2.194	1.923	2.067	2.066	2.142	2.117	2.155	2.274	1.895	2.177
380.0	330.9	339.9	344.9	331.6	292.5	273.1	261.0	255.9	263.9	292.4	328.2	352.3	361.8	354.7	340.7	318.6	302.6	282.1	260.2	233.7	197.2	166.6	155.5	178.8	112.3	54.09	37.35	27.09	32.54	68.46	175.6	934.6	 1459	220.1	4.233	1.464	1.232	1.155	0.890	0.908	0.795	0.893	0.977	0.896	0.911	0.938	0.994	1.036	1.188	1.113	1.236	1.406	1.371	1.386	1.387	1.389	1.301	1.354	1.457	1.239	1.414	1.385	1.365	1.651	1.722	1.663	1.936	1.956	1.983	1.999	1.897	2.034	2.051	2.239	2.175	2.189	2.122
385.0	347.0	343.0	342.9	334.3	300.4	280.8	252.1	243.4	248.5	273.8	307.0	333.8	343.4	343.8	335.5	319.6	305.6	289.2	266.8	241.4	207.1	170.1	145.0	156.2	151.1	74.21	41.07	27.95	21.69	24.93	46.68	267.5	 1189	 1204	34.02	1.927	1.317	1.209	0.988	0.949	0.896	1.013	0.923	0.820	1.037	0.937	0.969	0.969	1.190	1.161	1.170	1.338	1.343	1.374	1.386	1.444	1.498	1.327	1.265	1.414	1.353	1.339	1.311	1.553	1.487	1.676	1.798	1.803	1.904	2.061	1.900	2.098	2.062	2.195	2.233	2.075	1.975
390.0	344.9	343.3	351.2	345.5	307.1	274.9	246.9	229.6	230.6	250.7	281.4	307.4	321.0	328.6	321.6	311.8	305.5	289.6	271.7	248.9	211.5	176.1	144.9	126.7	135.7	117.7	60.24	32.15	21.31	17.24	18.77	65.86	330.5	899.4	 1023	140.2	9.514	1.487	1.200	1.092	0.985	1.007	1.006	0.927	1.001	1.000	0.917	1.064	1.109	1.133	1.243	1.427	1.463	1.462	1.342	1.351	1.391	1.298	1.190	1.258	1.217	1.206	1.221	1.440	1.457	1.591	1.564	1.654	1.783	1.908	1.866	2.005	1.968	2.091	2.139	2.067	2.159
395.0	340.0	335.8	335.0	340.4	306.1	267.5	238.1	209.5	209.0	224.7	253.2	280.1	294.5	304.5	303.8	297.4	295.9	283.6	268.5	246.6	212.3	178.5	145.7	118.9	103.8	111.6	102.0	44.74	24.12	17.68	13.87	21.57	78.81	211.6	571.8	 1189	230.1	9.462	1.553	1.261	1.026	1.109	1.021	0.956	0.902	0.949	0.991	1.097	1.086	1.033	1.264	1.453	1.387	1.467	1.320	1.419	1.451	1.210	1.201	1.093	1.058	1.113	1.122	1.235	1.315	1.343	1.365	1.555	1.650	1.770	1.721	1.939	1.833	1.949	2.014	2.001	2.134
400.0	326.5	319.7	326.5	324.0	300.9	260.6	228.5	202.2	192.4	211.1	231.9	255.4	275.7	286.5	288.1	284.5	281.8	274.9	258.4	240.0	208.2	176.7	143.5	117.0	93.27	87.92	108.8	72.77	29.29	18.59	14.10	12.81	23.41	51.60	148.8	774.5	 1145	181.5	3.237	1.439	1.045	1.174	0.999	0.981	1.032	0.981	1.038	1.090	1.150	1.033	1.128	1.456	1.321	1.416	1.254	1.342	1.431	1.210	1.140	1.000	0.964	1.125	1.016	1.159	1.147	1.269	1.249	1.253	1.502	1.577	1.743	1.803	1.800	1.826	1.910	2.026	1.999
405.0	319.5	319.2	315.7	311.8	285.4	260.0	217.4	189.2	180.4	194.1	215.5	238.4	252.9	268.8	270.9	270.9	266.5	262.7	250.4	230.0	203.8	170.6	140.5	114.5	90.12	74.50	84.60	93.84	44.76	20.52	15.10	11.37	11.61	16.15	37.28	222.1	938.0	977.3	28.99	1.863	1.154	1.205	0.968	0.948	0.973	1.025	1.003	1.086	1.095	0.993	1.081	1.255	1.330	1.350	1.414	1.348	1.197	1.194	1.126	1.090	0.909	1.081	1.035	1.065	0.993	1.161	1.355	1.204	1.296	1.472	1.638	1.706	1.760	1.685	1.880	1.806	1.852
410.0	285.2	291.6	295.6	294.0	268.1	245.9	208.4	174.0	164.8	174.8	192.6	212.5	227.3	242.2	244.8	246.8	247.5	240.3	231.9	215.5	187.4	159.8	132.9	107.3	85.76	68.15	60.70	72.26	73.17	35.57	17.50	12.17	9.955	9.240	12.72	53.40	260.7	760.2	825.8	127.9	7.341	1.287	1.080	1.019	0.968	1.042	0.946	1.070	1.010	1.000	1.060	1.276	1.277	1.253	1.255	1.208	1.165	1.080	1.032	0.988	0.850	0.892	0.949	0.879	0.938	1.125	1.051	1.180	1.225	1.341	1.406	1.525	1.574	1.594	1.518	1.739	1.758
