Sample:	'1
File name:	L2025090902ÌìÄþËÂ¶«Â·ÇÅ.FD3
Run date:	'17:54:13, 09/09/2025
Operator:	Administrator
Comment:	'

Instrument
Model:	F-2700 FL Spectrophotometer
Serial number:	3064-004
ROM Version:	4J14000 07

Instrument parameters
Measurement type:	3-D scan
Data mode:	Fluorescence
EX  Start WL:	220.0 nm
EX  End WL:	600.0 nm
EX Sampling interval:	5.0 nm
EM  Start WL:	230.0 nm
EM  End WL:	650.0 nm
EM Sampling interval:	5.0 nm
Scan speed:	12000 nm/min
EX Slit:	5.0 nm
EM Slit:	5.0 nm
PMT Voltage:	700 V
Response:	Auto 
Corrected spectra:	Off
Contour interval:	50.000

Peak integration
Integration method:	Rectangular
Sensitivity:	1
Threshold:	1.000

Peaks
No.	ApexEX/EM(nm)	Height(Data)
1	225.0/595.0	27.24
2	225.0/620.0	21.42
3	225.0/630.0	20.52
4	225.0/640.0	22.71
5	230.0/635.0	21.40
6	235.0/585.0	33.73
7	235.0/620.0	20.73
8	235.0/645.0	20.99
9	240.0/520.0	260.3
10	245.0/265.0	318.9
11	245.0/530.0	249.4
12	245.0/635.0	18.79
13	250.0/540.0	222.7
14	255.0/280.0	601.9
15	255.0/555.0	186.9
16	260.0/285.0	716.3
17	260.0/565.0	164.3
18	265.0/290.0	704.4
19	265.0/420.0	 1048
20	265.0/580.0	155.7
21	270.0/295.0	 1060
22	270.0/410.0	 1047
23	270.0/590.0	128.8
24	275.0/305.0	 1301
25	275.0/385.0	 1022
26	275.0/400.0	 1051
27	275.0/605.0	134.6
28	280.0/310.0	 1259
29	280.0/615.0	105.4
30	285.0/315.0	 1302
31	285.0/630.0	89.55
32	290.0/240.0	4.395
33	290.0/320.0	 1204
34	290.0/640.0	75.45
35	295.0/330.0	943.3
36	300.0/335.0	822.2
37	305.0/340.0	855.5
38	305.0/395.0	 1007
39	310.0/345.0	768.4
40	310.0/400.0	 1014
41	315.0/355.0	725.5
42	320.0/360.0	830.6
43	325.0/365.0	812.4
44	330.0/375.0	809.7
45	335.0/380.0	866.3
46	340.0/385.0	829.7
47	350.0/400.0	786.3
48	460.0/545.0	32.89
49	505.0/275.0	3.097
50	510.0/280.0	3.043
51	520.0/285.0	3.589
52	530.0/290.0	3.518
53	530.0/415.0	4.545
54	540.0/295.0	4.874
55	545.0/300.0	5.746
56	550.0/305.0	6.744
57	560.0/310.0	5.894
58	560.0/445.0	4.740
59	570.0/315.0	7.314
60	575.0/320.0	6.267
61	590.0/330.0	5.105

Data points
	220.0	225.0	230.0	235.0	240.0	245.0	250.0	255.0	260.0	265.0	270.0	275.0	280.0	285.0	290.0	295.0	300.0	305.0	310.0	315.0	320.0	325.0	330.0	335.0	340.0	345.0	350.0	355.0	360.0	365.0	370.0	375.0	380.0	385.0	390.0	395.0	400.0	405.0	410.0	415.0	420.0	425.0	430.0	435.0	440.0	445.0	450.0	455.0	460.0	465.0	470.0	475.0	480.0	485.0	490.0	495.0	500.0	505.0	510.0	515.0	520.0	525.0	530.0	535.0	540.0	545.0	550.0	555.0	560.0	565.0	570.0	575.0	580.0	585.0	590.0	595.0	600.0
230.0	23.76	604.1	 2622	 1309	76.70	7.612	6.904	5.002	4.256	3.553	4.135	4.446	3.303	3.324	3.582	2.762	2.746	1.903	1.875	1.423	1.822	1.310	1.600	1.201	1.146	0.987	0.909	1.053	0.845	0.888	0.692	0.772	0.507	0.737	0.789	0.610	0.650	0.618	0.577	0.596	0.612	0.704	0.635	0.404	0.431	0.470	1.543	5.712	8.385	6.286	2.332	0.653	0.363	0.352	0.312	0.273	0.263	0.264	0.245	0.322	0.195	0.220	0.258	0.291	0.160	0.139	0.280	0.120	0.122	0.269	0.179	0.090	0.198	0.116	0.234	0.161	0.140
235.0	48.19	159.2	 1127	 2695	 1054	123.5	8.508	7.095	4.539	3.820	6.089	3.471	4.646	2.863	3.020	3.211	2.442	1.966	2.192	1.558	1.266	1.528	1.603	0.772	1.219	1.025	0.841	0.994	0.946	0.744	0.524	0.881	0.750	1.014	0.645	0.805	0.621	0.687	0.702	0.509	0.754	0.533	0.497	0.606	0.513	0.467	0.668	1.847	3.430	5.997	7.827	7.170	3.791	0.770	0.355	0.292	0.326	0.255	0.301	0.280	0.193	0.334	0.021	0.140	0.341	0.224	0.263	0.118	0.127	0.370	0.143	0.208	0.438	0.134	0.070	0.059	0.234
240.0	45.10	94.54	295.2	 1563	 3315	903.3	61.20	7.167	6.588	5.726	6.160	3.186	3.746	3.318	4.395	2.862	2.022	2.659	2.204	1.527	1.755	1.125	1.453	1.181	1.554	1.374	0.901	1.213	1.149	0.631	0.641	0.600	0.606	0.726	0.419	0.425	0.593	0.712	0.901	0.533	0.451	0.549	0.501	0.692	0.544	1.079	0.576	0.913	1.171	1.937	4.958	9.279	11.94	7.594	2.173	0.689	0.240	0.462	0.181	0.191	0.293	0.341	0.107	0.170	0.330	0.285	0.228	0.076	0.205	0.153	0.219	0.050	0.173	0.230	0.125	0.088	0.272
245.0	20.64	99.88	117.7	431.0	 2377	 3855	726.8	26.78	9.029	6.167	6.101	3.383	3.846	3.958	3.124	2.790	2.452	2.368	2.741	1.983	1.679	1.351	0.988	0.834	1.200	1.166	1.232	1.330	1.139	0.866	0.830	0.625	0.718	0.697	0.452	0.470	0.375	0.548	0.626	0.512	0.669	0.498	0.709	0.729	0.533	1.030	0.629	0.710	0.648	0.800	1.416	3.534	8.717	14.30	13.54	6.200	1.396	0.437	0.241	0.297	0.137	0.364	0.323	0.048	0.317	0.293	0.263	0.117	0.165	0.221	0.096	0.024	0.077	0.295	0.214	0.237	0.137
250.0	13.76	57.51	147.3	188.7	642.7	 2354	 3917	 2221	191.1	9.775	8.031	5.325	5.739	3.616	3.180	3.563	3.285	2.649	2.860	2.176	1.865	1.471	1.297	1.676	1.270	1.232	1.237	1.174	1.164	0.955	0.978	0.890	0.803	0.680	0.623	0.472	0.574	0.428	0.552	0.590	0.578	0.638	0.465	0.634	0.454	0.622	0.599	0.877	0.988	0.847	0.784	1.176	2.544	4.996	8.835	12.85	14.99	12.19	6.259	1.724	0.307	0.195	0.259	0.140	0.337	0.192	0.287	0.335	0.064	0.379	0.262	0.213	0.222	0.222	0.235	0.103	0.128
255.0	5.906	20.53	74.21	224.5	267.1	563.2	 1815	 5689	 3560	243.5	9.919	8.672	5.532	4.716	4.155	3.856	3.184	1.867	2.312	1.998	1.902	1.829	1.731	1.581	1.913	1.576	1.199	1.447	0.740	1.022	0.888	1.112	0.857	0.625	0.465	0.576	0.554	0.443	0.592	0.544	0.699	0.658	0.572	0.581	0.385	0.445	0.577	0.485	0.743	0.990	1.125	1.234	0.954	1.304	2.362	3.531	6.822	15.88	26.32	22.10	9.415	1.513	0.279	0.110	0.388	0.256	0.130	0.301	0.069	0.298	0.284	0.251	0.123	0.140	0.263	0.174	0.255
260.0	3.434	15.19	27.39	145.9	313.0	210.6	466.4	 3020	 7369	 3018	124.4	10.45	7.893	7.399	5.037	4.717	3.246	2.744	2.303	2.187	2.303	2.209	2.099	1.591	1.707	1.612	1.194	1.029	1.152	0.973	0.863	0.961	0.753	0.789	0.583	0.656	0.532	0.402	0.462	0.487	0.577	0.472	0.515	0.530	0.395	0.619	0.518	0.355	0.538	0.717	0.938	1.265	1.345	0.898	0.727	1.232	1.848	4.679	13.11	26.97	32.82	22.09	6.341	0.482	0.478	0.292	0.101	0.284	0.164	0.153	0.205	0.122	0.099	0.152	0.118	0.027	0.225
265.0	8.847	12.52	20.25	53.60	260.2	318.9	151.0	821.0	 4605	 8685	 2340	48.60	10.04	8.276	6.297	5.249	3.919	3.117	2.365	2.191	1.919	1.818	1.930	1.990	1.936	1.985	1.500	0.950	1.344	0.747	0.802	0.926	0.786	1.045	0.886	0.713	0.559	0.498	0.699	0.608	0.554	0.508	0.561	0.631	0.310	0.539	0.406	0.469	0.558	0.431	0.571	1.006	1.272	1.824	1.331	0.794	0.884	1.366	3.427	9.139	22.12	38.66	36.75	17.33	2.953	0.293	0.244	0.228	0.184	0.174	0.313	0.281	0.330	0.143	0.096	0.274	0.065
270.0	13.45	19.80	18.76	24.24	94.75	286.3	351.5	269.0	 1208	 4632	 8880	 4761	159.5	11.88	8.424	6.242	5.056	3.706	3.179	2.649	2.111	2.171	1.832	1.619	1.611	1.699	1.307	1.477	1.416	1.014	0.962	0.825	0.941	0.922	0.827	0.918	0.508	0.458	0.651	0.522	0.498	0.572	0.444	0.471	0.527	0.546	0.601	0.376	0.523	0.455	0.599	0.611	0.705	1.134	1.574	1.904	1.749	1.074	1.204	2.415	5.854	12.40	22.59	33.33	38.37	29.91	14.74	3.157	0.421	0.324	0.325	0.283	0.157	0.242	0.111	0.267	0.241
275.0	26.89	27.25	24.63	26.39	37.43	97.82	377.2	497.1	341.2	 1090	 3426	9999.9	 3033	188.1	12.19	9.469	5.592	4.176	3.504	3.055	2.858	2.168	2.253	1.645	1.643	1.547	1.600	1.167	1.454	1.185	1.078	0.635	0.858	0.811	0.972	0.774	0.691	0.687	0.816	0.683	0.664	0.503	0.578	0.522	0.690	0.645	0.477	0.748	0.645	0.408	0.448	0.302	0.397	0.490	0.616	1.206	1.977	3.097	1.804	1.324	1.680	3.045	5.290	8.276	15.13	34.63	60.19	45.83	18.30	2.056	0.373	0.272	0.265	0.279	0.169	0.247	0.174
280.0	36.81	47.62	38.28	37.99	21.48	39.66	164.5	601.9	409.3	310.9	875.2	 4595	9999.9	 2463	105.3	11.85	6.460	5.341	4.601	3.434	3.260	3.057	2.428	2.042	1.727	1.944	1.813	1.317	1.341	1.191	1.618	1.032	1.045	1.048	0.668	1.059	0.800	0.719	0.908	0.652	0.854	0.519	0.534	0.466	0.650	0.658	0.609	0.620	0.725	0.453	0.515	0.433	0.294	0.319	0.449	0.687	1.153	2.263	3.043	2.782	1.429	1.108	1.702	2.175	3.962	9.619	27.20	56.49	70.95	39.96	9.354	0.703	0.334	0.235	0.325	0.293	0.232
285.0	48.08	81.10	64.23	50.96	37.36	36.77	68.58	330.7	716.3	292.9	291.9	 1217	 6167	9999.9	 1781	43.51	10.10	6.072	5.169	3.972	2.815	3.405	2.707	2.304	1.735	1.779	1.567	1.750	1.275	1.580	1.638	1.139	1.066	1.242	0.854	0.957	0.908	1.023	0.663	0.948	0.838	0.820	0.877	0.636	0.487	0.744	0.672	0.786	0.679	0.601	0.565	0.568	0.381	0.465	0.416	0.559	0.674	0.947	1.880	3.538	3.589	2.354	1.261	1.126	1.469	2.846	6.819	17.30	40.44	72.34	53.66	28.61	3.551	0.507	0.298	0.417	0.197
290.0	75.65	112.3	107.6	80.15	63.68	54.95	72.38	147.5	448.6	704.4	381.8	456.9	 1660	 5553	9999.9	 5776	97.49	10.77	8.518	4.751	3.869	3.266	2.692	2.340	2.046	1.797	1.911	1.450	1.083	1.472	1.133	1.219	1.283	1.108	0.986	1.008	0.949	0.958	1.007	0.876	0.944	0.904	0.937	0.756	0.804	0.871	0.921	0.904	0.965	0.720	0.790	0.913	0.559	0.601	0.494	0.646	0.591	0.718	0.916	1.645	2.746	3.259	3.518	2.488	1.510	1.469	2.556	4.737	10.30	21.25	33.91	53.29	54.47	47.58	18.85	3.865	0.429
295.0	102.0	147.2	160.0	139.2	87.06	88.94	91.48	125.3	232.2	518.7	 1060	492.7	636.4	 1453	 3309	9999.9	 8178	123.9	11.97	7.786	5.280	4.660	3.391	2.527	2.409	2.539	1.834	1.748	1.141	2.033	1.205	1.228	1.342	1.234	0.991	1.384	1.173	1.086	1.020	0.891	0.896	1.044	0.855	0.975	1.035	1.134	0.773	1.096	0.899	0.992	0.801	0.941	0.798	0.754	0.679	0.576	0.702	0.722	0.660	1.103	1.503	1.512	2.399	4.524	4.874	3.189	2.056	2.279	3.409	6.072	8.494	13.26	18.72	44.18	80.67	53.91	26.67
300.0	130.4	179.3	208.7	166.7	127.0	117.4	123.5	157.4	216.5	354.7	925.2	 1125	495.6	612.1	936.9	 3966	9999.9	 1457	81.01	9.176	7.684	5.517	3.320	3.219	2.475	2.309	2.072	2.010	2.038	1.454	1.370	1.456	1.516	1.184	1.353	1.212	1.203	1.031	1.168	1.021	1.091	1.035	0.977	0.867	1.006	1.163	1.026	1.180	1.029	0.983	0.852	0.948	0.788	0.720	0.853	0.626	0.807	0.961	0.979	1.157	1.392	1.382	1.517	2.701	4.864	5.746	4.608	2.463	2.338	2.584	3.228	4.162	5.037	11.41	30.25	66.09	91.29
305.0	150.0	196.1	235.9	200.1	158.9	140.0	154.2	187.2	240.8	336.6	610.5	 1301	925.8	497.7	455.9	 1071	 5268	9999.9	 1186	41.10	9.786	6.606	4.132	3.391	2.908	2.726	2.163	2.071	1.572	2.030	1.469	1.286	1.336	1.186	1.096	0.943	1.077	1.587	1.269	1.365	0.903	1.485	1.239	0.908	1.182	1.077	1.069	1.513	1.261	1.017	0.962	1.063	0.740	0.838	0.807	0.933	0.880	1.144	1.104	1.138	1.484	1.406	1.506	2.183	2.969	4.467	6.744	4.835	3.268	2.396	2.052	2.622	2.317	3.530	7.691	18.47	45.75
310.0	153.6	218.6	271.5	230.2	189.7	178.5	186.9	229.1	288.0	384.6	526.8	867.1	 1259	928.6	448.6	437.3	 1343	 4825	 8909	 4691	71.31	9.939	5.850	3.896	3.609	3.124	2.870	2.268	2.071	2.173	1.716	1.346	1.389	1.193	1.293	1.183	0.979	1.387	1.146	1.213	1.194	1.379	1.050	1.165	1.204	1.237	1.227	1.278	1.359	1.300	1.008	1.126	1.018	1.030	0.980	0.977	1.109	1.128	1.345	1.333	1.547	1.627	1.630	1.893	2.267	2.740	4.277	5.223	5.894	5.197	3.443	2.567	2.054	1.984	2.632	5.018	11.30
315.0	170.8	239.4	298.6	257.0	201.8	201.4	229.5	269.5	333.5	420.3	537.3	714.5	906.3	 1302	825.0	377.0	456.4	 1180	 2686	9999.9	 6610	95.06	8.826	6.023	4.227	3.777	3.058	2.653	2.232	1.876	1.690	1.179	1.573	1.491	1.212	1.033	0.947	1.493	1.442	1.272	1.035	1.281	1.104	1.255	1.321	1.485	1.337	1.266	1.338	1.221	1.115	1.395	1.062	1.246	1.237	0.991	1.059	1.277	1.407	1.413	1.779	2.025	1.843	2.136	2.392	2.587	3.120	3.302	4.350	4.897	7.314	5.175	2.425	2.284	1.675	2.243	3.336
320.0	178.9	264.3	359.9	316.9	232.4	214.1	258.3	289.8	356.3	451.5	571.4	716.8	799.4	 1035	 1204	538.1	299.7	391.4	689.5	 3601	9999.9	 4898	63.47	8.931	5.582	4.195	3.482	3.275	2.202	1.839	1.632	1.617	1.306	1.735	1.125	1.066	1.323	1.557	1.208	1.314	1.059	1.278	1.222	1.093	1.455	1.498	1.071	1.224	1.479	1.325	1.212	1.183	1.051	1.062	1.087	1.145	1.311	1.468	1.488	1.432	1.911	1.866	2.039	2.697	2.730	2.932	2.810	3.021	3.630	4.064	5.332	6.267	5.882	3.308	2.127	1.436	1.817
325.0	192.4	299.6	397.9	369.9	262.6	244.1	257.8	295.4	381.2	474.0	617.6	753.7	798.7	859.4	 1115	917.3	347.3	248.7	263.9	902.8	 4918	9999.9	899.4	33.80	7.611	5.631	4.029	2.947	2.634	1.841	1.884	1.458	1.768	1.611	1.134	0.992	1.157	1.603	1.425	1.202	1.326	1.497	1.452	1.112	1.237	1.613	1.523	1.696	1.610	1.698	1.519	1.554	1.361	1.179	1.266	1.299	1.256	1.591	1.723	1.482	1.910	2.004	2.218	2.257	2.676	3.211	3.024	3.129	3.942	3.999	3.717	4.478	5.731	5.448	3.708	2.381	1.498
330.0	201.2	323.6	441.3	436.8	312.8	278.9	300.9	347.8	411.9	513.2	664.0	782.5	843.9	849.0	848.3	943.3	721.0	321.7	217.4	310.9	 1217	 4481	 8355	 3685	58.00	8.697	5.410	3.953	3.281	2.292	1.921	1.958	1.806	1.942	1.470	1.188	1.433	1.458	1.252	1.244	1.421	1.477	1.443	1.264	1.588	1.660	1.674	2.121	1.658	1.778	1.632	1.532	1.275	1.367	1.171	1.439	1.495	1.470	1.665	1.911	1.917	1.970	2.369	2.298	3.068	3.345	3.312	3.440	3.601	3.804	3.555	3.968	4.032	4.063	5.105	4.840	3.412
335.0	216.7	358.6	481.1	485.8	369.8	324.6	344.4	388.3	449.9	538.0	695.7	814.6	862.3	879.6	814.2	722.5	822.2	682.8	295.1	231.5	388.0	 1085	 2567	 9046	 5438	76.42	8.531	5.676	4.067	3.136	2.344	2.079	2.154	1.708	1.317	1.584	1.392	1.308	1.517	1.226	1.195	1.700	1.455	1.521	1.516	1.698	2.070	2.006	1.973	1.526	1.823	1.534	1.445	1.526	1.311	1.594	1.893	1.647	1.575	1.747	1.865	2.306	2.502	2.414	3.065	3.226	3.058	3.296	3.527	3.967	3.727	3.755	3.535	3.362	3.757	4.019	4.838
340.0	211.5	347.2	488.5	514.9	419.1	386.4	361.3	423.6	480.0	563.1	707.3	813.1	880.1	901.7	819.4	700.2	674.5	855.5	497.2	260.8	237.9	356.0	665.2	 3515	9999.9	 4041	52.71	7.513	5.002	4.248	2.605	2.663	2.260	1.551	1.660	1.291	1.387	1.315	1.544	1.138	1.410	1.606	1.610	1.443	1.899	1.870	1.821	2.096	2.150	1.939	1.917	1.646	1.633	1.747	1.892	1.560	1.854	1.873	1.754	1.781	2.178	2.387	2.678	2.416	3.393	3.167	3.396	3.584	3.565	3.599	4.309	3.506	3.659	3.258	3.641	3.086	3.687
345.0	216.4	352.4	490.1	556.7	447.3	428.8	418.6	437.7	510.2	594.5	723.1	831.6	885.4	903.6	837.5	716.4	609.7	728.4	768.4	381.1	253.2	235.2	257.0	898.8	 5051	9999.9	741.2	31.30	6.566	5.053	3.831	2.585	2.292	1.993	1.777	1.526	1.319	1.127	1.483	1.702	1.583	1.721	1.612	1.510	1.840	1.734	1.813	2.010	2.353	2.258	1.903	2.230	1.738	1.637	1.993	1.805	1.811	2.022	1.921	1.988	2.150	2.319	2.739	2.702	3.343	3.126	3.624	3.655	3.497	3.912	4.390	3.684	4.247	3.479	3.513	3.356	3.547
350.0	211.7	343.2	494.2	577.5	516.2	501.6	475.3	502.4	554.2	638.2	748.6	841.1	895.1	916.1	873.3	772.4	654.7	627.5	734.8	689.9	406.8	283.3	236.4	334.1	 1272	 4586	 7438	 3097	50.07	7.339	4.705	3.524	2.574	2.406	2.066	1.718	1.368	1.493	1.492	1.569	1.498	1.427	1.346	1.645	1.570	1.885	1.973	1.854	2.348	2.081	2.137	2.157	1.995	2.010	1.942	1.794	2.029	2.187	2.143	2.208	2.154	2.437	2.790	2.661	3.160	3.182	3.510	3.555	3.790	4.129	4.192	3.841	4.029	3.928	3.535	3.545	3.492
355.0	207.8	348.1	498.1	572.3	577.7	554.3	577.8	569.8	610.5	669.6	782.1	855.8	922.5	944.8	895.4	823.1	722.7	673.1	649.2	725.5	715.6	416.5	309.3	279.9	426.6	 1129	 2503	 8228	 4579	67.73	8.123	5.270	3.403	2.916	2.143	2.029	1.465	1.473	1.483	1.494	1.362	1.628	1.399	1.543	1.566	1.801	1.724	1.692	2.087	1.939	1.981	2.103	2.213	2.441	2.270	2.158	2.358	2.175	2.182	2.546	2.579	2.686	2.989	3.281	3.462	3.384	3.567	3.541	4.085	4.252	4.276	4.098	4.091	3.872	3.398	4.062	3.294
360.0	198.2	350.5	510.6	601.7	607.1	629.6	634.9	635.0	681.4	710.1	819.7	875.7	938.1	951.8	931.4	858.3	790.2	729.7	678.9	667.9	830.6	624.7	393.9	318.9	285.7	388.9	664.9	 3494	 9403	 3327	45.17	6.307	4.601	3.426	2.617	2.188	1.701	1.741	1.306	1.554	1.305	1.523	1.675	1.581	1.636	1.400	1.709	2.235	2.054	2.316	2.104	2.304	2.211	2.573	2.173	2.432	2.597	2.349	3.055	2.679	2.720	2.811	3.490	3.174	3.144	4.274	3.523	3.782	4.009	4.096	3.853	4.058	3.849	4.325	4.130	4.589	4.209
365.0	208.3	346.7	504.0	608.9	655.3	675.3	682.5	686.2	722.3	764.7	848.0	919.2	951.5	987.6	951.9	895.4	841.5	790.3	748.5	692.5	761.7	812.4	532.3	381.6	310.4	265.0	275.2	906.9	 5064	 9017	653.0	26.02	6.257	4.016	2.989	1.956	2.160	1.708	1.357	1.526	1.534	1.573	1.910	1.495	1.848	2.114	1.796	2.618	2.447	2.199	2.034	2.319	2.353	2.567	2.380	2.371	2.448	2.565	2.838	2.830	2.703	3.138	3.379	3.447	3.577	3.511	3.708	3.759	3.783	4.064	4.294	4.245	4.723	3.960	4.235	4.890	4.169
370.0	210.9	347.3	521.3	624.3	682.6	730.6	760.8	765.1	788.9	828.3	891.0	942.4	961.9	 1001	977.8	939.3	893.4	852.4	820.4	767.4	741.7	794.0	784.9	547.8	391.0	311.3	246.7	333.8	 1290	 4431	 5911	 2675	41.64	6.556	3.592	2.937	2.340	2.104	1.836	1.671	1.629	1.743	1.636	1.805	2.047	1.801	1.946	2.223	2.265	2.140	2.195	2.629	2.493	2.666	2.856	2.864	3.148	2.952	3.072	2.889	2.968	3.285	3.397	3.651	3.564	3.684	3.987	3.765	4.140	4.474	4.055	4.480	4.556	4.423	4.297	4.984	4.859
375.0	229.0	345.9	537.2	669.0	721.1	775.4	803.0	818.6	858.2	878.3	922.8	971.2	988.0	 1013	 1000	967.9	926.3	906.0	898.7	837.4	796.3	766.7	809.7	795.1	532.0	392.2	300.0	262.7	414.8	 1078	 2317	 7770	 3826	52.38	5.845	3.773	2.814	2.502	2.114	1.936	1.666	1.897	1.845	1.939	1.904	1.646	1.678	2.035	2.163	2.150	2.310	2.492	2.973	2.728	3.059	3.030	3.272	2.947	3.247	2.752	3.276	3.588	3.451	3.772	3.860	4.134	3.810	4.259	4.302	4.409	4.428	4.325	4.450	4.499	4.957	5.067	5.069
380.0	239.8	386.5	527.0	641.5	746.7	790.6	846.0	854.9	893.7	907.0	960.0	994.7	997.0	 1014	 1010	989.5	950.3	947.9	935.4	901.1	846.9	795.4	778.0	866.3	700.2	474.6	363.5	284.8	256.2	357.2	610.9	 3585	 8602	 2607	32.34	5.284	3.869	2.733	2.362	2.138	1.652	1.756	1.791	1.735	1.454	2.061	2.129	1.916	2.375	2.377	2.253	2.788	2.802	2.925	2.707	3.537	3.187	3.097	3.761	3.574	3.473	3.250	3.796	3.413	3.943	4.160	4.196	4.140	4.154	4.526	4.803	3.906	4.447	4.465	4.940	5.402	5.833
385.0	235.6	388.8	524.4	669.5	778.7	807.1	871.4	906.2	921.3	924.5	982.2	 1022	 1010	 1016	 1020	993.9	962.8	975.5	956.4	936.7	886.2	841.2	794.6	810.7	829.7	598.6	427.3	336.7	257.2	223.7	238.6	920.6	 4998	 7718	504.4	15.98	4.904	3.115	2.769	2.390	1.803	1.810	2.389	1.580	1.673	2.167	1.891	2.203	2.046	2.414	2.516	3.066	2.705	2.942	3.088	2.983	3.213	3.912	3.516	3.244	3.781	3.800	3.722	3.866	3.996	3.884	4.343	3.882	4.053	4.275	4.351	4.308	4.873	4.559	5.015	5.289	5.316
390.0	236.6	377.0	537.3	680.7	781.5	860.9	907.1	915.5	937.3	957.9	 1009	 1021	 1016	 1023	 1019	 1010	979.3	998.6	984.6	964.1	929.0	878.7	839.9	807.1	801.3	766.5	559.1	409.1	321.3	248.7	196.0	303.4	 1277	 4149	 4806	 2015	32.23	5.307	3.312	3.003	2.134	1.983	2.169	1.763	1.862	2.064	1.916	2.393	2.350	2.430	2.283	3.109	2.915	3.256	3.258	3.417	3.416	3.718	3.600	3.766	3.959	3.924	4.121	4.109	4.164	3.891	4.411	4.159	4.340	4.331	4.339	4.424	4.780	4.979	5.056	5.356	5.455
395.0	247.1	385.6	561.9	674.4	814.1	859.3	936.0	936.8	992.7	997.2	 1022	 1017	 1021	 1024	 1023	 1015	983.5	 1007	999.8	985.9	949.6	911.7	880.4	831.2	776.8	777.2	746.6	529.2	400.6	310.4	233.1	202.8	379.8	990.2	 2006	 6137	 2783	42.06	4.660	3.749	2.818	2.087	2.273	2.043	2.064	2.287	2.149	2.252	2.326	2.209	2.208	2.665	3.009	3.133	3.220	3.581	3.601	3.404	3.800	3.927	3.480	3.599	3.663	3.812	3.965	4.035	4.129	4.111	4.478	4.446	4.204	4.721	4.971	5.238	4.542	5.203	5.226
400.0	241.1	357.8	532.4	715.2	834.2	862.7	966.4	961.9	999.3	 1033	 1050	 1051	 1036	 1032	 1013	 1012	990.4	 1001	 1014	 1000	968.8	935.5	900.6	851.3	803.7	748.3	786.3	653.6	466.8	363.0	276.7	213.8	203.8	299.4	519.9	 2986	 6169	501.4	25.57	4.381	3.445	2.603	2.344	1.678	2.082	2.258	2.063	2.054	2.330	2.327	2.417	2.880	2.905	3.441	3.189	3.211	3.371	3.474	3.697	4.153	3.968	3.490	3.963	3.701	3.526	4.417	3.939	4.323	3.986	4.569	4.513	5.023	4.947	4.952	4.965	5.135	4.837
405.0	233.6	359.6	542.0	674.6	814.3	878.6	957.8	978.8	 1006	 1036	 1037	 1050	 1021	 1018	 1005	 1002	983.2	999.9	998.9	993.0	973.7	940.0	907.0	863.7	817.6	756.9	741.4	742.8	567.0	411.9	316.8	238.6	190.3	165.1	180.9	768.9	 3760	 5162	410.1	12.10	4.251	3.017	2.464	2.445	2.204	2.179	2.189	2.454	2.414	2.456	2.553	3.107	3.079	3.290	3.585	3.182	3.517	3.623	3.914	3.927	3.984	3.747	4.516	4.112	3.976	4.246	4.101	4.019	4.034	4.782	4.666	4.810	4.541	5.135	5.128	4.931	5.055
410.0	239.0	362.1	532.1	668.1	810.9	892.3	962.8	995.7	 1018	 1043	 1047	 1034	 1015	 1006	998.4	969.8	956.1	974.9	978.1	975.3	959.5	928.3	913.4	885.1	837.5	774.7	728.3	717.6	678.3	519.8	377.9	288.9	224.2	168.1	127.2	230.6	958.2	 2932	 3815	 1521	27.04	4.959	3.275	2.755	2.125	2.339	2.436	2.300	2.388	2.306	2.312	2.963	3.045	3.195	3.369	3.280	3.652	3.803	3.939	3.802	3.951	3.871	4.105	4.146	4.252	4.104	4.237	4.237	4.236	4.459	4.396	4.402	4.728	4.790	4.676	4.904	5.256
