Sample:	'1
File name:	G2025080807袁家屋子南闸入杏花河.FD3
Run date:	'13:31:10, 08/11/2025
Operator:	Administrator
Comment:	'

Instrument
Model:	F-2700 FL Spectrophotometer
Serial number:	23B8-004
ROM Version:	4J14000 07

Instrument parameters
Measurement type:	3-D scan
Data mode:	Fluorescence
EX  Start WL:	220.0 nm
EX  End WL:	600.0 nm
EX Sampling interval:	5.0 nm
EM  Start WL:	230.0 nm
EM  End WL:	650.0 nm
EM Sampling interval:	5.0 nm
Scan speed:	12000 nm/min
EX Slit:	5.0 nm
EM Slit:	5.0 nm
PMT Voltage:	700 V
Response:	Auto 
Corrected spectra:	Off
Contour interval:	50.000

Peak integration
Integration method:	Rectangular
Sensitivity:	1
Threshold:	1.000

Peaks
No.	ApexEX/EM(nm)	Height(Data)
1	225.0/625.0	31.23
2	225.0/635.0	34.52
3	230.0/345.0	833.6
4	230.0/500.0	320.2
5	230.0/585.0	38.11
6	235.0/355.0	827.8
7	235.0/510.0	290.2
8	240.0/265.0	392.6
9	240.0/395.0	779.8
10	240.0/525.0	270.2
11	245.0/270.0	408.7
12	245.0/405.0	780.9
13	245.0/535.0	231.2
14	250.0/275.0	514.2
15	250.0/435.0	755.0
16	250.0/550.0	188.6
17	250.0/640.0	19.94
18	255.0/280.0	622.8
19	255.0/560.0	159.8
20	260.0/285.0	594.6
21	260.0/575.0	133.6
22	265.0/585.0	113.5
23	270.0/300.0	935.1
24	270.0/380.0	777.8
25	270.0/410.0	810.8
26	270.0/600.0	96.55
27	275.0/305.0	1033
28	275.0/610.0	79.66
29	280.0/310.0	890.5
30	280.0/340.0	853.8
31	280.0/625.0	67.66
32	285.0/320.0	960.3
33	285.0/635.0	54.25
34	290.0/325.0	962.8
35	295.0/330.0	838.3
36	300.0/335.0	879.8
37	305.0/345.0	800.7
38	315.0/355.0	611.2
39	320.0/365.0	531.6
40	325.0/370.0	488.3
41	330.0/375.0	488.1
42	335.0/380.0	487.3
43	340.0/390.0	464.3
44	345.0/395.0	455.8
45	350.0/405.0	475.0
46	355.0/410.0	471.3
47	495.0/270.0	2.146
48	505.0/275.0	2.958
49	510.0/280.0	3.295
50	520.0/285.0	3.752
51	530.0/290.0	3.219
52	540.0/295.0	4.310
53	545.0/300.0	4.366
54	555.0/305.0	4.323
55	560.0/310.0	4.155
56	575.0/315.0	4.352
57	580.0/320.0	4.794
58	585.0/325.0	4.751

Data points
	220.0	225.0	230.0	235.0	240.0	245.0	250.0	255.0	260.0	265.0	270.0	275.0	280.0	285.0	290.0	295.0	300.0	305.0	310.0	315.0	320.0	325.0	330.0	335.0	340.0	345.0	350.0	355.0	360.0	365.0	370.0	375.0	380.0	385.0	390.0	395.0	400.0	405.0	410.0	415.0	420.0	425.0	430.0	435.0	440.0	445.0	450.0	455.0	460.0	465.0	470.0	475.0	480.0	485.0	490.0	495.0	500.0	505.0	510.0	515.0	520.0	525.0	530.0	535.0	540.0	545.0	550.0	555.0	560.0	565.0	570.0	575.0	580.0	585.0	590.0	595.0	600.0
230.0	43.02	775.3	2732	1016	58.77	7.461	6.801	5.475	4.255	4.393	3.699	3.857	2.892	2.830	2.242	1.991	1.669	1.518	1.392	1.323	1.101	1.201	0.933	0.925	0.834	0.783	0.764	0.779	0.633	0.646	0.669	0.534	0.603	0.543	0.484	0.433	0.448	0.417	0.424	0.449	0.411	0.472	0.429	0.366	0.348	0.360	0.832	4.025	8.141	6.874	3.100	0.730	0.292	0.298	0.254	0.241	0.272	0.263	0.234	0.269	0.270	0.268	0.262	0.280	0.247	0.250	0.236	0.234	0.253	0.266	0.262	0.272	0.246	0.220	0.247	0.268	0.256
235.0	87.69	217.7	1459	3160	727.6	95.82	8.421	6.130	6.284	4.770	4.077	4.385	3.761	2.841	2.376	2.141	1.914	1.418	1.484	1.280	1.170	1.214	0.950	0.833	1.030	0.777	0.708	0.717	0.614	0.718	0.701	0.535	0.572	0.564	0.435	0.443	0.452	0.400	0.434	0.389	0.372	0.438	0.374	0.475	0.444	0.372	0.442	1.249	2.855	5.330	8.834	10.64	5.789	1.514	0.310	0.285	0.271	0.290	0.283	0.301	0.262	0.241	0.275	0.298	0.266	0.232	0.270	0.221	0.289	0.279	0.256	0.264	0.179	0.223	0.225	0.245	0.221
240.0	139.1	147.6	418.3	2265	3619	592.2	51.99	8.884	6.910	4.875	4.526	4.262	3.395	3.086	2.339	2.077	1.968	1.475	1.574	1.254	1.249	1.031	0.955	0.981	0.828	0.784	0.757	0.819	0.742	0.794	0.629	0.572	0.533	0.621	0.556	0.486	0.479	0.447	0.449	0.409	0.455	0.409	0.410	0.388	0.516	0.546	0.527	0.565	0.821	1.589	4.045	11.05	15.51	12.25	5.194	1.033	0.322	0.264	0.292	0.275	0.229	0.255	0.212	0.250	0.293	0.302	0.238	0.219	0.218	0.267	0.301	0.244	0.231	0.290	0.224	0.218	0.249
245.0	96.16	202.7	173.0	699.5	3293	3937	459.1	26.62	7.921	6.377	6.029	4.554	3.489	3.721	2.657	2.614	1.825	1.519	1.289	1.270	1.193	1.087	0.990	1.064	0.847	0.794	0.829	0.696	0.694	0.608	0.671	0.627	0.524	0.535	0.650	0.503	0.444	0.356	0.458	0.326	0.423	0.354	0.371	0.343	0.445	0.509	0.694	0.746	0.573	0.569	1.135	3.418	8.811	16.37	19.06	12.11	3.679	0.646	0.313	0.308	0.251	0.273	0.246	0.268	0.362	0.229	0.299	0.230	0.247	0.241	0.294	0.232	0.270	0.255	0.224	0.208	0.277
250.0	55.45	134.8	249.7	275.1	978.0	3139	4375	1614	111.7	8.684	6.362	5.068	4.091	3.977	2.936	2.471	2.250	1.714	1.487	1.472	1.158	1.144	1.095	0.932	0.894	0.858	0.868	0.857	0.807	0.679	0.642	0.742	0.563	0.525	0.599	0.493	0.481	0.419	0.436	0.448	0.469	0.342	0.349	0.340	0.405	0.424	0.462	0.735	0.929	0.882	0.752	1.107	2.271	4.895	9.331	15.36	20.23	19.58	12.06	4.161	0.753	0.318	0.301	0.283	0.279	0.276	0.277	0.254	0.251	0.256	0.261	0.239	0.270	0.235	0.257	0.256	0.282
255.0	47.95	53.35	160.6	350.4	347.4	767.9	2736	6692	2340	138.6	9.697	7.481	5.110	4.525	3.301	2.783	2.196	1.876	1.640	1.514	1.348	1.136	1.088	1.103	0.910	0.969	0.962	0.824	0.788	0.807	0.657	0.693	0.540	0.541	0.499	0.477	0.545	0.466	0.524	0.480	0.427	0.442	0.353	0.335	0.442	0.453	0.337	0.399	0.551	0.715	1.333	1.601	1.166	1.394	2.346	3.827	6.173	14.01	28.03	30.90	19.35	5.278	0.586	0.322	0.361	0.294	0.292	0.314	0.277	0.264	0.354	0.257	0.298	0.255	0.301	0.272	0.348
260.0	34.97	32.83	63.62	278.3	391.9	255.0	758.3	4527	7773	1850	73.46	9.552	6.891	4.799	4.062	3.280	2.992	1.965	1.985	1.624	1.427	1.152	1.080	1.149	0.968	0.870	0.981	0.915	0.782	0.733	0.620	0.680	0.609	0.551	0.632	0.462	0.538	0.504	0.417	0.465	0.431	0.501	0.436	0.340	0.391	0.391	0.422	0.393	0.350	0.400	0.742	1.604	2.040	1.358	0.899	1.103	1.714	3.699	10.12	23.15	36.55	30.54	16.24	2.916	0.479	0.346	0.285	0.264	0.282	0.330	0.361	0.246	0.267	0.268	0.229	0.326	0.404
265.0	41.09	27.82	34.76	114.2	392.6	319.0	222.8	1360	6618	8055	298.2	27.33	8.392	6.423	4.497	3.512	2.761	2.314	2.053	1.843	1.513	1.639	1.247	1.184	0.977	1.061	0.951	1.000	0.845	0.879	0.742	0.681	0.631	0.597	0.579	0.505	0.463	0.509	0.570	0.447	0.389	0.476	0.485	0.375	0.370	0.342	0.407	0.338	0.260	0.354	0.387	0.870	1.599	2.066	1.850	0.980	0.690	1.199	2.688	6.175	15.43	32.53	45.44	27.95	10.97	1.203	0.375	0.379	0.264	0.339	0.383	0.297	0.365	0.303	0.251	0.365	0.312
270.0	42.22	33.83	28.29	43.84	170.5	408.7	348.1	370.6	1916	6262	8545	2918	82.79	8.284	6.285	4.524	3.632	2.724	2.147	2.042	1.616	1.674	1.326	1.253	1.169	1.042	0.939	0.937	0.930	0.899	0.812	0.745	0.688	0.659	0.606	0.529	0.516	0.536	0.467	0.448	0.418	0.421	0.449	0.402	0.376	0.353	0.456	0.353	0.353	0.271	0.290	0.481	0.676	1.121	1.668	2.146	2.059	1.250	1.097	1.716	3.810	8.677	17.57	27.96	31.22	35.45	18.87	8.659	1.395	0.420	0.363	0.324	0.361	0.283	0.288	0.339	0.347
275.0	57.07	48.47	35.02	31.51	63.51	171.4	514.2	386.7	481.0	1503	4912	9999.9	1622	90.10	10.01	6.128	4.362	3.229	2.635	2.026	1.910	1.615	1.442	1.301	1.264	1.201	1.121	0.994	0.920	0.945	0.851	0.736	0.790	0.694	0.704	0.639	0.547	0.529	0.588	0.420	0.425	0.422	0.515	0.437	0.488	0.453	0.420	0.362	0.456	0.341	0.327	0.414	0.447	0.553	0.715	1.004	1.915	2.958	2.606	1.300	1.296	2.243	4.339	6.688	8.370	18.19	39.76	55.98	29.13	10.24	1.048	0.382	0.321	0.362	0.312	0.283	0.305
280.0	72.52	67.49	47.62	39.58	43.48	74.07	286.2	622.8	304.9	389.7	1323	7285	9999.9	1216	45.69	7.597	5.556	4.069	2.827	2.744	2.097	1.927	1.542	1.498	1.385	1.157	1.169	1.195	1.028	0.905	0.966	0.849	0.814	0.781	0.639	0.583	0.665	0.567	0.524	0.483	0.496	0.465	0.526	0.456	0.590	0.462	0.499	0.492	0.508	0.361	0.328	0.398	0.429	0.404	0.477	0.533	0.883	1.672	3.295	3.080	1.804	0.972	1.393	1.886	2.293	4.625	12.00	30.59	52.45	54.86	23.53	5.120	0.588	0.388	0.391	0.309	0.307
285.0	85.73	88.96	72.03	53.99	45.35	52.58	119.6	486.2	594.6	211.0	374.3	2136	9564	9472	795.5	19.13	7.026	5.348	3.195	2.906	2.389	1.929	1.757	1.837	1.471	1.249	1.302	1.105	0.998	0.942	0.822	0.811	0.855	0.822	0.759	0.631	0.649	0.693	0.672	0.532	0.447	0.500	0.503	0.430	0.574	0.573	0.482	0.524	0.599	0.428	0.382	0.506	0.376	0.400	0.413	0.400	0.528	0.735	1.572	2.579	3.752	2.243	1.109	0.908	0.965	1.458	3.209	7.748	17.76	39.78	59.25	33.76	16.45	2.160	0.445	0.370	0.377
290.0	124.0	137.5	119.7	83.44	62.91	57.15	80.45	197.2	543.2	540.9	265.6	603.2	2714	7605	8652	2319	46.21	7.258	4.909	3.628	2.676	2.193	1.948	1.763	1.474	1.508	1.405	1.207	1.002	1.008	0.947	0.861	0.940	0.939	0.775	0.777	0.783	0.678	0.616	0.522	0.572	0.569	0.614	0.479	0.538	0.594	0.562	0.590	0.644	0.546	0.503	0.512	0.428	0.447	0.527	0.505	0.558	0.603	0.784	1.125	2.007	2.736	3.219	2.665	1.528	1.017	1.386	2.364	4.653	9.976	19.34	29.22	42.10	39.59	22.24	11.66	2.254
295.0	163.9	181.4	179.8	124.5	84.82	77.73	88.95	125.9	252.8	622.7	728.5	351.6	764.1	1858	4913	9999.9	889.6	49.83	7.308	5.270	3.950	2.958	2.413	1.960	1.620	1.723	1.484	1.300	1.157	1.092	1.028	0.912	0.959	0.998	0.871	0.821	0.706	0.707	0.641	0.665	0.682	0.588	0.532	0.495	0.635	0.659	0.659	0.751	0.722	0.639	0.516	0.570	0.520	0.534	0.488	0.554	0.638	0.563	0.738	0.876	0.937	1.331	1.802	3.070	4.310	3.013	1.592	1.422	1.911	3.015	5.047	7.251	10.40	15.66	34.15	57.70	34.42
300.0	170.6	215.3	216.0	148.7	101.7	100.5	108.7	131.1	188.7	378.0	935.1	602.8	373.5	559.2	1333	6786	7292	696.8	24.25	6.457	4.469	3.433	2.491	2.135	2.083	1.749	1.368	1.282	1.351	1.142	1.100	1.089	0.873	0.893	0.806	0.804	0.632	0.833	0.647	0.711	0.696	0.725	0.520	0.534	0.608	0.747	0.723	0.840	0.901	0.706	0.621	0.718	0.667	0.589	0.596	0.556	0.673	0.616	0.682	0.776	0.836	0.966	1.291	1.942	3.076	4.366	3.774	2.133	1.479	1.635	2.087	2.460	3.081	4.192	9.439	25.77	48.34
305.0	180.8	250.6	246.4	174.5	124.3	123.1	136.1	160.9	212.7	307.4	682.7	1033	475.3	313.5	421.2	1951	7878	6171	97.15	12.00	6.060	4.016	3.335	2.378	2.182	1.831	1.697	1.551	1.391	1.030	1.215	1.111	0.940	0.935	0.921	0.844	0.741	0.839	0.637	0.759	0.626	0.698	0.602	0.647	0.699	0.746	0.799	0.907	0.949	0.699	0.666	0.788	0.687	0.699	0.649	0.633	0.644	0.802	0.857	0.909	0.941	1.049	1.239	1.697	1.947	2.735	4.029	4.323	2.984	1.839	1.603	1.537	1.673	1.853	2.645	6.466	14.91
310.0	222.5	289.2	295.6	212.2	157.6	142.6	162.0	200.0	258.7	333.1	490.1	818.7	890.5	447.0	272.0	543.4	2263	5964	6440	1698	31.40	6.123	4.182	3.259	2.669	2.118	1.958	1.753	1.403	1.259	1.193	1.154	0.986	0.953	0.947	0.911	0.789	0.813	0.672	0.741	0.722	0.685	0.714	0.767	0.812	0.785	0.878	1.021	1.010	0.863	0.842	0.893	0.794	0.825	0.741	0.781	0.877	0.947	1.125	1.035	1.182	1.220	1.427	1.672	1.765	2.144	2.607	3.406	4.155	3.892	3.174	1.882	1.557	1.533	1.459	2.133	4.038
315.0	267.4	331.9	354.2	254.6	209.4	195.9	205.6	246.3	298.2	382.3	486.0	609.4	818.6	885.7	403.0	308.5	650.4	1486	4141	8349	612.3	32.30	5.977	4.224	3.355	2.668	2.136	1.876	1.499	1.498	1.234	1.205	1.157	1.098	1.054	0.871	0.826	0.797	0.815	0.800	0.694	0.653	0.757	0.795	0.772	0.940	0.984	1.143	1.105	1.014	0.939	1.055	0.965	1.022	0.846	1.031	1.037	1.079	1.191	1.184	1.299	1.524	1.550	1.799	1.875	2.284	2.329	2.396	2.858	3.125	4.333	4.352	2.847	1.862	1.620	1.476	2.025
320.0	312.2	401.3	436.3	328.4	280.3	258.3	262.0	282.3	356.8	440.7	534.8	628.2	703.1	960.3	744.3	375.7	383.3	516.3	1194	5850	5072	486.8	15.32	5.501	3.711	3.084	2.299	2.006	1.979	1.556	1.322	1.206	1.100	1.054	1.116	0.864	0.939	0.783	0.756	0.796	0.717	0.849	0.747	0.947	0.856	1.002	1.129	1.316	1.344	1.148	1.184	1.220	1.100	1.127	1.102	1.177	1.214	1.164	1.247	1.419	1.454	1.784	1.852	1.966	2.193	2.471	2.341	2.511	2.873	2.716	3.465	4.241	4.794	3.837	2.395	1.858	2.005
325.0	335.6	461.4	521.1	430.5	342.1	315.4	299.7	326.7	396.4	496.9	591.3	666.7	703.7	793.6	962.8	575.3	391.6	346.2	433.8	1767	6271	4460	71.39	8.677	4.676	3.323	2.630	2.324	1.906	1.543	1.368	1.383	1.169	1.120	0.970	1.036	1.013	0.905	0.681	0.746	0.763	0.823	0.809	0.930	1.001	1.060	1.112	1.552	1.507	1.338	1.349	1.433	1.379	1.450	1.382	1.395	1.380	1.384	1.425	1.429	1.645	1.844	2.048	2.061	2.290	2.616	2.425	2.570	2.783	2.779	3.129	3.330	4.117	4.751	3.987	2.967	2.264
330.0	381.0	539.3	648.3	560.8	452.2	389.8	357.0	362.6	441.7	547.0	642.2	725.8	744.7	747.3	826.1	838.3	580.6	368.4	305.7	551.5	1872	4737	5029	1306	22.99	5.105	3.454	2.917	2.159	1.970	1.664	1.533	1.222	1.232	1.201	1.005	0.982	1.003	0.849	0.860	0.814	0.881	0.889	1.015	1.175	1.195	1.327	1.724	1.867	1.729	1.712	1.987	1.758	1.776	1.570	1.552	1.597	1.630	1.508	1.631	1.847	1.970	2.179	2.324	2.462	2.689	2.694	2.896	2.804	3.079	3.084	3.256	3.333	3.752	4.090	4.226	3.833
335.0	434.4	633.3	761.5	723.0	618.0	496.3	432.1	422.5	498.4	601.5	706.4	789.4	819.2	809.8	794.2	794.5	879.8	557.8	351.5	339.0	535.8	1165	3523	6764	484.2	25.13	5.401	3.847	2.704	2.564	1.864	1.719	1.365	1.421	1.077	1.040	0.974	1.137	0.992	0.819	0.879	0.868	1.021	1.081	1.295	1.243	1.601	1.931	2.070	1.856	2.155	2.248	2.068	2.056	1.940	1.927	1.950	1.877	1.885	1.839	2.124	2.316	2.384	2.544	2.473	3.112	3.000	3.155	3.199	3.181	3.497	3.538	3.490	3.983	3.504	3.653	4.438
340.0	446.5	675.3	820.4	785.4	684.0	559.4	475.6	447.8	536.7	631.6	739.1	824.4	853.8	841.5	804.6	738.5	840.7	762.4	420.6	313.0	260.5	338.7	982.9	4939	5800	401.8	12.26	5.019	3.530	2.827	2.221	1.784	1.715	1.383	1.198	1.162	1.147	1.050	0.843	0.924	0.851	0.926	1.016	0.990	1.275	1.428	1.732	2.148	2.221	2.168	2.235	2.630	2.369	2.474	2.249	2.036	2.022	1.905	1.890	1.894	2.253	2.340	2.435	2.651	2.744	3.152	2.997	3.350	3.309	3.422	3.428	3.548	3.498	3.584	3.476	3.230	3.834
345.0	485.4	650.8	833.6	815.8	707.2	579.4	496.0	478.2	559.7	641.3	754.5	821.7	846.1	842.2	789.5	709.9	713.9	800.7	559.6	332.1	218.4	172.5	297.5	1481	5689	3656	59.53	7.603	4.133	3.214	2.428	1.854	1.608	1.384	1.324	1.205	1.062	1.130	0.861	1.006	1.034	0.947	0.892	0.988	1.365	1.341	1.809	1.928	2.301	2.242	2.188	2.816	2.527	2.709	2.382	2.252	2.176	1.969	1.952	1.938	2.226	2.318	2.602	2.607	2.890	2.934	3.018	3.264	3.423	3.242	3.218	3.665	3.382	3.854	3.574	3.460	3.566
350.0	447.9	646.0	816.9	815.8	746.8	627.2	539.1	516.9	586.9	672.0	764.1	813.5	828.1	829.0	783.4	713.2	666.4	655.8	657.0	479.3	257.6	176.4	174.8	411.8	1672	3963	4147	1099	19.88	4.457	2.937	2.292	1.705	1.445	1.299	1.185	1.093	1.122	0.918	0.954	1.026	0.957	0.922	1.119	1.240	1.326	1.582	2.025	2.245	2.182	2.367	2.820	2.538	2.691	2.304	2.213	2.323	2.096	2.149	2.235	2.244	2.427	2.788	2.668	2.985	3.253	3.076	3.304	3.297	3.459	3.350	3.525	3.704	3.682	3.501	3.543	3.510
355.0	440.6	649.1	793.8	827.8	775.8	660.6	583.5	564.7	616.1	690.9	767.0	804.1	816.8	811.6	775.0	715.2	666.6	601.2	564.3	611.2	392.4	223.9	182.2	202.5	449.5	978.3	2877	5497	432.8	21.06	4.190	3.253	2.209	1.867	1.592	1.394	0.965	1.175	0.990	0.989	0.889	0.886	0.826	0.909	1.165	1.493	1.473	1.829	2.173	1.993	2.390	2.743	2.717	2.623	2.501	2.253	2.272	2.202	2.388	2.426	2.436	2.439	2.804	2.622	2.818	3.082	3.043	3.235	3.542	3.140	3.374	3.166	3.839	3.407	3.630	3.306	3.261
360.0	446.0	619.4	768.0	804.7	751.8	669.7	615.1	593.2	639.4	708.9	776.4	800.8	796.9	788.2	762.6	708.5	659.5	597.1	522.3	556.9	524.0	300.5	212.3	179.3	197.9	288.7	798.0	4079	3622	359.6	10.03	4.052	2.562	2.087	1.637	1.650	1.173	1.234	1.178	1.006	1.109	0.873	0.997	0.950	1.240	1.314	1.568	1.850	2.055	2.139	2.243	2.869	2.511	2.667	2.533	2.405	2.456	2.326	2.435	2.332	2.581	2.547	2.692	2.844	2.969	2.986	3.098	3.126	3.257	3.204	3.221	3.513	3.396	3.524	3.641	3.402	3.324
365.0	427.7	590.3	751.5	794.6	756.8	681.2	617.8	621.0	653.1	718.4	782.3	794.4	783.5	771.9	738.0	690.0	648.5	592.7	520.5	500.7	531.6	431.0	259.7	198.2	168.9	153.2	239.4	1228	4632	3316	53.89	6.259	3.467	2.562	1.914	1.593	1.288	1.342	1.068	1.018	1.048	1.022	0.944	0.924	1.222	1.277	1.617	1.993	2.042	2.162	2.101	2.749	2.697	2.715	2.488	2.379	2.378	2.271	2.532	2.565	2.772	2.688	2.829	2.907	3.187	3.114	3.013	3.306	3.101	3.199	3.138	3.217	3.387	3.287	3.447	3.225	3.367
370.0	399.0	576.3	718.0	781.9	757.7	709.5	646.6	636.2	682.5	733.4	773.8	779.6	763.2	740.2	712.8	669.8	642.3	595.4	540.6	496.9	469.5	488.3	404.0	263.3	201.4	158.0	142.9	339.3	1382	3604	3810	977.4	17.62	3.653	2.523	1.947	1.605	1.414	1.202	1.182	1.060	0.982	0.985	1.027	1.114	1.197	1.587	1.767	2.012	2.084	2.217	2.628	2.633	2.736	2.571	2.534	2.555	2.442	2.529	2.645	2.667	2.908	2.939	3.017	3.128	3.000	2.999	3.123	3.054	3.158	3.240	3.154	3.000	3.375	3.286	3.180	3.446
375.0	402.6	545.8	694.9	770.9	763.1	713.1	681.5	657.6	700.3	746.8	774.0	771.1	746.5	717.7	693.3	657.9	633.4	597.4	555.7	518.2	468.2	445.7	488.1	395.0	260.7	196.0	156.3	169.4	373.6	888.4	2686	4867	365.7	18.40	3.824	2.434	1.845	1.621	1.240	1.106	1.015	1.088	0.951	1.149	1.133	1.238	1.468	1.815	2.103	1.920	2.180	2.368	2.612	2.883	2.739	2.519	2.570	2.485	2.434	2.892	2.640	2.892	3.059	2.952	3.073	2.874	3.202	3.186	3.100	3.170	3.252	3.318	3.120	3.044	3.102	3.257	3.235
380.0	354.8	540.9	701.1	752.7	764.6	741.7	700.7	675.1	710.8	757.1	777.8	768.4	745.2	711.1	677.7	645.5	623.1	593.2	564.4	528.7	476.2	445.8	461.0	487.3	338.2	237.0	188.6	156.5	170.9	259.4	748.8	3618	3066	292.9	8.993	3.270	2.388	1.758	1.452	1.270	1.217	1.005	1.014	1.142	1.065	1.346	1.414	1.736	1.948	1.869	2.259	2.565	2.769	2.781	2.684	2.703	2.724	2.825	2.627	2.809	2.840	3.011	2.871	3.053	2.986	3.018	3.218	3.010	3.176	3.110	3.034	2.814	3.000	3.335	2.961	3.186	3.309
385.0	340.5	547.3	710.2	745.7	766.2	759.3	707.8	697.6	725.7	749.6	763.3	768.3	731.6	692.2	655.0	623.2	612.8	588.2	564.3	535.8	499.2	456.2	441.4	484.4	440.0	292.7	223.9	178.3	146.9	136.6	224.5	1077	3760	2719	43.74	5.352	2.885	2.133	1.683	1.409	1.260	1.044	1.019	1.064	1.307	1.328	1.465	1.758	2.064	1.851	2.196	2.657	2.769	2.757	2.603	2.640	2.903	2.919	2.644	2.829	2.951	2.945	2.826	2.991	3.031	3.033	2.910	3.090	3.147	3.083	2.801	3.024	3.087	3.139	2.946	3.083	3.188
390.0	354.2	536.8	689.4	751.4	769.0	756.5	726.1	709.9	713.8	752.5	758.4	753.3	722.5	679.8	640.0	610.7	599.2	582.2	563.5	544.8	515.8	477.7	456.9	449.5	464.3	406.1	287.9	220.6	177.0	141.1	129.6	295.8	1102	2770	2899	779.9	15.12	3.462	2.424	1.685	1.346	1.166	1.210	1.072	1.261	1.370	1.471	1.847	1.951	1.849	2.185	2.622	2.818	2.741	2.701	2.881	2.806	2.838	2.799	2.870	3.082	2.885	3.037	3.101	3.017	2.958	2.982	2.999	2.914	2.946	2.956	2.925	3.206	3.037	3.102	2.917	3.167
395.0	344.0	515.9	680.1	758.5	779.8	768.3	745.9	727.3	735.8	751.2	774.7	736.6	720.5	682.6	637.1	605.8	586.4	572.7	564.2	550.3	529.9	504.4	480.9	458.7	443.6	455.8	405.6	285.7	226.9	181.7	145.1	147.6	302.8	683.1	1930	3635	306.2	17.26	3.513	2.320	1.699	1.469	1.336	1.242	1.275	1.416	1.603	1.945	1.963	1.885	2.114	2.577	2.614	2.778	2.847	2.791	2.763	3.009	2.856	2.929	3.013	2.955	3.006	3.003	2.924	3.094	3.083	3.059	2.858	3.225	2.903	3.015	2.897	2.871	2.995	3.035	2.879
400.0	365.4	535.5	674.9	770.5	773.3	772.7	747.9	754.1	754.3	755.5	778.8	753.5	725.6	687.2	641.6	605.1	580.8	567.9	556.8	550.7	536.3	517.7	503.7	483.3	454.6	449.9	469.2	368.5	277.7	223.8	178.3	140.0	144.4	207.3	536.7	2534	2529	256.3	9.324	3.156	2.127	1.757	1.506	1.165	1.304	1.428	1.564	1.963	1.853	1.738	2.205	2.653	2.724	2.686	2.756	2.873	2.943	3.088	2.920	2.985	2.822	2.940	2.925	2.966	3.077	3.056	2.868	2.760	2.928	2.917	2.915	2.921	2.878	2.657	2.972	2.979	2.943
405.0	361.3	535.7	657.3	730.7	777.3	780.9	767.4	766.0	772.2	783.4	796.0	773.0	746.7	693.1	638.2	599.2	576.9	560.8	556.3	549.2	541.0	531.1	518.9	500.2	482.4	454.0	475.0	457.3	338.7	271.4	216.3	166.8	131.5	118.9	174.1	743.2	2703	2298	39.55	5.113	2.653	1.906	1.467	1.259	1.377	1.388	1.489	1.841	1.856	2.006	2.082	2.730	2.845	2.782	2.844	2.976	2.890	2.983	3.055	3.056	2.833	2.930	2.958	2.995	2.889	2.991	2.908	2.871	2.980	3.023	2.761	2.799	2.876	2.708	2.898	2.792	2.781
410.0	351.7	511.3	664.0	732.1	774.0	777.7	773.2	772.6	770.3	788.3	810.8	782.7	745.6	698.4	641.4	593.5	558.2	552.4	548.0	541.4	541.4	535.3	530.1	523.3	501.2	475.5	461.7	471.3	433.7	334.9	261.3	205.3	156.4	122.6	109.8	217.9	776.5	2044	2283	678.1	13.84	2.604	1.822	1.494	1.475	1.506	1.575	1.908	1.990	2.023	2.042	2.675	2.691	2.910	2.824	2.886	2.931	2.995	2.891	3.107	2.939	2.908	2.975	3.072	3.016	2.995	2.816	2.965	2.828	2.996	2.834	2.782	2.944	2.713	2.800	2.839	2.748
