Sample:	'1
File name:	Default_20221208_173720.FD3
Run date:	'17:30:59, 12/08/2022
Operator:	dsjg
Comment:	'

Instrument
Model:	F-2700 FL Spectrophotometer
Serial number:	2198-005
ROM Version:	4J14000 07

Instrument parameters
Measurement type:	3-D scan
Data mode:	Fluorescence
EX  Start WL:	220.0 nm
EX  End WL:	600.0 nm
EX Sampling interval:	5.0 nm
EM  Start WL:	230.0 nm
EM  End WL:	650.0 nm
EM Sampling interval:	5.0 nm
Scan speed:	12000 nm/min
EX Slit:	5.0 nm
EM Slit:	5.0 nm
PMT Voltage:	700 V
Response:	Auto 
Corrected spectra:	Off
Contour interval:	50.000

Peak integration
Integration method:	Rectangular
Sensitivity:	1
Threshold:	1.000

Peaks
No.	ApexEX/EM(nm)	Height(Data)
1	230.0/505.0	97.27
2	235.0/255.0	324.0
3	235.0/515.0	86.53
4	240.0/265.0	370.8
5	240.0/530.0	71.17
6	245.0/270.0	369.2
7	245.0/540.0	75.09
8	250.0/275.0	479.1
9	250.0/550.0	59.40
10	255.0/280.0	690.1
11	255.0/565.0	77.11
12	260.0/575.0	110.0
13	265.0/585.0	143.4
14	270.0/300.0	 2473
15	270.0/600.0	160.3
16	275.0/305.0	 2384
17	275.0/335.0	 2877
18	275.0/610.0	130.1
19	280.0/625.0	91.08
20	305.0/345.0	582.7
21	310.0/350.0	447.0
22	315.0/355.0	421.4
23	320.0/360.0	401.5
24	325.0/370.0	412.0
25	330.0/375.0	450.8
26	335.0/380.0	458.7
27	345.0/395.0	355.5
28	350.0/400.0	325.3
29	365.0/420.0	139.1
30	370.0/425.0	105.9
31	380.0/440.0	69.07
32	385.0/445.0	65.47
33	390.0/305.0	1.752
34	390.0/450.0	47.85
35	395.0/300.0	1.547
36	395.0/455.0	41.20
37	400.0/465.0	37.15
38	405.0/470.0	27.17
39	410.0/475.0	23.35
40	415.0/485.0	20.80
41	420.0/490.0	16.32
42	425.0/500.0	13.96
43	430.0/505.0	12.06
44	435.0/510.0	8.615
45	440.0/520.0	8.363
46	445.0/335.0	9.119
47	445.0/525.0	7.182
48	455.0/540.0	4.649
49	465.0/555.0	2.439
50	470.0/560.0	1.726
51	475.0/570.0	0.245
52	480.0/260.0	-0.211
53	480.0/575.0	-0.183
54	485.0/265.0	-0.152
55	485.0/585.0	-0.776
56	490.0/590.0	-1.216
57	495.0/270.0	-0.448
58	505.0/275.0	0.481
59	520.0/285.0	2.789
60	540.0/295.0	8.103
61	545.0/300.0	9.213
62	550.0/305.0	8.614
63	550.0/330.0	9.311
64	555.0/335.0	9.391

Data points
	220.0	225.0	230.0	235.0	240.0	245.0	250.0	255.0	260.0	265.0	270.0	275.0	280.0	285.0	290.0	295.0	300.0	305.0	310.0	315.0	320.0	325.0	330.0	335.0	340.0	345.0	350.0	355.0	360.0	365.0	370.0	375.0	380.0	385.0	390.0	395.0	400.0	405.0	410.0	415.0	420.0	425.0	430.0	435.0	440.0	445.0	450.0	455.0	460.0	465.0	470.0	475.0	480.0	485.0	490.0	495.0	500.0	505.0	510.0	515.0	520.0	525.0	530.0	535.0	540.0	545.0	550.0	555.0	560.0	565.0	570.0	575.0	580.0	585.0	590.0	595.0	600.0
230.0	-83.96	896.7	 2378	856.6	-35.33	-38.86	-33.84	-28.91	-24.29	-21.25	-18.39	-15.84	-13.97	-12.02	-10.19	-8.933	-7.982	-7.214	-6.484	-6.021	-5.623	-5.275	-5.032	-4.773	-4.574	-4.467	-4.473	-4.350	-4.280	-4.334	-4.171	-4.022	-3.833	-3.685	-3.490	-3.171	-3.026	-3.123	-3.017	-2.940	-2.749	-2.303	-2.179	-2.418	-2.681	-2.676	-2.230	0.116	3.540	3.634	0.394	-1.977	-2.362	-2.441	-2.455	-2.559	-2.684	-2.670	-2.726	-2.730	-2.716	-2.755	-2.784	-2.799	-2.832	-2.812	-2.841	-2.865	-2.892	-2.923	-2.917	-2.927	-2.970	-2.982	-3.014	-3.060	-3.161
235.0	15.03	172.8	 1316	 2853	362.3	-4.688	-33.22	-28.38	-24.60	-20.51	-17.70	-15.96	-13.73	-11.79	-9.997	-8.869	-8.072	-7.111	-6.401	-5.959	-5.586	-5.334	-5.058	-4.758	-4.634	-4.395	-4.360	-4.316	-4.269	-4.173	-4.237	-4.056	-3.808	-3.678	-3.465	-3.234	-3.097	-3.053	-3.072	-2.887	-2.900	-2.760	-2.472	-2.195	-2.057	-2.408	-2.389	-1.834	-0.630	1.152	2.795	3.921	0.615	-1.890	-2.471	-2.551	-2.692	-2.689	-2.732	-2.689	-2.727	-2.763	-2.808	-2.823	-2.829	-2.823	-2.836	-2.883	-2.896	-2.889	-2.925	-2.962	-2.967	-2.947	-3.020	-3.060	-3.154
240.0	110.5	74.60	320.4	 2082	 1659	352.0	-25.22	-27.84	-24.47	-20.67	-17.93	-16.13	-13.87	-11.58	-9.869	-8.816	-7.778	-7.142	-6.522	-6.015	-5.557	-5.397	-4.940	-4.839	-4.543	-4.344	-4.345	-4.217	-4.332	-4.284	-4.233	-4.068	-3.855	-3.747	-3.507	-3.296	-3.131	-3.064	-3.034	-2.903	-2.881	-2.919	-2.811	-2.603	-2.064	-1.676	-1.897	-2.136	-1.879	-1.302	-0.132	2.774	4.420	3.457	-0.352	-2.297	-2.687	-2.694	-2.696	-2.719	-2.716	-2.763	-2.819	-2.827	-2.807	-2.835	-2.840	-2.870	-2.900	-2.895	-2.939	-2.944	-2.971	-2.972	-2.998	-3.034	-3.151
245.0	30.82	185.7	82.05	622.0	 1567	 3065	197.9	-25.94	-23.44	-20.62	-17.70	-15.60	-13.30	-11.24	-9.763	-8.784	-7.823	-7.188	-6.479	-5.993	-5.635	-5.320	-4.879	-4.867	-4.551	-4.417	-4.361	-4.270	-4.360	-4.300	-4.179	-3.930	-3.883	-3.739	-3.497	-3.237	-3.199	-3.079	-3.005	-2.945	-2.852	-2.899	-2.828	-2.740	-2.522	-2.186	-1.546	-1.573	-1.918	-1.799	-1.499	-0.951	1.050	4.524	5.477	2.264	-1.648	-2.580	-2.716	-2.673	-2.717	-2.719	-2.688	-2.818	-2.796	-2.802	-2.855	-2.870	-2.888	-2.899	-2.930	-2.947	-2.983	-2.974	-3.006	-3.078	-3.113
250.0	-93.48	92.22	221.2	196.6	450.9	 2603	 2352	575.9	-0.436	-19.48	-16.93	-15.03	-12.76	-11.36	-9.715	-8.748	-7.725	-7.072	-6.510	-5.903	-5.493	-5.355	-5.034	-4.745	-4.542	-4.424	-4.317	-4.253	-4.301	-4.329	-4.204	-3.988	-3.799	-3.701	-3.525	-3.243	-3.194	-3.146	-3.089	-2.920	-2.878	-2.891	-2.872	-2.835	-2.703	-2.569	-2.112	-1.773	-1.145	-1.043	-1.276	-1.809	-1.549	-0.489	1.382	3.386	4.826	3.779	1.187	-1.701	-2.635	-2.757	-2.735	-2.791	-2.788	-2.817	-2.800	-2.860	-2.855	-2.890	-2.920	-2.914	-2.960	-2.971	-2.997	-3.080	-3.108
255.0	-129.0	-51.68	145.0	324.0	159.1	620.7	 1765	 2516	240.8	-0.733	-16.07	-14.38	-12.42	-11.11	-9.584	-8.455	-7.775	-6.882	-6.419	-5.787	-5.513	-5.257	-4.867	-4.718	-4.607	-4.338	-4.288	-4.288	-4.342	-4.275	-4.165	-4.015	-3.798	-3.669	-3.430	-3.271	-3.156	-3.167	-3.085	-2.962	-2.873	-2.916	-2.823	-2.761	-2.701	-2.659	-2.314	-2.284	-2.014	-1.345	-0.598	-0.779	-1.454	-1.864	-1.525	-1.054	-0.224	2.681	6.759	7.588	3.171	-1.513	-2.774	-2.816	-2.759	-2.816	-2.807	-2.848	-2.844	-2.926	-2.925	-2.919	-2.986	-2.947	-3.007	-3.064	-3.117
260.0	-132.9	105.4	-0.044	274.6	292.5	163.1	503.5	 2012	 2052	197.2	-9.795	-13.02	-12.16	-11.00	-9.305	-8.520	-7.573	-6.476	-6.261	-5.817	-5.474	-5.128	-4.904	-4.728	-4.609	-4.375	-4.305	-4.348	-4.299	-4.191	-4.152	-3.990	-3.734	-3.626	-3.453	-3.275	-3.114	-3.199	-3.150	-3.009	-2.908	-2.861	-2.820	-2.756	-2.712	-2.705	-2.432	-2.416	-2.231	-1.850	-1.357	-0.667	-0.211	-1.195	-1.966	-2.151	-1.992	-1.301	1.263	5.634	9.639	8.156	1.517	-2.244	-2.780	-2.777	-2.838	-2.846	-2.870	-2.923	-2.886	-2.920	-2.965	-2.954	-2.956	-3.072	-3.121
265.0	-136.0	271.7	-53.21	87.23	370.8	242.6	114.7	651.3	 1949	 1835	147.6	-9.855	-10.62	-10.61	-9.291	-8.162	-7.305	-6.497	-6.162	-5.866	-5.256	-5.187	-4.837	-4.684	-4.568	-4.348	-4.255	-4.344	-4.288	-4.198	-4.097	-3.944	-3.815	-3.644	-3.439	-3.210	-3.152	-3.067	-3.103	-3.003	-2.930	-2.971	-2.870	-2.784	-2.696	-2.721	-2.417	-2.457	-2.263	-1.975	-1.784	-1.763	-0.917	-0.152	-0.622	-1.883	-2.387	-2.376	-1.689	-0.426	2.844	8.714	11.32	6.649	0.039	-2.615	-2.830	-2.843	-2.837	-2.894	-2.934	-2.903	-2.913	-2.900	-2.993	-3.066	-3.110
270.0	-121.7	219.6	-62.05	-14.82	136.3	369.2	237.9	171.5	591.3	 1725	 2049	608.1	14.25	-8.992	-8.634	-7.758	-7.149	-6.541	-6.017	-5.567	-5.189	-5.025	-4.785	-4.598	-4.538	-4.347	-4.303	-4.220	-4.290	-4.187	-4.081	-3.901	-3.703	-3.591	-3.345	-3.106	-3.128	-3.121	-3.037	-3.000	-2.931	-2.975	-2.885	-2.745	-2.663	-2.617	-2.394	-2.350	-2.237	-1.941	-1.925	-2.167	-1.976	-1.573	-0.805	-0.448	-0.765	-1.658	-2.198	-2.020	-1.285	0.319	3.438	6.786	9.375	8.575	3.741	-0.739	-2.648	-2.872	-2.890	-2.880	-2.914	-2.923	-2.973	-3.052	-3.132
275.0	-52.34	30.83	-38.55	-31.07	8.714	141.6	479.1	290.7	220.0	532.7	 1413	 3083	838.4	8.682	-7.443	-6.930	-6.905	-6.185	-5.925	-5.359	-4.877	-4.989	-4.677	-4.442	-4.461	-4.228	-4.195	-4.205	-4.267	-4.227	-4.091	-3.853	-3.529	-3.262	-3.128	-2.876	-2.806	-2.963	-2.898	-2.845	-2.738	-2.818	-2.670	-2.597	-2.592	-2.424	-2.208	-2.267	-2.180	-1.879	-1.814	-2.295	-2.236	-2.215	-1.950	-1.704	-0.822	0.481	0.066	-1.283	-1.998	-1.687	-0.787	-0.091	1.353	4.398	10.19	13.68	6.986	-0.567	-2.717	-2.822	-2.856	-2.909	-2.970	-3.033	-3.128
280.0	94.48	64.09	9.028	-7.644	-1.416	54.65	316.7	690.1	290.6	438.4	742.4	 2258	 3125	121.6	-1.624	-6.788	-6.268	-5.985	-5.523	-5.392	-4.973	-4.955	-4.664	-4.306	-4.420	-4.286	-4.168	-4.175	-4.182	-4.126	-4.075	-3.759	-3.070	-2.475	-2.086	-2.417	-2.347	-2.629	-2.505	-2.418	-2.389	-2.395	-2.296	-2.130	-2.126	-2.150	-1.924	-1.965	-2.027	-1.797	-1.716	-2.185	-2.205	-2.211	-2.124	-2.092	-1.738	-0.858	0.634	1.464	-0.237	-1.300	-1.152	-0.787	-0.191	0.489	2.747	8.528	14.48	13.82	4.118	-1.988	-2.791	-2.897	-2.907	-3.012	-3.075
285.0	288.7	166.8	64.83	20.30	21.13	59.98	200.9	683.2	935.4	728.7	824.3	 1166	 2562	 2566	83.70	-4.824	-5.437	-5.564	-5.345	-5.201	-4.741	-4.861	-4.639	-4.401	-4.296	-4.197	-4.084	-4.097	-4.144	-4.177	-3.996	-3.550	-2.481	-1.517	-1.099	-1.711	-1.756	-2.013	-1.966	-1.918	-2.000	-1.772	-1.802	-1.566	-1.473	-1.578	-1.604	-1.748	-1.799	-1.657	-1.597	-2.092	-2.122	-2.091	-2.093	-2.063	-2.032	-1.598	-0.792	1.640	2.789	1.967	0.272	0.209	0.496	0.668	1.163	2.204	5.052	10.63	15.28	10.70	1.021	-2.648	-2.890	-2.979	-3.064
290.0	526.0	349.7	142.9	68.90	68.72	123.0	246.3	552.4	 1136	 1524	 1297	 1116	 1059	 1894	 2250	379.6	11.45	-4.333	-4.873	-4.829	-4.659	-4.771	-4.428	-4.268	-4.136	-4.110	-4.120	-4.019	-4.096	-4.129	-3.917	-3.067	-1.671	-0.143	0.381	-0.284	-0.726	-1.267	-1.288	-1.417	-1.244	-1.304	-0.887	-0.976	-0.873	-1.008	-1.090	-1.335	-1.445	-1.497	-1.435	-1.835	-1.906	-1.875	-1.800	-1.823	-1.723	-1.403	-0.827	0.243	1.383	3.230	4.707	4.287	3.516	2.258	2.135	2.276	1.352	1.916	4.230	7.935	10.26	9.675	5.332	0.006	-2.673
295.0	726.7	461.7	231.4	140.9	164.2	249.7	381.7	643.8	 1086	 1817	 2170	 1408	784.9	640.0	 1274	 2816	547.9	7.297	-4.235	-4.260	-4.092	-4.440	-4.101	-4.249	-3.891	-3.995	-3.939	-3.839	-4.066	-4.091	-3.853	-3.020	-1.158	0.596	1.300	1.036	0.161	-0.444	-0.757	-0.573	-0.546	-0.755	-0.429	-0.243	-0.205	-0.373	-0.782	-0.985	-0.934	-1.206	-1.209	-1.611	-1.576	-1.594	-1.404	-1.129	-0.987	-0.801	-0.059	0.349	1.169	2.417	4.276	5.996	8.103	6.136	4.182	3.072	1.453	0.431	0.230	0.548	0.962	3.448	10.58	15.87	10.00
300.0	850.5	521.9	310.2	219.2	256.6	388.2	524.4	763.8	 1173	 1714	 2473	 1936	887.8	466.9	494.4	 1857	 2743	72.66	-0.161	-3.648	-4.060	-4.152	-3.728	-4.072	-3.905	-4.007	-4.010	-3.948	-3.930	-4.022	-3.857	-3.115	-1.044	0.916	1.417	1.547	0.392	-0.149	-0.175	-0.145	-0.311	0.026	0.082	0.108	0.152	0.023	-0.207	-0.718	-0.833	-0.978	-0.987	-1.196	-1.078	-1.082	-1.080	-0.136	-0.216	0.023	0.138	1.122	1.627	2.833	3.928	5.155	7.496	9.213	8.444	5.250	2.196	1.070	-0.021	-0.604	-0.728	-0.593	1.979	7.398	15.63
305.0	897.2	570.7	356.7	261.3	336.8	457.6	623.5	853.9	 1223	 1667	 2209	 2384	 1153	520.2	328.0	655.6	 2188	 2207	55.99	-1.940	-3.302	-3.661	-3.547	-3.905	-3.892	-3.729	-3.873	-3.854	-3.915	-4.015	-3.763	-3.157	-1.298	0.839	1.752	1.484	0.369	-0.044	-0.074	-0.180	-0.147	0.101	0.354	0.388	0.424	0.299	-0.023	-0.526	-0.857	-0.930	-0.635	-1.078	-0.864	-0.749	-0.474	-0.012	0.179	0.466	0.834	1.565	2.077	3.215	3.715	4.803	6.118	7.431	8.614	7.948	4.160	1.428	0.239	-0.191	-0.993	-1.275	-0.779	0.567	3.736
310.0	 1050	676.3	413.2	333.7	417.6	569.9	746.0	964.3	 1312	 1708	 2039	 2219	 1759	852.9	402.7	359.2	702.8	 1707	 1940	264.9	8.885	-3.041	-3.293	-3.502	-3.685	-3.727	-3.734	-3.873	-3.807	-3.840	-3.751	-3.036	-1.402	0.403	1.251	1.016	0.426	0.038	-0.114	0.121	-0.140	0.289	0.669	0.658	0.700	0.684	0.258	-0.265	-0.535	-0.708	-0.740	-0.866	-0.668	-0.486	-0.092	0.326	0.577	0.637	1.058	1.985	2.537	3.469	4.203	4.783	5.781	6.096	6.731	7.176	6.657	4.753	2.815	1.129	-0.300	-0.754	-1.082	-0.824	-0.459
315.0	 1616	 1123	599.2	428.7	513.9	701.5	896.0	 1145	 1511	 1928	 2246	 2261	 1962	 1630	711.5	414.5	356.7	509.2	 1143	 2242	388.5	6.797	-2.539	-3.150	-3.383	-3.514	-3.711	-3.692	-3.722	-3.849	-3.697	-2.971	-1.805	-0.306	0.641	0.343	0.187	0.165	0.190	0.397	0.875	0.835	2.163	2.513	2.965	2.919	2.147	1.296	0.204	-0.335	-0.569	-0.535	-0.080	-0.129	0.262	0.886	1.280	1.689	1.959	2.705	3.238	4.183	5.066	6.181	6.558	7.138	7.134	6.936	6.469	5.838	6.139	5.259	2.229	0.371	-0.227	-0.684	-0.815
320.0	 2811	 2002	884.4	534.6	585.8	782.8	 1023	 1332	 1733	 2177	 2516	 2517	 2098	 1890	 1197	532.1	342.6	278.0	380.7	 1518	 2116	54.73	-0.140	-2.598	-3.021	-3.427	-3.506	-3.540	-3.552	-3.676	-3.606	-3.030	-2.165	-0.695	0.479	0.470	0.228	0.259	0.546	0.733	1.637	2.188	3.462	4.704	5.789	6.274	5.232	3.932	1.601	0.349	-0.071	-0.144	-0.042	0.239	0.684	1.351	1.696	1.852	2.651	3.162	4.191	4.814	6.011	7.395	7.608	8.182	7.908	8.221	7.160	6.118	6.769	6.427	5.656	3.248	0.913	-0.059	-0.726
325.0	 3374	 2432	 1082	593.6	635.9	839.9	 1125	 1455	 1866	 2332	 2674	 2682	 2217	 1793	 1440	711.4	355.0	245.0	190.2	491.9	 1799	 1618	42.18	-1.582	-2.837	-3.316	-3.451	-3.556	-3.567	-3.675	-3.572	-2.940	-2.354	-0.737	0.037	0.321	0.370	0.177	0.474	1.108	2.204	2.922	4.671	5.731	7.102	8.388	6.667	5.166	2.119	0.666	0.075	0.169	-0.022	0.178	0.766	1.671	1.648	2.447	3.181	3.541	4.386	5.494	6.654	7.636	8.173	8.210	9.023	8.789	7.840	6.787	6.547	6.071	5.267	4.814	2.927	0.623	-0.441
330.0	 3540	 2585	 1148	662.1	678.9	877.5	 1164	 1542	 1992	 2441	 2762	 2782	 2344	 1784	 1216	939.9	501.4	249.3	157.9	186.6	540.8	 1323	 1480	210.2	7.508	-2.701	-3.270	-3.323	-3.546	-3.477	-3.547	-3.077	-2.315	-1.062	-0.482	-0.072	0.125	0.115	0.573	1.344	2.264	3.478	4.747	6.331	7.783	8.810	7.049	5.422	2.628	1.121	0.411	0.166	0.138	0.243	0.807	1.554	1.997	2.359	3.142	4.330	4.764	6.134	7.080	7.998	8.516	8.460	9.311	9.183	8.613	7.112	6.804	5.941	4.072	3.154	2.991	2.332	1.275
335.0	 3754	 2864	 1323	768.5	758.9	931.5	 1244	 1632	 2084	 2526	 2846	 2877	 2456	 1868	 1115	774.7	740.4	371.7	171.3	140.5	193.5	348.7	937.9	 1788	321.1	5.675	-2.593	-3.178	-3.330	-3.388	-3.500	-3.023	-2.234	-1.627	-0.594	-0.125	0.025	0.073	0.428	1.573	2.353	3.340	4.856	6.938	8.454	9.119	8.223	6.459	3.325	1.576	0.716	0.469	0.627	0.751	0.813	1.489	2.138	2.538	3.414	4.623	5.317	6.106	7.286	8.499	8.420	8.587	9.116	9.391	8.689	7.865	7.509	5.747	3.862	2.940	1.614	1.294	1.726
340.0	 3602	 2786	 1413	851.0	817.6	965.0	 1274	 1694	 2084	 2483	 2800	 2834	 2425	 1877	 1085	637.0	639.6	554.7	219.1	143.4	132.3	134.8	289.7	 1289	 1639	233.9	0.051	-2.420	-3.052	-3.217	-3.410	-3.046	-2.416	-1.602	-0.712	-0.397	0.072	0.166	0.530	1.159	2.250	3.302	4.779	7.035	7.935	8.835	7.829	5.951	3.319	1.620	1.102	0.805	0.605	0.927	1.020	1.833	2.269	2.852	3.487	4.483	5.653	6.842	7.166	8.214	8.275	8.737	8.909	9.017	8.921	7.536	7.602	6.100	3.991	2.724	1.605	0.508	0.436
345.0	 3328	 2570	 1396	911.5	832.9	985.3	 1268	 1659	 2021	 2350	 2641	 2666	 2311	 1810	 1020	554.0	441.2	582.7	356.8	161.8	133.6	105.5	124.0	421.0	 1488	 1329	36.39	-1.636	-2.635	-3.080	-3.231	-2.928	-2.617	-1.779	-0.989	-0.545	-0.299	0.107	0.451	0.956	1.807	2.801	4.048	5.997	6.808	7.883	6.784	5.298	3.185	1.841	1.140	0.975	0.841	0.902	1.080	1.888	2.333	2.943	3.738	4.628	5.142	6.209	6.497	7.675	7.504	7.881	8.274	8.281	7.878	7.530	6.403	5.706	4.024	2.261	1.046	-0.009	-0.585
350.0	 2955	 2280	 1319	894.8	823.3	931.2	 1188	 1545	 1854	 2159	 2392	 2408	 2097	 1637	926.1	489.7	338.8	379.4	447.0	292.0	157.3	115.0	104.5	155.6	455.5	 1113	 1142	178.0	5.391	-2.601	-2.920	-2.865	-2.728	-2.042	-1.333	-0.856	-0.543	-0.308	-0.010	0.483	1.280	2.151	3.604	4.942	5.947	6.422	5.359	4.395	2.842	1.686	1.148	0.853	0.885	0.969	1.010	1.412	1.885	2.515	3.233	4.050	4.440	5.473	5.818	6.647	6.658	6.886	7.066	7.460	6.977	6.073	5.681	4.563	3.250	1.645	0.709	-0.213	-0.890
355.0	 2515	 2043	 1262	877.1	790.7	887.9	 1107	 1425	 1673	 1934	 2114	 2118	 1860	 1458	826.6	430.9	295.9	270.6	302.7	421.4	274.3	143.1	118.8	115.4	151.4	287.4	772.8	 1378	278.7	3.632	-2.297	-2.908	-2.618	-2.014	-1.532	-1.157	-0.821	-0.513	-0.279	0.006	0.753	1.958	2.621	4.039	4.663	4.917	4.344	3.636	2.457	1.555	1.051	0.844	0.592	0.976	0.777	1.107	1.835	1.939	2.712	3.622	3.667	4.518	4.946	5.541	5.584	5.658	5.891	5.716	5.678	5.147	5.142	4.065	2.570	1.287	0.103	-0.481	-1.109
360.0	 2163	 1792	 1199	845.9	751.5	846.5	 1033	 1321	 1527	 1722	 1873	 1899	 1656	 1307	749.1	394.3	276.4	241.2	235.8	355.3	401.5	207.9	140.8	122.4	102.8	104.4	233.6	 1035	 1392	41.81	0.905	-2.092	-2.478	-2.057	-1.739	-1.185	-0.933	-0.904	-0.617	-0.270	0.527	1.351	2.032	2.914	3.813	3.679	3.366	3.121	2.254	1.468	0.944	0.787	0.452	0.790	0.635	1.099	1.477	1.833	2.560	3.128	3.032	3.712	4.083	4.712	4.611	4.752	5.042	5.030	4.937	4.421	3.984	3.322	2.126	0.559	-0.213	-0.755	-0.957
365.0	 1923	 1592	 1184	864.5	735.4	798.5	945.3	 1188	 1378	 1551	 1682	 1693	 1479	 1179	679.3	369.6	263.3	236.9	223.8	268.7	399.4	340.7	188.7	153.0	119.8	91.22	102.2	346.9	 1302	 1046	34.68	-0.848	-2.113	-2.000	-1.790	-1.268	-1.159	-1.112	-0.657	-0.403	0.311	0.691	1.597	2.237	2.890	3.210	2.701	2.525	2.182	1.349	0.908	0.701	0.582	0.582	0.475	0.601	1.075	1.519	2.095	2.680	2.749	3.234	3.727	3.876	4.070	4.225	4.016	4.107	4.002	3.809	3.663	2.490	1.830	0.386	-0.222	-0.996	-1.156
370.0	 1644	 1471	 1178	861.0	704.8	723.2	857.9	 1050	 1196	 1345	 1440	 1453	 1264	998.1	585.6	338.8	264.1	245.8	238.3	257.8	319.3	412.0	347.8	231.8	181.5	146.0	127.3	164.3	432.4	939.1	971.6	161.9	5.391	-1.603	-1.663	-1.492	-1.341	-1.332	-0.838	-0.806	-0.162	0.400	1.166	1.520	1.995	2.359	2.244	2.272	1.888	1.420	0.945	0.608	0.658	0.413	0.367	0.443	0.650	1.152	1.506	1.708	2.016	2.320	2.515	2.840	3.136	3.135	3.103	3.249	2.999	2.441	2.378	1.878	1.032	-0.102	-0.613	-1.112	-1.353
375.0	 1378	 1338	 1162	880.0	684.7	656.3	762.2	910.8	 1017	 1134	 1206	 1223	 1057	846.8	510.1	313.6	262.2	256.1	257.7	276.2	300.3	348.4	450.8	374.3	252.6	206.5	177.6	159.8	186.8	269.7	660.2	 1128	234.5	3.056	-1.558	-1.432	-1.324	-1.290	-1.044	-1.067	-0.454	0.016	0.424	0.866	1.381	1.609	1.768	2.137	1.607	1.463	1.321	0.785	0.435	0.226	0.253	0.215	0.471	0.610	1.085	1.195	1.405	1.469	1.644	1.867	2.063	2.204	2.153	2.490	2.410	1.671	1.473	1.259	0.514	-0.369	-0.984	-1.208	-1.303
380.0	 1210	 1215	 1116	882.0	661.2	607.5	687.0	812.2	900.0	 1004	 1062	 1066	923.0	738.6	459.5	295.9	254.2	258.1	262.0	280.0	297.6	318.4	396.4	458.7	323.5	233.0	199.9	166.2	138.4	114.1	199.1	842.2	999.8	35.76	-0.135	-1.360	-1.546	-1.470	-1.309	-1.201	-0.611	-0.473	0.174	0.587	0.735	1.084	1.497	1.816	1.432	1.505	1.277	0.885	0.307	0.007	0.071	0.014	0.364	0.393	0.451	0.659	1.027	1.055	1.076	1.437	1.414	1.701	1.541	1.887	1.530	1.134	0.965	0.505	-0.185	-0.518	-1.080	-1.061	-1.261
385.0	 1099	 1114	 1085	838.7	626.2	583.6	616.1	726.4	802.8	880.0	930.7	941.2	802.2	656.2	406.4	278.0	249.3	248.3	252.9	279.3	290.5	304.1	335.3	429.7	401.6	261.4	204.4	174.6	130.1	81.02	69.05	257.6	898.4	778.3	26.73	-0.941	-1.245	-1.479	-1.264	-1.496	-0.899	-0.469	-0.127	0.357	0.344	0.604	0.819	1.534	1.218	1.452	1.143	0.750	0.300	-0.275	-0.042	-0.247	0.080	0.034	0.334	0.388	0.671	0.423	0.871	0.772	0.938	1.139	1.045	1.177	0.800	0.632	0.547	0.377	-0.199	-0.797	-1.250	-1.315	-1.517
390.0	920.4	 1028	 1036	819.5	590.1	516.0	543.4	618.9	675.4	738.5	778.1	779.3	672.9	555.7	353.3	255.4	235.9	241.8	248.4	269.6	284.6	292.2	307.4	343.3	391.0	343.1	230.5	180.5	130.9	75.59	40.01	67.88	256.8	645.8	548.3	126.8	4.320	-1.476	-1.406	-1.204	-1.040	-0.823	-0.654	-0.215	-0.114	0.248	0.641	1.075	1.292	1.253	0.800	0.734	0.127	-0.163	-0.133	-0.440	-0.395	-0.104	-0.134	0.158	0.011	0.207	0.288	0.279	0.249	0.543	0.554	0.608	0.318	0.101	0.106	-0.131	-0.712	-1.121	-1.355	-1.467	-1.544
395.0	793.5	902.8	992.1	772.9	561.2	461.5	488.6	526.5	563.6	611.8	652.2	647.2	552.6	459.1	307.0	236.1	224.8	229.7	240.3	259.8	271.4	282.5	290.8	299.3	312.5	355.5	301.2	189.6	131.5	75.22	35.15	25.33	62.85	155.3	415.0	790.7	190.3	1.688	-1.550	-1.376	-1.308	-1.068	-0.947	-0.656	-0.425	0.111	0.245	0.704	1.024	1.101	0.918	0.662	0.135	-0.381	-0.098	-0.529	-0.538	-0.450	-0.414	-0.525	-0.424	-0.509	-0.129	-0.370	-0.230	-0.251	-0.286	0.391	-0.120	-0.146	-0.325	-0.708	-1.082	-1.242	-1.557	-1.549	-1.594
