Sample:	'1
File name:	G2025080606月四会四泵站.FD3
Run date:	'11:10:38, 08/07/2025
Operator:	Administrator
Comment:	'

Instrument
Model:	F-2700 FL Spectrophotometer
Serial number:	23B8-004
ROM Version:	4J14000 07

Instrument parameters
Measurement type:	3-D scan
Data mode:	Fluorescence
EX  Start WL:	220.0 nm
EX  End WL:	600.0 nm
EX Sampling interval:	5.0 nm
EM  Start WL:	230.0 nm
EM  End WL:	650.0 nm
EM Sampling interval:	5.0 nm
Scan speed:	12000 nm/min
EX Slit:	5.0 nm
EM Slit:	5.0 nm
PMT Voltage:	700 V
Response:	Auto 
Corrected spectra:	Off
Contour interval:	50.000

Peak integration
Integration method:	Rectangular
Sensitivity:	1
Threshold:	1.000

Peaks
No.	ApexEX/EM(nm)	Height(Data)
1	225.0/570.0	53.74
2	225.0/625.0	44.53
3	230.0/250.0	259.8
4	230.0/340.0	1962
5	230.0/500.0	346.1
6	235.0/255.0	350.0
7	235.0/510.0	314.9
8	240.0/265.0	395.7
9	240.0/525.0	288.8
10	245.0/270.0	414.9
11	245.0/535.0	238.9
12	250.0/275.0	532.8
13	250.0/445.0	973.0
14	250.0/550.0	197.0
15	255.0/280.0	681.4
16	255.0/560.0	160.0
17	260.0/285.0	656.1
18	260.0/575.0	136.9
19	265.0/585.0	118.0
20	270.0/300.0	1188
21	270.0/405.0	896.2
22	270.0/600.0	106.4
23	275.0/305.0	1382
24	275.0/610.0	98.17
25	280.0/310.0	1275
26	280.0/340.0	1220
27	280.0/625.0	88.52
28	285.0/320.0	1319
29	285.0/635.0	66.84
30	290.0/325.0	1232
31	320.0/365.0	663.3
32	440.0/520.0	25.00
33	460.0/340.0	4.965
34	475.0/260.0	1.665
35	475.0/355.0	4.668
36	485.0/265.0	2.159
37	495.0/270.0	2.103
38	505.0/275.0	3.113
39	515.0/280.0	3.284
40	515.0/435.0	3.910
41	520.0/285.0	3.889
42	520.0/445.0	3.774
43	530.0/290.0	3.574
44	540.0/295.0	5.026
45	545.0/300.0	5.510
46	555.0/305.0	5.857
47	565.0/310.0	5.701
48	570.0/315.0	5.920
49	580.0/320.0	5.797
50	585.0/325.0	6.162

Data points
	220.0	225.0	230.0	235.0	240.0	245.0	250.0	255.0	260.0	265.0	270.0	275.0	280.0	285.0	290.0	295.0	300.0	305.0	310.0	315.0	320.0	325.0	330.0	335.0	340.0	345.0	350.0	355.0	360.0	365.0	370.0	375.0	380.0	385.0	390.0	395.0	400.0	405.0	410.0	415.0	420.0	425.0	430.0	435.0	440.0	445.0	450.0	455.0	460.0	465.0	470.0	475.0	480.0	485.0	490.0	495.0	500.0	505.0	510.0	515.0	520.0	525.0	530.0	535.0	540.0	545.0	550.0	555.0	560.0	565.0	570.0	575.0	580.0	585.0	590.0	595.0	600.0
230.0	47.92	438.4	1281	497.6	23.56	6.148	4.980	3.936	3.490	3.475	2.883	2.614	2.519	1.909	1.749	1.438	1.244	1.189	1.046	1.026	0.890	0.832	0.707	0.722	0.676	0.655	0.677	0.599	0.597	0.535	0.488	0.499	0.451	0.397	0.359	0.385	0.418	0.340	0.357	0.334	0.356	0.453	0.541	0.382	0.324	0.298	0.556	1.918	3.677	3.086	1.433	0.400	0.237	0.210	0.228	0.233	0.253	0.245	0.268	0.229	0.231	0.230	0.244	0.247	0.261	0.243	0.244	0.241	0.230	0.250	0.242	0.267	0.225	0.266	0.227	0.260	0.258
235.0	130.9	142.7	695.5	1344	524.3	41.70	4.708	5.340	4.474	3.900	2.894	2.659	2.279	2.279	1.624	1.423	1.325	1.178	1.073	0.933	0.824	0.794	0.742	0.633	0.772	0.678	0.687	0.613	0.673	0.678	0.558	0.451	0.398	0.526	0.407	0.446	0.391	0.426	0.359	0.294	0.307	0.343	0.479	0.644	0.451	0.369	0.358	0.689	1.379	2.396	3.643	4.445	2.403	0.696	0.233	0.223	0.238	0.231	0.269	0.245	0.248	0.220	0.283	0.343	0.247	0.243	0.238	0.265	0.219	0.250	0.260	0.238	0.225	0.226	0.229	0.276	0.234
240.0	174.2	142.8	212.0	965.9	1501	435.5	21.62	5.726	3.881	3.351	3.791	2.371	2.267	2.419	1.814	1.458	1.309	1.290	0.996	0.932	0.863	0.763	0.722	0.787	0.785	0.651	0.646	0.617	0.636	0.721	0.481	0.486	0.444	0.482	0.306	0.336	0.380	0.442	0.341	0.323	0.323	0.318	0.397	0.450	0.502	0.734	0.570	0.420	0.525	0.768	1.746	4.303	6.063	4.884	1.957	0.478	0.258	0.237	0.254	0.225	0.222	0.211	0.230	0.265	0.230	0.223	0.207	0.240	0.265	0.259	0.277	0.216	0.219	0.237	0.252	0.246	0.302
245.0	121.8	240.5	132.6	306.6	1311	1573	302.7	9.787	4.545	3.838	3.831	3.098	2.881	2.250	1.918	1.524	1.353	1.223	1.001	0.978	0.874	0.897	0.846	0.729	0.666	0.639	0.609	0.604	0.578	0.592	0.565	0.467	0.449	0.477	0.378	0.341	0.355	0.300	0.324	0.261	0.401	0.315	0.277	0.306	0.378	0.630	0.770	0.769	0.452	0.344	0.578	1.441	3.428	6.753	7.192	4.491	1.702	0.376	0.315	0.223	0.262	0.243	0.234	0.258	0.215	0.232	0.209	0.250	0.284	0.230	0.241	0.241	0.258	0.236	0.222	0.268	0.341
250.0	49.59	152.8	259.8	186.3	409.5	1243	1738	756.3	52.39	5.074	4.711	3.796	2.967	2.455	2.226	1.749	1.562	1.194	1.232	1.009	0.880	0.910	0.736	0.769	0.720	0.696	0.618	0.587	0.608	0.561	0.540	0.542	0.438	0.472	0.355	0.392	0.385	0.376	0.393	0.319	0.322	0.302	0.313	0.262	0.354	0.351	0.488	0.792	0.882	0.837	0.629	0.641	1.034	2.136	3.591	5.882	7.665	7.509	4.741	1.642	0.408	0.255	0.256	0.253	0.277	0.257	0.295	0.230	0.263	0.277	0.264	0.237	0.241	0.264	0.247	0.249	0.274
255.0	31.40	51.94	170.2	350.0	219.2	316.0	1076	2547	375.4	49.66	5.274	4.070	3.262	3.132	2.056	1.921	1.419	1.501	1.358	1.311	1.068	1.018	0.745	0.904	0.698	0.677	0.599	0.649	0.554	0.546	0.558	0.467	0.495	0.454	0.425	0.348	0.319	0.404	0.343	0.337	0.274	0.402	0.303	0.299	0.304	0.304	0.327	0.403	0.475	0.757	1.412	1.420	0.848	0.704	1.064	1.618	2.406	5.375	10.56	12.09	7.132	1.973	0.419	0.250	0.324	0.248	0.288	0.220	0.249	0.229	0.260	0.245	0.223	0.236	0.243	0.267	0.255
260.0	27.60	25.86	62.84	273.9	360.7	145.1	312.1	1717	2726	317.8	24.42	4.442	4.017	3.124	2.180	2.314	1.457	1.489	1.072	1.298	1.177	1.069	0.963	0.799	0.697	0.768	0.637	0.732	0.614	0.482	0.604	0.536	0.529	0.370	0.419	0.326	0.402	0.376	0.336	0.337	0.262	0.362	0.299	0.280	0.293	0.335	0.279	0.307	0.327	0.397	0.817	1.665	1.627	1.109	0.655	0.694	0.810	1.540	3.879	8.554	13.61	12.75	6.441	1.215	0.314	0.267	0.274	0.266	0.239	0.227	0.257	0.233	0.207	0.296	0.257	0.253	0.276
265.0	32.47	24.20	25.86	118.4	395.7	289.5	108.5	535.9	2415	2455	242.9	10.54	4.673	3.322	2.542	2.140	1.792	1.756	1.338	1.225	1.173	0.952	0.994	0.871	0.699	0.800	0.675	0.721	0.582	0.560	0.526	0.510	0.553	0.388	0.389	0.355	0.438	0.332	0.296	0.310	0.296	0.290	0.358	0.282	0.354	0.348	0.280	0.321	0.251	0.287	0.346	0.787	1.426	2.159	1.843	0.814	0.437	0.613	1.179	2.522	5.884	12.53	17.48	12.44	4.039	0.671	0.261	0.243	0.297	0.275	0.283	0.214	0.268	0.320	0.296	0.269	0.306
270.0	43.90	32.01	23.42	42.02	169.4	414.9	321.8	181.1	728.7	2179	2825	874.7	47.49	4.324	3.292	2.549	2.144	1.814	1.502	1.293	1.145	1.048	1.017	0.940	0.840	0.803	0.818	0.713	0.619	0.638	0.623	0.556	0.591	0.482	0.383	0.420	0.399	0.402	0.317	0.386	0.311	0.343	0.404	0.348	0.342	0.336	0.327	0.355	0.280	0.244	0.244	0.363	0.568	1.103	1.605	2.103	1.952	1.164	0.656	0.905	1.674	3.502	6.994	10.65	14.16	13.61	8.884	3.315	0.711	0.300	0.278	0.226	0.239	0.266	0.296	0.275	0.311
275.0	103.9	85.94	50.09	31.36	55.58	169.4	532.8	368.6	235.7	579.8	1740	4237	1138	37.66	3.958	3.021	2.442	1.859	1.637	1.342	1.432	1.038	0.903	0.989	0.742	0.747	0.858	0.757	0.684	0.652	0.591	0.592	0.536	0.534	0.582	0.536	0.591	0.487	0.356	0.401	0.429	0.445	0.392	0.484	0.498	0.440	0.445	0.377	0.409	0.257	0.277	0.328	0.386	0.502	0.573	0.886	2.002	3.113	2.412	1.224	0.762	1.169	2.037	2.814	4.006	7.113	14.37	19.75	13.96	3.484	0.489	0.262	0.271	0.254	0.280	0.248	0.274
280.0	164.1	129.3	83.15	47.76	37.26	67.48	310.4	681.4	286.7	225.2	545.1	2777	4136	186.4	15.29	3.869	2.864	1.968	1.804	1.437	1.534	0.994	1.144	1.037	0.867	0.794	0.891	0.725	0.699	0.684	0.589	0.594	0.595	0.588	0.766	0.529	0.679	0.543	0.470	0.590	0.615	0.542	0.473	0.519	0.534	0.606	0.500	0.452	0.474	0.369	0.377	0.313	0.327	0.368	0.403	0.448	0.791	1.732	3.175	3.284	1.810	0.936	0.927	1.347	1.452	2.237	4.549	10.59	19.38	19.85	10.57	2.019	0.345	0.332	0.341	0.264	0.274
285.0	224.2	184.4	131.4	70.67	47.61	52.10	141.0	561.3	656.1	236.4	259.4	894.7	3501	3323	135.7	8.280	3.588	2.860	2.094	1.534	1.546	1.149	1.061	0.943	1.028	0.890	0.901	0.664	0.742	0.690	0.618	0.505	0.559	0.558	0.778	0.798	0.753	0.673	0.537	0.605	0.569	0.664	0.594	0.574	0.672	0.676	0.571	0.629	0.547	0.455	0.412	0.375	0.334	0.326	0.385	0.384	0.553	0.840	1.610	3.064	3.889	2.545	1.184	0.898	0.968	1.363	1.781	3.161	6.831	14.21	21.15	16.85	6.600	0.947	0.323	0.275	0.337
290.0	292.0	272.2	198.8	123.4	83.49	82.26	119.3	274.5	652.7	705.1	365.5	406.5	1098	2695	2385	509.3	27.69	3.854	2.578	2.096	1.596	1.553	1.278	1.007	1.020	0.948	0.908	0.749	0.808	0.657	0.616	0.572	0.543	0.716	0.891	0.884	0.983	0.803	0.591	0.618	0.657	0.696	0.690	0.724	0.781	0.917	0.690	0.806	0.734	0.557	0.477	0.499	0.486	0.471	0.488	0.585	0.608	0.679	0.894	1.425	2.218	3.198	3.574	3.145	2.006	1.310	1.338	1.701	2.452	4.138	7.354	11.44	15.29	15.81	11.29	5.008	1.028
295.0	343.4	360.8	274.2	188.3	139.3	144.4	169.7	224.4	372.6	800.5	922.1	451.4	501.9	790.3	1585	3647	674.7	23.09	3.846	2.506	1.919	1.406	1.411	0.957	0.927	1.003	0.866	0.861	0.935	0.694	0.641	0.700	0.573	0.712	0.887	0.977	1.068	0.799	0.633	0.737	0.715	0.785	0.764	0.791	0.978	0.967	0.890	0.917	0.852	0.722	0.687	0.666	0.587	0.656	0.698	0.736	0.714	0.846	0.946	1.108	1.345	1.795	2.227	4.056	5.026	3.596	2.108	1.818	1.841	2.030	2.617	3.556	4.413	6.274	13.07	20.26	16.08
300.0	385.2	403.8	325.3	246.0	184.4	191.8	225.4	276.6	360.2	605.3	1188	836.0	490.8	436.9	561.1	2432	3349	106.6	10.23	3.210	2.392	1.789	1.432	1.362	1.272	1.211	0.964	0.853	0.876	0.691	0.777	0.541	0.650	0.740	0.882	0.920	1.171	0.842	0.949	0.781	0.838	0.780	0.833	0.812	1.025	1.095	0.945	1.107	1.058	0.880	0.742	0.918	0.792	0.756	0.824	0.800	0.883	1.129	1.132	1.295	1.532	1.798	1.872	2.471	3.913	5.510	4.693	3.034	2.203	2.025	1.943	2.157	2.013	2.436	4.189	8.926	17.55
305.0	434.1	460.6	387.7	288.2	236.5	252.5	302.9	364.8	434.8	595.2	1021	1382	759.1	491.6	398.5	826.3	2974	2668	82.56	5.722	2.937	2.170	1.542	1.522	1.293	1.297	0.999	0.915	0.898	0.790	0.777	0.740	0.748	0.755	0.779	0.965	1.008	1.043	0.902	0.819	0.870	0.835	0.849	0.865	1.071	1.207	1.136	1.276	1.016	0.987	0.892	1.053	0.970	0.924	0.906	1.140	1.214	1.323	1.502	1.741	1.865	2.007	2.260	2.371	2.897	4.025	5.804	5.857	4.293	2.996	2.514	2.241	1.984	2.030	2.212	3.049	5.761
310.0	457.7	522.0	460.2	349.6	304.3	313.8	376.9	449.4	527.2	651.0	861.4	1243	1275	737.9	460.4	425.2	984.3	2239	2350	335.3	17.53	2.897	2.095	1.713	1.472	1.374	1.069	1.093	0.955	0.820	0.730	0.784	0.724	0.721	0.851	0.949	0.912	1.049	0.901	0.852	0.924	0.847	0.904	0.944	1.103	1.213	1.245	1.423	1.368	1.182	1.067	1.249	1.170	1.174	1.168	1.358	1.474	1.699	1.793	1.952	2.048	2.280	2.550	2.679	2.975	3.315	4.145	4.967	5.555	5.701	4.442	3.233	2.619	2.393	2.099	1.977	2.447
315.0	548.1	603.6	552.8	437.0	352.3	352.1	424.2	501.2	593.6	710.0	868.5	1036	1226	1224	642.8	408.9	456.2	653.0	1458	2818	465.0	12.07	2.969	1.910	1.633	1.460	1.273	1.117	1.049	0.836	0.882	0.735	0.753	0.736	0.923	0.884	0.889	0.988	0.913	0.919	0.906	0.760	0.899	1.151	1.264	1.484	1.496	1.768	1.502	1.230	1.177	1.516	1.371	1.449	1.584	1.557	1.711	1.960	1.924	2.055	2.148	2.505	2.702	3.025	3.341	3.482	3.859	4.100	4.443	4.831	5.920	5.633	4.206	2.955	2.233	1.936	1.955
320.0	678.0	875.4	798.1	558.2	413.2	394.5	453.8	544.8	643.3	785.2	945.4	1070	1114	1319	995.8	504.6	398.3	323.7	456.4	1992	2482	74.63	6.407	2.680	1.976	1.603	1.362	1.298	1.066	1.023	0.927	0.806	0.830	0.812	0.822	0.891	0.911	1.029	0.892	0.877	0.845	0.918	1.038	1.270	1.465	1.662	2.126	2.510	1.950	1.833	1.538	1.578	1.477	1.671	1.520	1.699	1.927	2.174	2.126	2.160	2.249	2.777	3.050	3.095	3.580	3.716	4.018	4.031	4.236	4.409	4.616	5.427	5.797	4.815	3.245	2.360	2.101
325.0	854.4	1230	1227	788.7	488.8	441.0	490.4	586.3	691.1	837.0	1021	1138	1134	1158	1232	713.3	432.0	288.9	219.4	622.7	2325	1918	58.65	4.758	2.436	1.856	1.485	1.380	1.207	0.997	0.903	0.846	0.777	0.723	0.930	0.837	0.914	1.011	0.925	0.863	0.991	1.088	1.084	1.375	1.739	2.180	2.580	3.257	3.074	2.844	2.155	2.158	1.874	1.828	1.508	1.819	1.934	2.084	2.209	2.466	2.769	2.997	3.281	3.456	3.607	4.043	4.259	4.147	4.711	4.527	4.337	4.747	5.184	6.162	5.340	3.407	2.615
330.0	968.0	1479	1556	1114	672.5	526.5	515.2	617.3	714.4	871.4	1040	1179	1176	1095	1083	990.3	626.2	349.8	221.0	252.2	722.0	1733	1435	258.2	14.43	2.659	1.861	1.468	1.310	1.133	1.010	0.939	0.863	0.808	0.913	0.840	0.901	0.949	1.003	0.948	0.953	1.123	1.282	1.475	2.062	2.561	3.197	3.744	4.107	3.560	3.050	2.979	2.500	2.119	1.927	1.914	2.110	2.214	2.329	2.685	2.903	3.036	3.231	3.551	3.696	4.038	4.379	4.452	4.598	4.730	4.545	4.580	4.707	4.710	4.740	4.727	4.657
335.0	1071	1652	1822	1343	904.8	629.1	574.3	645.9	731.4	905.8	1061	1202	1212	1128	999.3	911.0	911.3	531.2	292.0	227.2	281.4	486.5	1173	2303	376.7	10.95	2.717	1.821	1.430	1.183	1.005	1.088	0.778	0.868	0.844	0.815	0.979	0.910	1.072	0.896	1.029	1.224	1.443	1.711	2.254	2.680	3.517	4.390	4.609	4.260	3.769	3.897	3.065	2.832	2.399	2.222	2.183	2.377	2.388	2.590	2.868	2.934	3.502	3.563	3.706	4.164	4.264	4.793	4.790	4.545	4.834	4.796	4.736	4.339	4.295	4.168	4.740
340.0	1074	1722	1962	1492	1006	710.4	603.0	641.0	742.2	905.6	1067	1215	1220	1142	999.4	850.1	880.8	752.3	389.8	265.3	220.2	219.8	380.9	1712	2079	61.98	5.987	2.184	1.634	1.556	1.317	0.991	0.893	0.852	0.812	0.915	0.969	0.917	0.991	0.922	1.065	1.223	1.379	1.632	2.151	2.928	3.646	4.685	4.965	4.572	3.808	4.002	3.578	3.304	2.624	2.374	2.448	2.611	2.487	2.713	2.902	2.928	3.419	3.566	3.667	3.757	4.529	4.736	4.741	4.767	4.901	4.522	4.445	4.445	4.408	3.952	4.101
345.0	1032	1667	1956	1551	1079	756.7	634.7	657.9	741.8	894.7	1039	1184	1185	1132	996.8	841.7	770.2	814.0	564.0	319.4	239.5	190.5	181.3	547.9	1987	1616	50.47	4.054	2.294	1.596	1.471	1.042	0.854	0.970	0.744	0.864	0.822	0.983	0.947	0.990	1.080	1.177	1.381	1.559	2.130	2.811	3.401	4.509	4.844	4.756	3.932	4.449	3.823	3.234	2.798	2.469	2.488	2.528	2.580	2.735	2.878	3.051	3.258	3.432	3.730	3.893	4.337	4.884	4.492	4.859	4.899	4.621	4.424	4.297	4.270	3.859	3.980
350.0	913.3	1491	1773	1554	1157	842.1	687.3	681.8	749.6	863.4	1003	1118	1144	1103	992.1	857.8	749.4	710.7	703.7	504.9	318.0	236.3	182.4	213.8	615.0	1448	1160	222.4	12.50	2.591	1.568	1.180	1.041	0.935	0.912	0.882	0.919	0.965	0.977	0.882	0.994	1.083	1.264	1.564	1.987	2.703	3.245	4.068	4.444	4.538	4.059	4.546	3.982	3.616	3.075	2.657	2.646	2.727	2.772	2.776	2.927	3.008	3.216	3.568	3.744	3.908	3.967	4.460	4.290	4.495	4.715	4.629	4.640	4.300	4.367	3.967	3.991
355.0	860.1	1348	1657	1517	1211	911.5	743.9	729.2	782.3	877.8	990.2	1074	1106	1077	979.7	875.3	778.4	689.6	641.2	673.9	489.8	309.4	231.6	179.6	219.2	389.8	943.4	1845	329.7	9.459	2.420	1.444	1.217	1.009	0.979	1.028	0.970	0.895	0.968	0.875	1.072	0.955	1.202	1.439	1.900	2.537	2.998	3.744	4.167	3.927	3.929	4.668	4.076	3.851	3.274	2.856	3.094	2.819	2.761	2.832	3.067	3.173	3.233	3.442	3.654	3.694	4.027	4.208	4.309	4.291	4.545	4.506	4.556	4.447	4.566	4.169	4.143
360.0	786.6	1261	1544	1454	1223	960.6	802.6	768.1	796.2	879.2	974.5	1057	1069	1050	980.3	888.7	800.9	708.9	631.6	648.5	639.6	406.7	280.9	203.8	161.4	159.6	295.2	1391	1744	56.08	5.088	2.242	1.458	1.218	1.004	0.962	1.014	1.082	0.986	1.048	0.964	1.026	1.145	1.395	1.620	2.504	2.590	3.285	3.709	3.853	3.865	4.319	4.064	3.978	3.405	3.105	3.216	3.047	2.939	3.064	3.014	3.167	3.357	3.542	3.518	3.779	4.008	4.127	4.049	4.255	4.480	4.579	4.453	4.388	4.234	4.502	4.289
365.0	746.3	1145	1442	1406	1213	999.1	851.7	801.6	818.3	879.8	973.4	1039	1056	1032	974.2	889.7	813.7	736.8	652.1	609.4	663.3	545.5	341.2	241.7	174.1	130.6	130.5	441.2	1700	1411	45.89	3.694	1.809	1.541	1.046	0.957	1.145	0.983	0.976	1.041	0.924	1.112	1.168	1.424	1.690	2.055	2.539	3.137	3.583	3.574	3.558	4.234	4.138	3.939	3.502	3.222	3.371	3.168	3.024	2.960	3.019	3.429	3.599	3.390	3.413	3.757	3.780	3.749	4.240	4.251	4.395	4.350	4.217	4.456	4.399	4.266	4.299
370.0	679.7	1053	1336	1326	1218	1029	898.5	847.3	832.1	890.2	965.8	1011	1025	995.5	947.4	885.8	824.0	757.7	687.3	625.7	603.7	612.8	490.7	314.8	222.1	164.7	124.2	163.6	521.6	1297	1373	198.4	10.93	2.070	1.303	1.185	1.139	1.033	0.915	0.933	0.930	1.022	1.172	1.312	1.616	2.078	2.381	2.938	3.274	3.480	3.562	4.248	4.177	4.088	3.593	3.386	3.409	3.209	3.213	3.299	3.363	3.231	3.362	3.350	3.539	3.712	3.902	3.901	3.935	3.959	4.002	4.343	4.057	4.381	4.166	4.192	4.227
375.0	647.3	974.6	1224	1262	1206	1068	942.4	880.8	858.2	894.7	959.7	983.2	986.6	966.5	918.4	858.6	818.1	761.8	713.4	651.2	600.9	563.1	579.5	453.2	287.4	213.2	160.5	132.0	180.7	345.1	938.3	1631	282.9	8.528	2.040	1.359	1.137	1.007	1.019	0.960	0.831	0.997	1.071	1.238	1.443	1.902	2.240	2.845	3.052	3.167	3.118	4.032	4.071	4.141	3.566	3.636	3.593	3.305	3.595	3.432	3.305	3.422	3.536	3.526	3.755	3.563	3.792	3.762	3.764	4.045	3.984	3.802	4.020	4.076	3.984	4.096	4.128
380.0	631.3	904.4	1145	1228	1174	1060	961.2	900.9	879.1	896.9	938.1	950.9	963.8	932.8	887.6	838.8	809.3	759.7	713.8	670.9	616.0	561.9	550.4	546.7	374.9	259.0	195.8	147.3	124.1	134.8	281.5	1222	1451	46.38	4.653	2.072	1.455	1.238	1.067	1.031	0.969	1.083	1.028	1.204	1.471	1.951	2.110	2.674	2.842	2.901	3.104	4.125	4.050	3.946	3.810	3.521	3.629	3.727	3.228	3.357	3.331	3.543	3.577	3.671	3.809	3.656	3.607	4.007	3.923	3.854	4.009	3.875	3.839	4.454	4.167	3.997	4.256
385.0	581.5	872.1	1091	1165	1132	1070	970.3	897.5	881.9	884.0	924.6	942.3	927.5	901.3	860.0	810.1	788.9	755.9	713.1	673.1	622.8	567.0	522.6	542.2	473.8	313.8	231.2	177.2	132.7	102.9	111.6	381.4	1370	1106	36.79	3.206	2.063	1.449	1.166	1.020	1.069	1.001	1.277	1.260	1.311	1.782	2.081	2.311	2.849	2.677	2.987	3.833	3.740	3.800	4.024	3.755	3.502	3.522	3.408	3.404	3.419	3.564	3.340	3.282	3.718	3.739	3.399	3.615	3.665	3.701	3.816	3.860	3.932	3.986	4.011	3.913	4.027
390.0	587.0	828.2	1035	1080	1103	1051	977.1	911.7	883.3	875.8	902.0	908.1	885.8	863.0	822.9	779.3	752.4	734.7	700.8	668.3	626.9	579.3	530.9	500.7	499.5	426.0	294.1	217.6	167.7	126.1	97.73	134.6	412.6	981.2	1022	158.7	10.41	2.460	1.427	1.363	1.087	1.065	1.145	1.236	1.411	1.760	1.923	2.269	2.619	2.537	2.854	3.696	3.663	3.674	3.859	3.892	3.816	3.526	3.473	3.511	3.422	3.400	3.331	3.405	3.434	3.472	3.542	3.477	3.382	3.637	3.526	3.659	3.735	3.785	3.707	3.956	3.718
395.0	573.5	790.0	986.8	1055	1076	1043	971.2	916.4	873.5	874.9	883.0	880.1	863.4	837.8	796.6	752.0	721.2	699.8	682.1	658.0	624.1	592.8	550.5	507.6	469.3	480.1	407.4	283.8	217.2	173.0	130.4	105.4	143.7	263.3	664.3	1214	241.9	9.644	2.429	1.760	1.272	1.120	1.181	1.274	1.427	1.687	1.869	2.114	2.559	2.478	2.605	3.589	3.481	3.606	3.591	3.898	3.849	3.712	3.537	3.694	3.503	3.333	3.394	3.419	3.609	3.469	3.293	3.313	3.381	3.399	3.473	3.542	3.497	3.431	3.851	3.802	3.708
400.0	532.2	772.4	936.4	1018	1045	1036	966.9	934.0	877.6	882.5	893.7	875.0	863.2	831.9	775.1	732.6	705.5	676.6	663.5	644.9	622.9	598.5	566.3	523.7	483.1	471.5	477.0	370.6	271.9	218.4	171.4	128.3	105.0	110.8	206.9	861.1	1096	40.91	5.463	2.285	1.485	1.234	1.219	1.355	1.516	1.607	1.853	2.173	2.455	2.439	2.707	3.629	3.394	3.483	3.583	3.599	3.716	3.939	3.602	3.512	3.266	3.280	3.319	3.653	3.465	3.427	3.289	3.141	3.029	3.195	3.450	3.339	3.315	3.550	3.585	3.506	3.616
405.0	535.7	731.7	916.2	975.6	1034	1026	987.6	930.8	896.6	885.4	896.2	888.7	861.8	819.2	769.4	717.5	682.1	660.7	647.8	633.3	619.4	604.5	575.8	547.3	510.4	478.9	487.0	462.8	343.6	268.5	216.2	166.0	123.1	96.75	99.24	275.9	968.3	863.9	34.57	3.392	1.782	1.434	1.193	1.401	1.529	1.405	1.766	2.007	2.262	2.395	2.489	3.365	3.403	3.573	3.437	3.650	3.742	3.882	3.588	3.545	3.398	3.401	3.341	3.362	3.487	3.316	3.295	3.082	3.182	3.128	3.278	3.300	3.517	3.496	3.269	3.342	3.552
410.0	507.7	696.5	852.0	946.0	982.6	992.9	980.5	937.5	898.9	888.5	882.7	874.6	851.7	801.3	750.8	695.8	652.4	629.9	618.2	610.9	600.4	593.5	576.4	559.5	528.7	499.6	477.7	479.4	437.3	336.3	263.3	205.7	155.7	117.0	93.73	115.4	295.5	706.2	773.0	149.5	9.204	1.908	1.504	1.345	1.379	1.478	1.772	2.052	2.167	2.243	2.475	3.205	3.286	3.401	3.334	3.538	3.801	3.731	3.644	3.610	3.474	3.460	3.395	3.410	3.374	3.210	3.083	3.167	3.244	3.066	3.213	3.173	3.361	3.257	3.173	3.325	3.226
415.0	490.2	680.3	812.6	880.1	936.8	953.0	953.8	919.7	885.8	860.4	848.9	844.4	807.5	754.3	695.8	656.5	608.8	593.1	581.6	576.4	570.4	565.2	555.4	541.9	523.4	495.1	466.5	446.4	446.4	405.9	299.1	229.3	174.0	132.4	100.5	84.53	105.3	186.6	446.8	882.3	220.0	7.991	1.962	1.585	1.596	1.628	1.769	1.859	2.263	2.172	2.416	3.061	3.161	3.244	3.328	3.414	3.657	3.696	3.645	3.343	3.360	3.203	3.349	3.260	3.255	3.135	3.223	3.045	3.158	2.978	2.904	3.276	3.176	3.171	3.030	3.061	3.161
