Sample:	'1
File name:	W102407顶峰热电原水.FD3
Run date:	'10:06:04, 10/25/2024
Operator:	horiz
Comment:	'

Instrument
Model:	F-2700 FL Spectrophotometer
Serial number:	23B8-004
ROM Version:	4J14000 07

Instrument parameters
Measurement type:	3-D scan
Data mode:	Fluorescence
EX  Start WL:	220.0 nm
EX  End WL:	600.0 nm
EX Sampling interval:	5.0 nm
EM  Start WL:	230.0 nm
EM  End WL:	650.0 nm
EM Sampling interval:	5.0 nm
Scan speed:	12000 nm/min
EX Slit:	5.0 nm
EM Slit:	5.0 nm
PMT Voltage:	700 V
Response:	Auto 
Corrected spectra:	Off
Contour interval:	50.000

Peak integration
Integration method:	Rectangular
Sensitivity:	1
Threshold:	1.000

Peaks
No.	ApexEX/EM(nm)	Height(Data)
1	225.0/560.0	42.96
2	225.0/610.0	77.11
3	225.0/620.0	73.25
4	225.0/635.0	56.37
5	230.0/345.0	1401
6	230.0/500.0	272.0
7	235.0/510.0	229.5
8	240.0/265.0	424.5
9	240.0/525.0	218.8
10	245.0/535.0	183.3
11	250.0/550.0	150.6
12	255.0/280.0	622.0
13	255.0/560.0	131.8
14	260.0/290.0	727.9
15	260.0/575.0	127.7
16	265.0/590.0	136.0
17	270.0/600.0	155.1
18	275.0/310.0	2333
19	275.0/610.0	158.4
20	280.0/315.0	2049
21	280.0/625.0	125.6
22	305.0/345.0	591.2
23	315.0/355.0	447.5
24	320.0/365.0	427.1
25	325.0/370.0	400.4
26	330.0/375.0	389.1
27	335.0/380.0	390.6
28	345.0/395.0	311.3
29	350.0/400.0	323.7
30	355.0/405.0	303.2
31	365.0/420.0	237.5
32	370.0/425.0	216.2
33	395.0/460.0	92.01
34	400.0/465.0	79.06
35	415.0/485.0	46.87
36	425.0/500.0	34.23
37	430.0/505.0	29.18
38	440.0/520.0	21.34
39	455.0/540.0	11.64
40	460.0/340.0	3.744
41	470.0/560.0	5.369
42	475.0/350.0	3.711
43	505.0/275.0	2.772
44	510.0/280.0	3.297
45	515.0/285.0	3.201
46	535.0/270.0	42.58
47	550.0/305.0	9.382
48	560.0/310.0	9.164
49	570.0/315.0	8.279

Wavelength data
No.	EX/EM(nm)	Height(Data)	

Data points
	220.0	225.0	230.0	235.0	240.0	245.0	250.0	255.0	260.0	265.0	270.0	275.0	280.0	285.0	290.0	295.0	300.0	305.0	310.0	315.0	320.0	325.0	330.0	335.0	340.0	345.0	350.0	355.0	360.0	365.0	370.0	375.0	380.0	385.0	390.0	395.0	400.0	405.0	410.0	415.0	420.0	425.0	430.0	435.0	440.0	445.0	450.0	455.0	460.0	465.0	470.0	475.0	480.0	485.0	490.0	495.0	500.0	505.0	510.0	515.0	520.0	525.0	530.0	535.0	540.0	545.0	550.0	555.0	560.0	565.0	570.0	575.0	580.0	585.0	590.0	595.0	600.0
230.0	46.91	1155	3941	1572	62.21	5.601	4.442	3.680	3.454	3.454	3.156	2.903	2.555	2.150	1.706	1.509	1.380	1.176	1.112	0.937	0.946	0.810	0.683	0.695	0.596	0.546	0.480	0.498	0.462	0.429	0.368	0.347	0.334	0.344	0.312	0.275	0.245	0.265	0.268	0.222	0.289	0.394	0.496	0.288	0.227	0.229	1.153	6.298	11.36	8.432	3.072	0.529	0.152	0.137	0.149	0.143	0.129	0.129	0.132	0.125	0.131	0.108	0.112	0.102	0.105	0.104	0.099	0.098	0.096	0.098	0.072	0.091	0.120	0.088	0.100	0.096	0.109
235.0	117.3	322.2	2112	4155	736.6	89.13	7.553	4.736	4.549	3.790	3.341	3.233	2.710	2.259	1.948	1.591	1.508	1.240	1.128	0.989	0.864	0.775	0.678	0.687	0.718	0.601	0.531	0.516	0.509	0.432	0.421	0.311	0.322	0.262	0.282	0.284	0.233	0.296	0.260	0.238	0.236	0.288	0.288	0.470	0.441	0.375	0.384	1.672	4.140	7.590	11.47	11.82	5.125	0.961	0.166	0.175	0.123	0.133	0.114	0.144	0.141	0.134	0.107	0.155	0.102	0.094	0.100	0.097	0.101	0.083	0.087	0.080	0.089	0.112	0.093	0.087	0.109
240.0	169.7	173.8	601.0	3133	4509	591.1	39.56	6.658	5.067	4.592	4.934	3.499	3.027	2.818	2.196	1.784	1.429	1.236	1.242	1.194	0.771	0.802	0.817	0.667	0.545	0.560	0.521	0.416	0.483	0.404	0.408	0.342	0.331	0.270	0.305	0.252	0.294	0.252	0.227	0.235	0.215	0.267	0.212	0.409	0.609	0.716	0.402	0.555	1.087	2.329	6.444	14.96	18.21	11.60	3.810	0.437	0.145	0.186	0.177	0.125	0.159	0.121	0.103	0.106	0.111	0.094	0.122	0.118	0.093	0.101	0.114	0.108	0.107	0.099	0.115	0.091	0.091
245.0	131.5	229.6	218.1	1016	4540	4400	439.4	17.59	7.602	5.950	5.789	4.275	3.437	2.500	2.158	2.083	1.288	1.307	1.285	1.262	1.054	0.892	0.869	0.714	0.638	0.739	0.500	0.506	0.422	0.403	0.466	0.383	0.342	0.346	0.364	0.305	0.316	0.270	0.216	0.275	0.245	0.253	0.201	0.273	0.405	0.592	0.810	0.664	0.461	0.703	1.616	5.163	12.87	21.67	19.85	10.11	2.276	0.266	0.207	0.109	0.129	0.107	0.117	0.140	0.116	0.110	0.102	0.125	0.109	0.108	0.129	0.113	0.107	0.101	0.129	0.085	0.089
250.0	50.12	153.4	287.1	338.8	1417	4292	5253	1554	85.53	8.923	6.801	5.430	3.916	3.099	2.642	2.266	1.629	1.599	1.315	1.259	1.020	1.047	0.827	0.719	0.720	0.784	0.602	0.543	0.499	0.475	0.515	0.421	0.335	0.350	0.367	0.309	0.299	0.270	0.246	0.302	0.304	0.287	0.257	0.263	0.215	0.310	0.470	0.746	0.914	0.847	0.726	1.372	3.215	7.239	13.06	20.15	24.48	18.02	9.485	2.336	0.235	0.139	0.159	0.141	0.149	0.122	0.121	0.151	0.137	0.093	0.131	0.137	0.134	0.106	0.123	0.113	0.102
255.0	29.33	50.27	191.4	363.8	419.5	1077	4302	8345	2072	77.71	8.752	7.417	4.965	4.182	2.966	2.535	1.980	1.847	1.330	1.276	0.995	1.123	1.066	0.798	0.842	0.675	0.614	0.503	0.507	0.529	0.527	0.360	0.347	0.377	0.326	0.307	0.316	0.258	0.257	0.309	0.313	0.369	0.278	0.244	0.240	0.207	0.270	0.349	0.511	1.009	1.375	1.211	1.056	1.801	3.093	4.969	10.12	23.45	38.62	27.74	13.42	2.161	0.263	0.166	0.146	0.145	0.146	0.120	0.145	0.129	0.141	0.184	0.118	0.100	0.113	0.099	0.099
260.0	29.72	28.54	71.32	305.6	373.4	303.4	1279	7221	8869	329.4	31.44	10.46	6.433	5.266	3.961	3.065	2.190	2.038	1.653	1.617	1.418	1.144	0.949	0.826	0.853	0.746	0.671	0.642	0.565	0.564	0.475	0.440	0.418	0.420	0.289	0.306	0.317	0.323	0.297	0.312	0.321	0.302	0.246	0.284	0.250	0.266	0.233	0.221	0.294	0.448	0.936	1.774	1.492	0.977	0.887	1.274	2.462	6.539	18.83	37.21	47.07	25.30	8.925	1.097	0.236	0.189	0.178	0.177	0.197	0.148	0.142	0.122	0.134	0.132	0.121	0.110	0.097
265.0	30.15	24.34	33.21	137.1	424.5	276.6	332.9	2446	9999.9	7979	261.5	17.71	8.708	6.387	4.575	3.078	2.998	2.096	1.537	1.657	1.407	1.217	1.268	0.716	0.850	0.772	0.806	0.567	0.659	0.696	0.546	0.425	0.381	0.472	0.380	0.350	0.371	0.316	0.356	0.297	0.248	0.316	0.277	0.236	0.329	0.243	0.238	0.268	0.237	0.240	0.444	0.861	1.651	1.907	1.199	0.677	0.845	1.726	4.599	11.90	30.13	49.49	33.35	20.83	4.507	0.384	0.192	0.173	0.164	0.178	0.169	0.132	0.190	0.127	0.154	0.135	0.147
270.0	39.11	29.50	27.90	50.64	200.9	434.4	320.1	610.2	3254	9230	9999.9	995.2	55.89	9.593	6.456	4.516	3.532	2.807	2.201	1.845	1.770	1.232	1.257	1.062	0.912	0.778	0.805	0.722	0.699	0.694	0.672	0.480	0.485	0.465	0.434	0.458	0.398	0.386	0.310	0.335	0.338	0.298	0.312	0.302	0.327	0.285	0.269	0.267	0.262	0.216	0.240	0.382	0.667	1.218	1.762	1.861	1.510	0.928	1.344	2.966	7.263	15.26	25.48	42.58	41.51	39.81	14.27	4.157	0.517	0.187	0.191	0.204	0.225	0.156	0.179	0.149	0.204
275.0	63.98	58.42	48.13	41.62	73.33	204.1	554.2	388.8	782.5	2337	9033	9999.9	1345	46.62	10.43	6.542	4.716	3.833	3.042	1.996	1.932	1.370	1.434	1.183	1.140	1.022	0.889	0.779	0.731	0.673	0.708	0.529	0.535	0.559	0.580	0.469	0.531	0.458	0.388	0.387	0.305	0.346	0.357	0.343	0.377	0.380	0.364	0.358	0.316	0.260	0.279	0.263	0.301	0.535	0.729	1.177	2.440	2.772	1.782	1.139	1.950	3.703	6.077	10.18	15.31	39.23	66.75	33.32	20.92	3.955	0.419	0.187	0.255	0.192	0.153	0.167	0.262
280.0	118.7	117.3	89.46	60.73	52.69	96.96	381.2	622.0	335.6	607.2	2722	9999.9	9999.9	898.7	22.79	9.056	6.097	3.977	3.275	2.888	2.163	1.692	1.597	1.378	1.152	0.935	0.967	0.909	0.863	0.703	0.678	0.654	0.716	0.687	0.684	0.527	0.574	0.540	0.430	0.513	0.471	0.517	0.422	0.420	0.476	0.502	0.498	0.450	0.447	0.325	0.348	0.360	0.420	0.359	0.411	0.598	1.147	2.278	3.297	2.181	1.184	1.277	1.742	2.643	4.021	10.19	27.20	53.10	75.86	31.56	15.30	1.606	0.306	0.210	0.223	0.169	0.226
285.0	200.0	217.2	153.8	106.4	70.81	79.58	178.5	611.4	425.6	318.8	795.8	3891	9999.9	8245	136.9	13.99	7.812	5.435	3.953	3.255	2.671	1.776	1.784	1.552	1.172	1.066	1.198	0.885	0.899	0.785	0.642	0.674	0.713	0.692	0.791	0.676	0.782	0.750	0.505	0.693	0.529	0.575	0.618	0.562	0.597	0.681	0.615	0.713	0.643	0.528	0.406	0.479	0.385	0.415	0.352	0.437	0.582	1.086	1.967	3.201	3.075	1.659	1.008	1.286	1.654	3.102	7.107	15.46	39.49	66.79	75.76	27.42	9.307	0.803	0.336	0.220	0.196
290.0	385.6	444.9	362.6	209.7	120.9	110.7	151.5	345.2	727.9	706.0	688.9	1372	4174	9999.9	9637	527.3	32.57	8.332	5.536	3.943	3.230	2.478	2.080	1.823	1.475	1.128	1.259	1.010	1.002	0.884	0.887	0.707	0.809	0.994	0.983	1.007	1.137	0.917	0.901	0.756	0.768	0.742	0.758	0.851	0.947	1.122	1.159	1.320	1.143	0.828	0.701	0.644	0.601	0.533	0.439	0.571	0.694	0.816	1.102	1.606	2.582	3.550	3.650	2.894	2.359	2.497	3.518	5.321	10.84	19.57	35.87	48.82	61.34	51.15	18.07	7.726	0.961
295.0	600.8	706.4	604.9	331.7	184.8	162.4	203.0	320.3	578.7	1200	1352	1184	1613	2818	9680	7950	732.4	27.29	7.202	5.632	4.074	2.942	2.399	1.890	1.681	1.524	1.343	1.232	0.996	1.041	1.060	0.828	0.917	1.099	1.273	1.570	1.350	1.291	1.099	0.983	0.791	1.021	1.042	1.174	1.445	1.624	1.837	1.915	1.645	1.292	0.892	0.843	0.755	0.634	0.681	0.721	0.781	0.949	1.183	1.353	1.953	2.760	3.513	5.587	6.095	4.508	4.170	4.295	5.547	7.026	10.16	12.40	17.39	35.31	67.43	78.19	29.00
300.0	809.2	916.0	771.6	422.0	244.3	212.4	258.1	393.2	629.7	1153	1932	1568	1263	1085	2996	9999.9	6684	103.4	14.95	7.472	5.405	3.934	2.901	2.109	2.044	1.720	1.527	1.297	1.145	1.008	0.950	0.975	1.090	1.175	1.468	1.686	1.659	1.457	1.117	0.981	1.043	1.109	1.188	1.521	1.728	2.023	2.105	2.484	2.074	1.670	1.063	1.141	0.797	0.853	0.879	0.993	1.079	1.329	1.544	1.884	2.217	2.498	3.405	4.765	6.704	7.597	7.013	5.604	4.987	5.150	5.004	4.664	5.108	9.287	22.44	53.66	80.60
305.0	911.4	1062	906.9	513.6	312.8	281.0	362.6	507.6	806.5	1238	2011	2166	1506	873.4	982.5	3906	9999.9	5271	81.93	11.47	6.944	5.045	3.665	2.835	2.460	2.035	1.749	1.431	1.307	1.229	1.001	0.913	1.017	1.353	1.610	1.700	1.809	1.511	1.255	1.205	1.165	1.280	1.511	1.716	1.902	2.188	2.628	2.807	2.434	1.835	1.396	1.338	1.058	1.149	1.017	1.220	1.424	1.478	1.933	2.469	2.898	3.448	4.132	4.660	6.290	7.818	9.382	8.561	6.717	5.836	4.889	3.843	3.032	3.532	6.287	14.17	32.73
310.0	946.7	1113	1025	597.2	392.5	366.3	462.8	642.3	938.8	1366	1889	2333	2043	1060	654.0	1152	3892	9509	7762	348.9	23.54	7.338	4.943	3.561	2.619	2.214	2.096	1.678	1.465	1.394	1.137	1.035	1.183	1.407	1.609	1.884	1.841	1.542	1.396	1.210	1.338	1.382	1.482	1.701	1.958	2.360	2.628	3.017	2.734	2.045	1.689	1.525	1.438	1.342	1.190	1.500	1.683	1.959	2.302	2.600	3.247	3.848	4.711	5.500	6.276	7.061	8.163	8.588	9.164	8.330	6.281	4.384	3.174	2.993	3.053	4.618	8.700
315.0	926.3	1153	1041	639.5	433.2	416.2	524.6	706.1	970.5	1367	1782	2047	2049	1493	694.6	576.1	1133	2469	7963	9859	525.0	20.62	6.991	5.319	3.797	2.967	2.529	2.100	1.518	1.767	1.151	1.028	1.087	1.403	1.806	1.690	1.716	1.526	1.288	1.303	1.256	1.357	1.575	1.752	1.959	2.484	2.815	2.951	2.744	2.264	1.710	1.672	1.603	1.417	1.544	1.612	1.869	2.204	2.414	2.851	3.206	3.807	4.521	5.347	6.375	6.772	7.255	7.517	7.570	7.792	8.279	6.755	4.289	3.117	2.822	2.857	3.526
320.0	928.8	1171	1114	678.6	481.9	441.4	553.6	728.9	950.2	1309	1699	1910	1797	1599	946.3	507.2	544.6	712.9	2346	9756	4809	397.5	12.19	6.732	4.544	3.424	2.843	2.307	1.806	1.753	1.360	1.158	1.214	1.268	1.662	1.730	1.632	1.476	1.250	1.217	1.351	1.383	1.533	1.805	2.024	2.642	2.696	3.243	2.780	2.235	1.927	1.817	1.595	1.605	1.545	1.686	1.915	2.245	2.553	3.005	3.276	3.777	4.645	5.233	5.916	6.592	6.833	6.697	6.683	6.982	6.631	6.819	6.310	4.843	3.158	2.428	2.407
325.0	922.6	1213	1198	763.6	518.1	456.9	544.9	726.6	924.8	1236	1590	1766	1640	1352	1171	611.4	428.1	333.9	601.5	3251	9720	4159	63.66	9.273	5.857	4.153	2.929	2.693	2.021	1.907	1.644	1.295	1.391	1.385	1.504	1.652	1.462	1.444	1.212	1.221	1.172	1.284	1.411	1.672	2.230	2.548	2.838	3.163	3.133	2.346	2.032	2.270	1.719	1.780	1.522	1.714	1.987	2.195	2.395	3.012	3.085	3.737	4.402	4.974	5.582	6.127	6.184	6.426	6.215	6.561	5.860	5.504	5.733	5.727	4.677	2.979	2.337
330.0	938.9	1260	1312	959.8	641.4	509.9	551.3	691.1	859.4	1124	1413	1577	1465	1150	976.8	828.6	512.3	267.5	237.3	797.1	3174	7038	6214	1201	20.54	5.827	4.285	3.213	2.431	2.062	1.815	1.506	1.277	1.474	1.575	1.474	1.500	1.427	1.195	1.149	1.247	1.237	1.430	1.652	2.095	2.611	2.943	3.323	3.335	2.890	2.521	2.699	2.246	2.040	1.740	1.706	2.057	2.297	2.477	2.826	3.025	3.524	3.988	4.466	4.728	5.375	5.601	5.737	5.706	5.969	5.342	4.755	4.294	4.371	4.458	4.264	3.807
335.0	929.5	1278	1378	1134	818.1	601.0	558.4	665.0	787.0	1012	1252	1405	1307	1047	810.8	722.3	730.8	353.9	186.1	267.1	772.7	1755	5801	8622	451.3	21.01	6.067	4.382	3.211	2.409	2.173	1.767	1.520	1.619	1.474	1.619	1.508	1.207	1.174	1.074	1.369	1.303	1.468	1.749	2.008	2.652	3.054	3.499	3.587	3.187	2.953	3.353	2.664	2.394	2.041	1.930	2.127	2.308	2.334	2.537	2.915	3.116	3.628	3.716	4.081	4.880	4.936	5.091	5.223	5.169	4.829	4.207	4.025	3.588	3.269	3.034	3.627
340.0	883.2	1224	1383	1186	875.7	635.9	574.5	642.4	745.1	917.0	1125	1266	1201	982.3	750.8	607.1	672.8	531.6	219.7	169.8	252.7	454.7	1667	7606	7062	367.2	10.72	5.350	4.077	2.832	2.553	1.897	1.610	1.531	1.468	1.532	1.477	1.107	1.169	1.004	1.208	1.350	1.307	1.646	2.084	2.580	2.922	3.379	3.744	3.269	3.014	3.442	2.992	2.568	2.204	2.000	2.172	2.174	2.464	2.604	2.581	3.022	3.208	3.525	4.108	4.361	4.541	4.380	4.756	4.827	4.353	4.063	3.728	3.485	3.140	2.986	2.777
345.0	835.2	1185	1401	1191	921.4	655.0	576.7	637.6	716.7	847.3	1024	1141	1098	909.4	712.1	573.9	531.1	591.2	351.3	173.7	155.7	178.7	432.2	2419	8270	3608	55.75	8.105	5.068	3.767	2.955	2.173	1.641	1.697	1.548	1.439	1.366	1.102	1.184	1.013	1.047	1.217	1.212	1.726	1.914	2.246	2.684	3.516	3.413	3.329	3.198	3.517	2.879	2.630	2.426	2.037	2.017	2.338	2.451	2.626	2.534	2.939	3.017	3.364	3.500	4.011	4.064	4.287	4.373	4.412	4.113	3.949	3.426	3.321	3.016	2.726	2.692
350.0	732.5	1086	1293	1195	951.2	704.1	611.0	632.0	686.4	793.3	922.4	1008	981.9	844.2	693.5	557.1	478.8	457.4	468.3	312.3	177.1	144.7	176.1	598.2	2533	5357	5054	1162	19.95	4.833	3.478	2.584	1.922	1.799	1.478	1.364	1.292	1.211	1.096	0.991	1.067	1.228	1.214	1.552	1.853	2.101	2.604	3.098	3.378	3.301	2.986	3.711	3.188	2.723	2.561	2.411	2.183	2.329	2.454	2.469	2.430	2.746	2.961	3.067	3.229	3.642	3.616	3.886	3.794	3.741	3.792	3.519	3.248	3.302	2.879	2.631	2.566
355.0	685.6	967.8	1196	1141	965.8	746.0	655.7	650.2	671.6	751.2	836.9	908.9	886.3	779.5	662.5	558.6	476.2	405.8	390.1	447.5	298.9	174.9	143.8	212.1	618.8	1303	4019	6985	423.7	22.63	4.888	3.226	2.334	2.034	1.759	1.340	1.229	1.387	1.063	1.193	1.049	1.192	1.168	1.352	1.661	2.146	2.384	2.827	3.094	3.064	2.942	3.533	3.149	2.967	2.624	2.479	2.516	2.343	2.385	2.527	2.418	2.654	3.018	3.057	3.111	3.465	3.162	3.558	3.140	3.241	3.484	3.079	3.163	3.147	2.912	2.821	2.802
360.0	607.1	882.2	1088	1097	954.8	789.9	679.1	674.6	685.5	747.1	798.1	848.9	822.9	744.2	642.7	558.5	482.0	415.5	359.6	403.0	420.4	238.5	159.4	143.6	205.9	337.7	1096	5389	6203	372.8	13.30	4.184	2.954	2.476	1.760	1.466	1.438	1.286	1.156	1.051	1.119	1.268	1.208	1.196	1.659	1.904	2.329	2.764	2.930	2.829	2.835	3.498	2.941	2.844	2.755	2.471	2.686	2.549	2.466	2.471	2.612	2.700	2.869	2.859	2.954	3.116	3.116	3.176	3.176	3.139	3.080	3.034	2.902	2.968	2.658	2.444	2.632
365.0	573.3	839.3	1052	1049	938.5	804.8	697.9	677.7	671.8	724.0	765.5	808.4	788.3	717.1	644.7	556.6	490.1	427.7	373.1	354.6	427.1	357.6	197.0	145.7	129.0	135.0	288.4	1597	6243	3408	54.46	8.028	3.823	3.028	2.247	1.664	1.438	1.322	1.098	1.047	1.179	1.219	1.117	1.291	1.612	1.899	2.288	2.560	2.840	2.565	2.749	3.446	3.111	2.818	2.707	2.508	2.709	2.863	2.662	2.549	2.620	2.848	2.910	2.969	2.875	2.769	2.911	3.183	3.257	3.009	3.234	3.012	2.790	3.035	2.859	2.649	2.534
370.0	550.9	789.4	956.0	985.8	928.4	812.1	715.8	695.3	682.7	722.0	744.9	767.8	752.8	698.2	626.3	558.0	498.8	448.4	396.1	359.9	360.5	400.4	321.7	191.0	137.8	113.5	126.8	403.9	1812	4288	4466	1172	20.53	4.664	2.909	2.025	1.586	1.300	1.185	1.122	1.180	1.204	1.224	1.277	1.430	1.670	2.005	2.282	2.629	2.340	2.514	3.156	2.971	2.881	2.843	2.637	2.686	2.604	2.577	2.566	2.611	2.708	2.736	2.956	2.986	2.839	2.837	2.930	3.056	3.096	2.989	2.850	2.775	2.741	2.639	2.591	2.647
375.0	515.9	726.6	906.8	960.6	908.7	824.2	745.5	705.8	692.1	715.8	739.7	750.0	749.2	685.6	607.6	551.9	507.4	462.5	416.3	382.3	350.1	342.8	389.1	311.6	182.3	139.6	126.1	172.0	456.6	1044	3112	6010	1613	24.59	4.134	2.638	2.012	1.630	1.283	1.246	1.202	1.266	1.233	1.281	1.284	1.712	1.656	2.271	2.328	2.369	2.496	2.860	3.027	3.155	2.763	2.711	2.703	2.630	2.572	2.551	2.510	2.602	2.630	2.940	3.035	2.710	2.954	2.681	2.886	2.827	2.966	2.812	2.798	2.816	2.455	2.774	2.847
380.0	515.1	672.2	865.7	906.2	884.6	826.4	731.1	707.6	690.2	709.0	734.8	748.3	747.8	680.2	596.3	543.1	510.5	466.9	433.3	394.5	359.4	332.3	349.5	390.6	252.7	171.3	149.6	141.2	176.5	293.4	870.0	4210	5402	327.7	12.84	3.425	2.498	1.937	1.494	1.450	1.130	1.238	1.134	1.285	1.246	1.818	1.630	2.070	2.389	2.299	2.531	2.802	2.775	3.259	2.973	2.507	2.824	2.667	2.554	2.641	2.596	2.673	2.707	2.622	2.812	2.779	2.897	2.782	2.725	2.774	3.020	2.908	2.702	2.440	2.468	2.642	2.665
385.0	522.6	655.2	817.7	855.3	876.0	807.8	733.6	689.0	681.3	695.6	716.4	725.1	734.6	670.1	585.1	533.4	504.3	466.3	434.4	401.5	368.2	334.9	322.5	368.1	336.0	209.8	172.9	149.9	126.8	136.5	272.8	1253	4669	2828	245.0	5.522	3.135	2.197	1.786	1.451	1.285	1.261	1.172	1.184	1.346	1.574	1.624	2.098	2.175	2.183	2.397	2.769	2.585	2.885	2.886	2.612	2.775	2.594	2.575	2.626	2.514	2.417	2.515	2.641	2.822	2.864	2.762	2.649	2.763	2.795	2.937	2.854	2.797	2.687	2.463	2.546	2.384
390.0	461.6	612.2	765.0	796.7	814.3	785.8	711.2	678.0	665.4	666.4	685.0	683.6	686.7	630.2	560.4	516.4	490.2	458.2	430.7	402.4	370.8	342.2	314.4	312.5	333.0	293.6	205.1	158.6	124.2	107.2	135.1	342.6	1308	3010	3269	924.4	16.55	3.134	2.233	1.772	1.482	1.344	1.132	1.273	1.396	1.500	1.620	1.900	1.972	2.002	2.148	2.654	2.565	2.877	2.701	2.551	2.686	2.744	2.413	2.576	2.489	2.573	2.547	2.358	2.664	2.650	2.426	2.570	2.760	2.820	2.787	2.650	2.541	2.564	2.613	2.449	2.433
395.0	410.7	587.5	711.1	757.7	775.9	751.7	696.6	661.9	645.3	637.2	659.4	659.4	654.4	597.2	534.9	496.7	475.6	443.8	421.4	394.6	376.0	344.7	318.1	302.1	284.5	311.3	285.1	191.5	139.7	115.8	115.8	146.5	328.9	713.4	1981	4157	1352	20.55	3.306	2.140	1.892	1.491	1.357	1.361	1.600	1.466	1.478	1.885	1.871	1.945	1.948	2.363	2.576	2.498	2.683	2.712	2.476	2.630	2.336	2.452	2.382	2.470	2.433	2.489	2.478	2.535	2.456	2.601	2.681	2.593	2.690	2.706	2.549	2.322	2.486	2.269	2.447
400.0	418.7	544.1	667.4	713.0	735.2	735.4	675.2	656.8	640.2	626.0	648.5	630.0	635.6	579.0	520.5	476.7	456.5	431.8	416.5	392.3	366.8	350.1	327.0	304.0	277.9	280.7	323.7	249.8	159.8	133.1	124.1	116.6	117.8	184.2	512.4	2634	3891	284.6	12.05	2.918	1.999	1.687	1.434	1.362	1.493	1.551	1.618	2.085	1.816	1.878	2.049	2.509	2.463	2.382	2.485	2.448	2.442	2.457	2.463	2.393	2.198	2.521	2.548	2.433	2.327	2.384	2.364	2.423	2.461	2.497	2.677	2.477	2.277	2.499	2.155	2.290	2.464
405.0	400.0	529.1	654.3	684.5	721.2	713.8	667.2	640.0	627.4	619.7	628.7	608.9	623.4	564.1	504.4	463.7	437.7	422.1	404.3	380.0	362.2	344.2	324.6	305.4	280.7	262.8	297.5	303.2	194.9	147.8	135.1	115.8	76.46	71.19	134.7	720.9	3021	2403	225.3	5.808	2.277	1.906	1.593	1.470	1.482	1.540	1.567	1.792	1.899	1.944	1.878	2.256	2.463	2.457	2.526	2.505	2.396	2.465	2.311	2.474	2.436	2.293	2.452	2.375	2.623	2.354	2.335	2.315	2.336	2.478	2.446	2.176	2.212	2.294	2.148	2.184	2.273
410.0	373.7	483.8	594.3	646.2	671.3	678.6	645.7	627.2	605.3	596.4	603.4	585.0	578.0	531.3	470.0	437.5	414.5	399.6	384.5	365.7	350.3	333.0	318.4	300.0	277.9	255.9	255.9	277.0	250.8	175.6	137.8	112.4	72.69	52.61	54.24	178.3	808.8	2086	2503	829.6	15.18	2.508	1.852	1.677	1.459	1.514	1.463	1.752	1.909	1.810	1.722	2.249	2.192	2.322	2.298	2.327	2.473	2.453	2.302	2.402	2.306	2.331	2.424	2.185	2.292	2.277	2.180	2.256	2.128	2.226	2.313	2.103	2.070	2.108	2.110	2.068	2.171
415.0	352.8	456.8	572.9	606.1	637.6	637.3	624.0	614.6	591.3	574.6	569.1	548.6	532.3	494.2	441.9	410.6	394.5	379.0	361.5	342.6	331.9	318.7	304.8	291.3	272.7	254.4	238.2	233.2	244.6	227.7	155.0	112.6	77.45	54.09	41.93	60.41	195.6	488.0	1365	3042	1063	18.49	2.514	1.980	1.615	1.623	1.567	1.603	1.825	1.831	1.784	2.171	2.052	2.166	2.097	2.349	2.415	2.237	2.200	2.394	2.096	2.324	2.331	2.333	2.298	1.953	2.142	1.984	2.062	2.175	2.042	2.063	1.857	1.989	1.913	1.883	1.951
