Sample:	'1
File name:	Default_20250716_160731.FD3
Run date:	'16:01:10, 07/16/2025
Operator:	dsjg
Comment:	'

Instrument
Model:	F-2700 FL Spectrophotometer
Serial number:	2198-001
ROM Version:	4J14000 07

Instrument parameters
Measurement type:	3-D scan
Data mode:	Fluorescence
EX  Start WL:	220.0 nm
EX  End WL:	600.0 nm
EX Sampling interval:	5.0 nm
EM  Start WL:	230.0 nm
EM  End WL:	650.0 nm
EM Sampling interval:	5.0 nm
Scan speed:	12000 nm/min
EX Slit:	5.0 nm
EM Slit:	5.0 nm
PMT Voltage:	700 V
Response:	Auto 
Corrected spectra:	Off
Contour interval:	50.000

Peak integration
Integration method:	Rectangular
Sensitivity:	1
Threshold:	1.000

Peaks
No.	ApexEX/EM(nm)	Height(Data)
1	225.0/340.0	 5408
2	240.0/265.0	186.4
3	245.0/270.0	164.0
4	250.0/275.0	181.2
5	250.0/460.0	 1208
6	255.0/280.0	198.6
7	260.0/285.0	187.5
8	265.0/585.0	35.57
9	270.0/300.0	287.8
10	270.0/595.0	32.92
11	275.0/305.0	328.1
12	275.0/340.0	 1586
13	275.0/610.0	28.33
14	280.0/620.0	25.20
15	305.0/455.0	303.6
16	320.0/360.0	264.3
17	335.0/380.0	128.3
18	340.0/385.0	109.9
19	345.0/390.0	93.13
20	350.0/400.0	108.7
21	355.0/405.0	116.7
22	360.0/410.0	110.1
23	365.0/420.0	116.8
24	365.0/455.0	144.0
25	370.0/425.0	126.2
26	380.0/440.0	139.3
27	385.0/445.0	128.4
28	415.0/485.0	24.03
29	425.0/495.0	14.37
30	430.0/505.0	12.80
31	435.0/510.0	10.05
32	440.0/520.0	9.524
33	445.0/525.0	8.572
34	450.0/530.0	6.892
35	455.0/340.0	17.76
36	455.0/540.0	6.205
37	460.0/545.0	5.450
38	470.0/560.0	3.881
39	475.0/565.0	3.261
40	480.0/575.0	2.456
41	485.0/580.0	2.290
42	505.0/275.0	2.160
43	505.0/460.0	6.428
44	515.0/280.0	2.280
45	520.0/285.0	2.160
46	540.0/295.0	2.619
47	545.0/300.0	2.863
48	555.0/340.0	8.388

Data points
	220.0	225.0	230.0	235.0	240.0	245.0	250.0	255.0	260.0	265.0	270.0	275.0	280.0	285.0	290.0	295.0	300.0	305.0	310.0	315.0	320.0	325.0	330.0	335.0	340.0	345.0	350.0	355.0	360.0	365.0	370.0	375.0	380.0	385.0	390.0	395.0	400.0	405.0	410.0	415.0	420.0	425.0	430.0	435.0	440.0	445.0	450.0	455.0	460.0	465.0	470.0	475.0	480.0	485.0	490.0	495.0	500.0	505.0	510.0	515.0	520.0	525.0	530.0	535.0	540.0	545.0	550.0	555.0	560.0	565.0	570.0	575.0	580.0	585.0	590.0	595.0	600.0
230.0	96.43	 1175	 2197	486.7	24.96	14.01	11.86	9.907	8.114	6.698	6.676	5.715	4.834	4.155	3.585	3.123	2.890	2.391	2.230	1.960	1.814	1.746	1.701	1.570	1.503	1.401	1.430	1.413	1.366	1.260	1.276	1.281	1.134	1.143	1.054	1.096	1.117	1.054	1.024	0.984	1.033	1.186	1.287	1.115	0.944	0.853	1.028	3.445	7.000	6.996	3.749	1.387	0.820	0.795	0.785	0.765	0.812	0.780	0.798	0.766	0.823	0.776	0.826	0.814	0.781	0.846	0.775	0.843	0.832	0.878	0.894	0.800	0.866	0.886	0.859	0.941	0.885
235.0	109.9	353.0	 1385	 1875	442.3	25.35	13.31	9.625	8.503	7.090	6.861	5.546	5.491	4.550	3.589	3.183	2.998	2.223	2.328	2.008	1.846	1.760	1.652	1.517	1.441	1.382	1.483	1.375	1.368	1.408	1.233	1.234	1.133	1.137	1.028	1.108	1.119	1.115	1.041	0.981	1.000	1.040	1.097	1.138	1.271	0.983	0.914	1.384	2.523	4.360	6.100	7.531	5.294	1.756	0.829	0.834	0.843	0.873	0.687	0.902	0.763	0.720	0.804	0.823	0.810	0.891	0.797	0.846	0.766	0.833	0.826	0.829	0.800	0.824	0.804	0.899	0.884
240.0	150.2	150.4	436.2	 1630	 1750	303.9	15.08	11.06	8.480	7.557	7.036	6.229	5.377	4.765	3.719	3.165	2.905	2.240	2.390	2.062	1.857	1.777	1.584	1.502	1.604	1.444	1.603	1.409	1.427	1.303	1.235	1.245	1.199	1.182	1.084	0.968	1.119	1.021	0.974	0.974	0.991	0.920	1.071	1.003	1.109	1.307	1.093	1.128	1.206	1.532	2.683	6.722	9.490	7.809	3.551	1.224	0.905	0.818	0.782	0.818	0.836	0.738	0.806	0.822	0.884	0.839	0.859	0.883	0.799	0.870	0.819	0.928	0.869	0.801	0.822	0.992	0.849
245.0	139.1	161.0	139.8	601.1	 1860	 1462	183.3	12.66	9.042	7.634	7.223	5.894	5.076	4.376	3.744	3.307	2.905	2.520	2.367	1.927	2.005	1.767	1.611	1.614	1.565	1.481	1.427	1.415	1.367	1.348	1.300	1.151	1.208	1.130	1.077	0.976	1.007	1.055	1.021	0.937	0.941	0.901	0.931	0.893	0.900	1.197	1.309	1.442	1.055	0.919	1.132	2.403	5.322	8.733	9.241	5.900	2.149	0.897	0.791	0.807	0.814	0.788	0.892	0.761	0.842	0.819	0.776	0.848	0.796	0.891	0.816	0.817	0.877	0.855	0.850	0.833	0.922
250.0	77.32	140.7	156.0	183.1	631.4	 1458	 1451	225.8	26.15	8.263	7.679	6.199	5.111	4.482	3.916	3.330	3.052	2.361	2.193	1.972	1.950	1.763	1.703	1.483	1.537	1.544	1.473	1.482	1.373	1.349	1.305	1.243	1.141	1.060	1.115	1.026	1.006	0.956	1.006	0.955	0.997	0.953	0.984	0.978	0.936	0.944	0.967	1.154	1.238	1.057	0.991	1.222	1.813	3.073	4.835	6.748	7.753	6.693	4.145	1.846	0.937	0.819	0.774	0.788	0.786	0.841	0.820	0.890	0.772	0.816	0.884	0.842	0.868	0.898	0.869	0.937	0.911
255.0	55.00	67.17	138.2	181.3	186.3	386.7	 1135	 1663	282.5	21.52	7.792	6.429	5.719	4.670	4.169	3.160	2.952	2.650	2.249	2.060	2.005	1.864	1.746	1.648	1.493	1.524	1.567	1.476	1.380	1.360	1.387	1.286	1.138	1.106	1.101	0.981	1.057	0.821	1.027	0.964	1.011	0.970	0.946	0.877	0.956	0.893	0.832	0.957	0.963	0.894	1.273	1.506	1.345	1.355	1.679	2.152	2.980	5.112	8.242	8.934	5.178	1.850	0.824	0.859	0.838	0.829	0.843	0.764	0.826	0.780	0.815	0.882	0.833	0.902	0.839	0.912	0.987
260.0	49.92	42.31	69.66	174.5	152.4	115.1	360.0	 1395	 1487	215.1	15.55	6.771	5.971	5.317	3.996	3.348	2.914	2.579	2.337	2.150	1.945	1.817	1.803	1.667	1.497	1.449	1.372	1.571	1.254	1.394	1.250	1.365	1.151	1.122	1.304	0.968	0.972	0.925	1.004	1.043	0.914	0.986	1.023	0.970	0.978	0.898	0.788	0.884	0.831	0.795	0.917	1.545	1.613	1.474	1.092	1.089	1.369	1.952	3.706	6.901	9.805	7.826	3.758	1.260	0.863	0.909	0.871	0.850	0.885	0.799	0.734	0.886	0.817	0.862	0.839	0.838	1.055
265.0	51.97	36.35	38.85	97.16	186.4	107.4	101.4	496.2	 1486	 1228	178.6	7.991	6.223	5.016	4.152	3.341	2.875	2.767	2.415	2.240	1.774	1.909	1.795	1.676	1.511	1.527	1.437	1.424	1.392	1.396	1.280	1.210	1.149	1.088	1.161	1.074	1.002	0.942	0.993	0.978	0.864	1.099	0.920	0.947	0.879	0.932	0.793	0.918	0.748	0.727	0.728	1.012	1.383	1.714	1.651	1.119	0.978	1.105	1.514	2.573	4.998	7.839	9.046	6.281	2.411	1.016	0.836	0.882	0.858	0.935	0.750	0.868	0.910	0.827	0.831	0.862	0.898
270.0	55.18	39.04	30.14	41.00	104.3	164.0	116.7	135.7	483.9	 1090	 1268	450.4	35.31	5.772	4.257	3.636	2.983	2.668	2.395	2.228	1.903	1.884	1.820	1.705	1.512	1.631	1.506	1.421	1.418	1.465	1.322	1.291	1.258	1.205	1.134	1.042	1.011	1.020	0.998	0.977	0.931	0.923	0.991	0.961	0.931	0.959	0.842	0.856	0.755	0.762	0.644	0.821	0.942	1.167	1.421	1.667	1.686	1.344	1.115	1.263	1.833	2.776	4.483	6.096	6.814	6.402	4.362	1.976	1.040	0.929	0.838	0.894	0.883	0.946	0.875	0.817	0.853
275.0	55.35	38.33	31.53	26.08	39.56	88.46	181.2	135.8	130.6	288.6	806.3	 1359	601.6	29.66	4.878	3.624	3.245	2.991	2.377	2.434	1.861	1.854	1.561	1.588	1.599	1.584	1.580	1.394	1.438	1.477	1.265	1.280	1.218	1.154	1.202	1.165	1.037	1.093	0.953	0.980	0.938	0.966	1.005	0.915	0.945	1.077	0.845	0.820	0.744	0.628	0.620	0.885	0.810	0.758	0.972	1.053	1.587	2.160	1.854	1.523	1.126	1.324	1.717	2.134	2.623	4.161	7.061	7.838	5.226	2.160	0.955	0.918	0.883	0.886	0.955	0.858	0.925
280.0	60.86	45.37	35.60	26.91	22.60	37.53	126.4	198.6	100.0	85.09	253.0	942.7	 1314	158.0	13.29	4.219	3.455	2.856	2.529	2.165	2.190	1.829	1.630	1.713	1.618	1.387	1.517	1.440	1.464	1.389	1.232	1.297	1.329	1.208	1.152	1.113	1.125	1.160	0.935	1.062	1.002	0.944	1.015	0.952	0.932	1.058	0.828	0.882	0.731	0.737	0.737	0.807	0.752	0.779	0.850	0.916	1.069	1.479	1.837	2.280	1.640	1.171	1.030	1.164	1.257	1.753	2.995	5.557	7.619	7.595	4.110	1.334	0.948	0.826	0.959	0.876	0.852
285.0	73.82	51.22	37.32	27.37	21.65	22.94	58.98	179.9	187.5	68.64	82.73	328.0	 1038	 1087	120.0	6.484	4.003	3.128	2.796	2.446	2.392	1.957	1.677	1.550	1.561	1.488	1.493	1.407	1.390	1.388	1.353	1.357	1.244	1.271	1.249	1.271	1.257	1.134	1.154	1.029	1.058	0.993	1.003	1.027	0.853	0.976	0.931	0.928	0.812	0.776	0.774	0.831	0.781	0.764	0.760	0.862	0.861	0.985	1.375	1.872	2.160	1.834	1.144	1.029	0.959	1.127	1.442	2.161	3.794	6.615	8.221	5.910	2.484	1.079	0.920	0.792	0.894
290.0	78.65	62.27	49.94	31.46	27.15	23.62	33.93	84.08	175.6	191.3	97.85	116.0	340.3	759.3	914.2	413.3	27.78	3.500	2.936	2.541	2.283	2.206	1.772	1.660	1.604	1.636	1.548	1.524	1.385	1.301	1.311	1.325	1.268	1.361	1.409	1.318	1.279	1.232	1.176	1.062	0.977	0.993	1.040	0.981	0.953	0.918	0.978	0.919	0.829	0.821	0.777	0.852	0.816	0.836	0.757	0.811	0.840	0.921	1.013	1.215	1.421	1.863	2.021	1.874	1.396	1.117	1.199	1.350	1.669	2.555	3.863	5.122	6.516	6.153	4.191	1.918	1.032
295.0	89.65	77.33	57.37	42.50	34.23	31.26	34.40	52.20	93.84	204.9	244.1	117.0	126.8	214.5	509.3	 1070	581.7	25.29	3.571	2.609	2.139	2.240	1.847	1.779	1.653	1.687	1.486	1.459	1.512	1.355	1.444	1.338	1.302	1.416	1.579	1.324	1.326	1.217	1.225	1.192	1.100	1.080	1.060	0.990	0.962	1.034	0.893	0.950	0.860	0.867	0.743	0.879	0.786	0.854	0.767	0.863	0.925	0.938	0.997	1.051	1.125	1.240	1.415	2.025	2.619	2.202	1.563	1.121	1.269	1.404	1.785	1.860	2.626	3.902	6.797	8.289	5.197
300.0	107.5	84.21	66.07	53.80	37.07	36.49	41.40	55.35	72.99	146.0	287.8	215.8	100.8	88.80	168.1	665.9	 1158	396.3	10.07	2.922	2.375	2.286	1.983	1.822	1.718	1.559	1.506	1.560	1.493	1.501	1.479	1.354	1.348	1.421	1.479	1.517	1.381	1.313	1.241	1.169	1.043	1.142	1.050	0.991	1.066	1.082	0.885	0.989	0.852	0.829	0.750	0.942	0.889	0.917	0.863	0.888	0.898	1.024	1.109	1.040	1.002	1.237	1.214	1.539	2.242	2.863	2.358	1.602	1.247	1.238	1.291	1.287	1.456	1.793	3.034	5.753	8.411
305.0	109.3	92.56	74.71	57.46	47.36	47.86	52.07	69.72	78.70	116.8	230.3	328.1	172.2	74.38	68.57	226.4	792.0	 1088	78.72	4.876	2.853	2.281	1.831	1.903	1.864	1.649	1.643	1.633	1.735	1.379	1.481	1.512	1.278	1.370	1.510	1.600	1.502	1.237	1.259	1.168	1.141	1.010	1.235	1.064	1.011	1.040	0.859	0.910	0.922	0.870	0.751	0.884	0.901	0.878	0.975	0.995	1.020	1.030	1.072	1.127	1.015	1.175	1.321	1.340	1.539	2.116	2.628	2.687	2.029	1.383	1.315	1.322	1.282	1.299	1.585	2.396	4.168
310.0	141.9	137.7	97.91	66.13	60.05	66.98	84.96	101.4	119.4	147.4	197.7	282.2	319.4	140.2	70.05	84.31	249.1	655.6	721.7	307.7	20.04	3.104	2.236	1.990	1.731	1.688	1.660	1.603	1.586	1.534	1.430	1.352	1.321	1.326	1.572	1.676	1.465	1.404	1.272	1.286	1.151	1.132	1.178	1.099	1.148	1.061	1.045	1.027	0.974	0.880	0.790	0.979	0.893	0.962	0.986	1.017	1.121	1.168	1.314	1.271	1.264	1.318	1.518	1.594	1.542	1.714	2.000	2.376	2.785	2.548	1.984	1.551	1.396	1.305	1.255	1.454	1.851
315.0	441.2	524.6	294.7	121.4	96.55	116.9	158.1	192.5	235.1	262.6	274.8	339.6	373.9	389.7	142.7	93.44	106.3	189.3	378.6	929.9	441.4	20.26	3.163	2.227	1.994	1.802	1.810	1.641	1.691	1.608	1.387	1.458	1.292	1.482	1.632	1.494	1.532	1.496	1.499	1.282	1.376	1.533	1.394	1.615	1.795	2.042	2.204	2.493	1.876	1.224	1.132	1.059	1.139	1.094	1.224	1.293	1.302	1.585	1.697	1.678	1.974	1.868	2.026	2.066	2.249	2.346	2.528	2.403	2.634	2.655	3.332	2.997	1.944	1.601	1.336	1.414	1.385
320.0	 1468	 1411	898.9	329.6	183.6	214.7	287.7	360.2	454.5	534.0	617.1	636.6	592.3	597.7	444.5	206.1	118.1	116.4	154.8	537.9	 1021	310.1	10.15	2.860	2.292	1.786	1.922	1.751	1.618	1.620	1.562	1.637	1.403	1.583	1.690	1.811	1.631	1.771	1.869	1.814	1.975	2.228	2.260	3.078	3.963	4.886	5.495	6.626	5.254	3.385	1.962	1.663	1.514	1.457	1.561	1.660	1.671	1.956	2.507	2.623	2.992	3.313	3.413	3.502	3.646	3.681	3.955	3.804	3.644	3.663	3.673	4.134	3.980	2.864	2.207	1.852	1.487
325.0	 2636	 3137	 2026	692.5	354.1	342.0	450.0	558.8	688.0	817.3	941.4	979.4	886.1	776.9	682.9	420.6	203.8	149.8	124.5	223.6	695.0	954.6	61.90	5.616	2.714	2.080	1.893	1.761	1.839	1.530	1.466	1.585	1.466	1.454	1.700	1.935	2.073	2.064	2.236	2.436	2.658	3.158	3.825	4.870	5.942	7.906	9.332	10.98	9.636	6.428	3.848	2.852	2.288	2.167	2.003	2.068	2.364	2.814	3.301	3.422	4.022	4.242	4.573	5.211	4.996	5.261	5.479	5.227	5.037	5.064	4.646	4.857	4.950	4.725	3.845	2.790	2.092
330.0	 3118	 4040	 2896	 1249	642.7	503.0	588.1	729.9	868.3	 1023	 1187	 1234	 1130	956.6	772.9	624.6	395.5	234.6	168.6	158.6	283.5	605.7	619.2	246.2	16.94	2.414	2.086	1.722	1.765	1.746	1.554	1.583	1.549	1.563	1.942	2.194	2.184	2.318	2.570	2.614	3.043	3.734	4.200	5.467	6.965	9.431	11.25	13.74	12.36	9.194	5.960	4.828	3.705	3.090	2.879	2.764	3.053	3.371	3.882	4.013	4.669	5.172	5.499	5.908	6.336	6.506	6.734	6.728	6.399	6.381	6.082	5.639	5.394	5.119	5.035	4.301	3.502
335.0	 3830	 5132	 3689	 1731	893.4	667.1	742.3	887.6	 1047	 1235	 1437	 1509	 1383	 1165	898.2	667.5	566.1	381.4	230.4	180.0	193.7	234.0	338.8	850.0	361.4	15.98	2.643	1.899	1.948	1.802	1.643	1.487	1.669	1.637	2.020	2.363	2.372	2.542	2.831	3.075	3.536	4.287	5.021	6.602	8.672	11.41	13.65	16.24	15.23	11.16	7.744	6.728	5.013	4.423	3.692	3.322	3.648	3.852	4.354	4.901	5.286	6.167	6.407	7.106	7.669	7.847	8.063	7.814	7.688	7.615	6.978	6.609	6.118	5.604	4.925	4.346	4.648
340.0	 3971	 5408	 4059	 1973	 1024	735.4	784.3	949.9	 1105	 1294	 1510	 1586	 1474	 1239	950.4	693.2	558.5	494.0	285.5	197.8	180.2	156.0	138.3	451.2	905.8	257.3	6.209	2.102	2.054	1.829	1.639	1.634	1.656	1.579	1.980	2.214	2.373	2.683	2.821	3.156	3.627	4.554	5.461	7.043	9.075	12.28	14.38	17.76	16.41	12.30	8.692	7.588	5.820	4.932	3.977	3.719	3.978	4.409	4.778	5.191	5.454	6.173	6.759	7.527	7.895	8.154	8.176	8.388	8.069	7.957	7.559	6.896	6.494	6.044	4.861	4.463	4.530
345.0	 3752	 5068	 3957	 2047	 1076	760.3	766.5	916.1	 1053	 1241	 1436	 1515	 1407	 1208	935.6	682.1	513.9	483.5	369.6	211.6	176.1	140.4	87.49	145.8	586.1	833.2	50.65	3.496	2.247	1.972	1.812	1.750	1.629	1.627	1.981	2.085	2.243	2.525	2.652	3.082	3.460	4.181	4.819	6.187	8.426	10.98	13.19	16.13	15.26	11.90	8.798	7.627	5.913	4.782	4.148	3.791	4.007	4.198	4.717	5.111	5.226	5.848	6.625	7.126	7.636	7.733	8.061	8.025	7.878	7.664	7.394	6.786	6.501	5.574	5.309	4.496	4.273
350.0	 3215	 4354	 3512	 1957	 1065	729.6	709.4	821.4	945.8	 1107	 1286	 1338	 1261	 1096	863.3	640.9	476.2	397.4	373.8	284.2	179.9	133.1	78.09	56.99	163.4	489.4	527.7	212.9	14.34	2.278	1.868	1.804	1.659	1.748	1.959	2.069	2.171	2.333	2.591	2.863	3.162	3.688	4.437	5.475	7.301	9.481	11.30	14.18	13.42	10.77	8.267	7.412	5.819	4.923	4.040	3.753	3.751	4.021	4.076	4.716	4.932	5.406	6.073	6.306	7.085	7.132	7.514	7.103	6.913	6.870	6.682	6.370	5.835	5.251	5.126	4.369	4.082
355.0	 2718	 3708	 3044	 1775	997.7	670.0	632.2	721.9	821.6	948.5	 1111	 1170	 1104	956.1	767.5	580.2	432.8	336.9	285.6	295.0	236.5	129.8	73.35	37.75	48.89	120.4	250.6	726.3	323.5	14.48	2.135	1.839	1.541	1.684	1.789	1.937	2.231	2.176	2.265	2.658	2.852	3.162	4.073	4.692	6.266	8.150	9.507	12.10	11.90	9.629	7.470	7.058	5.560	4.751	3.914	3.560	3.523	3.518	3.628	4.188	4.549	4.967	5.535	5.784	6.307	6.273	6.577	6.024	6.368	6.258	6.128	5.512	5.378	4.926	4.709	4.109	3.715
360.0	 2217	 3042	 2655	 1587	915.0	610.1	577.9	624.6	709.1	816.9	949.9	 1003	957.3	836.7	684.0	526.7	393.1	307.2	239.0	230.9	264.3	158.9	72.14	34.69	25.54	37.14	71.09	375.8	796.9	228.6	5.770	2.101	1.756	1.837	1.976	1.960	1.915	2.005	2.342	2.525	2.474	3.049	3.416	3.979	5.186	7.017	7.975	10.33	9.930	8.256	6.780	6.405	5.145	4.417	3.613	3.305	3.161	3.218	3.566	3.852	4.050	4.378	4.765	5.130	5.452	5.505	5.659	5.630	5.853	5.674	5.293	5.246	4.648	4.504	4.159	3.847	3.591
365.0	 1864	 2557	 2248	 1397	826.4	555.4	501.1	537.1	608.6	702.8	815.3	853.5	823.2	729.0	603.3	468.1	358.3	281.0	214.5	182.0	218.2	207.2	86.27	35.03	21.92	21.24	26.29	107.8	513.7	736.2	47.34	3.142	1.881	1.901	1.879	1.800	1.844	2.007	2.040	2.193	2.314	2.587	2.991	3.325	4.196	5.949	6.651	8.276	8.364	7.045	5.730	5.656	4.928	4.003	3.361	3.010	2.910	3.034	3.121	3.330	3.534	3.996	4.334	4.298	4.726	4.726	4.757	5.086	5.125	4.797	4.877	4.615	4.514	4.236	3.765	3.481	3.309
370.0	 1444	 1996	 1779	 1168	702.0	482.8	429.4	448.6	503.8	572.3	658.6	691.8	670.7	602.6	502.3	397.4	311.6	248.9	191.8	151.5	147.9	177.7	139.9	49.65	22.16	18.00	17.34	33.87	140.9	434.1	489.5	191.5	12.16	2.074	1.828	1.851	1.748	1.845	1.859	2.002	1.996	2.212	2.447	3.015	3.581	4.754	5.289	6.578	6.831	5.708	4.858	4.861	4.344	3.662	2.977	2.680	2.773	2.736	2.724	2.928	2.964	3.277	3.544	3.676	3.863	3.874	4.100	4.141	4.237	4.062	4.171	4.010	3.937	3.631	3.300	3.197	2.936
375.0	 1107	 1490	 1400	950.6	601.3	407.8	354.2	366.9	404.2	451.6	519.3	555.3	536.0	479.8	405.8	327.6	265.3	213.1	168.1	131.4	114.4	111.0	133.3	111.6	35.78	19.34	17.30	18.46	40.88	105.7	229.6	643.6	274.7	13.83	2.110	1.949	1.894	1.700	1.655	1.878	1.768	2.066	2.200	2.482	2.742	3.533	4.247	5.370	5.172	4.724	3.964	4.282	3.438	3.062	2.650	2.345	2.256	2.278	2.347	2.448	2.907	2.909	2.838	3.105	3.363	3.273	3.424	3.421	3.635	3.539	3.440	3.522	3.299	3.066	3.055	2.687	2.738
380.0	874.5	 1191	 1145	793.5	525.8	365.8	306.6	316.1	341.5	379.1	434.6	462.1	447.5	407.2	350.0	281.4	231.7	190.8	152.0	119.6	100.8	88.10	90.87	128.3	62.83	23.89	18.78	17.03	19.83	32.12	62.52	328.9	664.7	206.4	4.866	1.904	1.824	1.838	1.634	1.879	1.665	1.903	1.996	2.031	2.595	2.912	3.319	4.176	4.122	3.890	3.339	3.863	3.076	2.724	2.413	2.183	2.220	2.077	2.210	2.257	2.457	2.423	2.435	2.879	2.884	2.875	2.869	3.005	3.065	3.080	3.071	2.996	2.982	2.836	2.690	2.508	2.402
385.0	685.0	962.2	929.0	676.8	459.6	320.2	270.4	281.5	290.8	330.9	372.6	400.6	387.0	353.1	300.5	252.9	204.5	172.2	138.4	110.7	91.91	78.86	67.50	94.01	109.9	44.41	21.15	18.19	16.71	16.64	21.30	91.63	431.4	659.9	38.49	2.776	2.082	1.847	1.578	1.745	1.681	1.632	1.847	1.979	2.145	2.851	3.017	3.455	3.584	3.346	3.018	3.302	2.732	2.510	2.250	1.989	1.964	1.985	2.053	2.044	2.223	2.352	2.320	2.421	2.650	2.650	2.733	2.848	2.834	2.766	2.891	2.832	2.674	2.681	2.513	2.267	2.200
390.0	562.7	752.2	747.8	567.0	383.0	282.2	241.8	238.2	244.2	271.4	308.7	328.0	322.3	295.5	255.2	214.4	179.0	154.9	124.4	101.0	85.76	73.85	59.83	58.16	88.57	93.13	42.87	22.82	20.14	16.76	15.54	29.60	117.4	383.0	377.5	149.8	11.15	2.306	1.811	1.695	1.524	1.533	1.763	1.801	1.854	2.377	2.512	2.863	3.026	2.836	2.585	2.836	2.479	2.313	2.026	1.820	1.801	1.877	1.890	1.898	1.987	2.074	2.240	2.129	2.247	2.330	2.447	2.457	2.580	2.433	2.414	2.425	2.421	2.313	2.322	2.063	2.092
395.0	420.7	584.8	586.3	469.8	330.8	247.6	212.8	210.7	211.3	229.2	258.7	275.3	270.8	250.4	217.8	183.1	158.4	137.8	114.7	94.54	83.68	72.69	60.23	50.46	56.93	85.48	98.17	45.63	27.60	23.94	21.45	22.26	40.57	99.09	178.5	491.1	221.8	10.94	2.115	1.888	1.500	1.394	1.560	1.641	1.789	1.946	2.041	2.430	2.514	2.268	2.086	2.482	2.289	2.166	1.865	1.762	1.711	1.691	1.804	1.626	1.683	1.860	1.951	1.918	1.964	2.114	2.091	2.170	2.313	2.136	2.226	2.172	2.151	2.141	2.379	2.205	2.200
400.0	353.6	489.8	496.8	428.8	302.8	238.4	209.0	199.9	201.3	216.1	237.5	251.5	249.7	225.2	200.9	170.9	146.6	131.2	110.4	93.90	81.59	75.26	64.68	55.07	53.38	65.29	108.7	86.16	41.25	32.94	30.09	28.91	30.52	40.23	58.44	259.6	503.5	40.49	5.125	1.976	1.730	1.535	1.498	1.566	1.603	1.884	1.915	2.203	2.176	1.981	1.922	2.252	2.178	1.975	1.750	1.723	1.776	1.689	1.696	1.758	1.714	1.736	1.789	1.917	1.813	1.907	2.000	1.999	2.232	2.101	2.076	1.986	1.920	2.000	1.987	2.150	2.007
405.0	326.0	411.1	434.3	385.5	285.4	235.1	208.7	202.3	196.1	205.5	232.7	239.3	232.8	214.9	188.7	164.7	142.1	126.5	110.1	94.76	84.67	79.02	70.77	63.39	60.29	61.80	87.20	116.7	60.49	45.09	40.85	39.55	36.76	35.07	35.42	84.78	320.3	411.8	33.77	2.997	1.638	1.499	1.482	1.471	1.640	1.840	1.788	1.878	1.961	1.972	1.807	1.995	1.962	1.866	1.668	1.668	1.774	1.712	1.810	1.760	1.829	1.839	1.805	1.689	1.837	1.701	1.799	1.875	1.988	1.960	1.925	1.889	1.771	1.829	1.839	1.777	1.972
410.0	283.7	360.7	386.3	352.6	282.3	253.6	236.3	219.5	203.1	203.7	222.5	226.4	221.8	203.8	180.5	159.9	138.5	126.6	111.4	98.16	87.66	82.88	76.65	71.58	68.52	66.92	75.21	99.87	110.1	75.25	55.81	52.03	46.94	41.39	37.40	43.54	97.09	253.1	302.1	128.1	8.417	1.618	1.541	1.396	1.474	1.509	1.588	1.777	1.851	1.737	1.665	1.977	1.863	1.947	1.898	1.903	1.940	1.936	1.803	1.810	1.823	1.789	1.791	1.783	1.886	1.804	1.758	1.842	1.812	1.822	1.858	1.850	1.881	1.834	1.793	1.750	1.820
