Sample:	'1
File name:	t2025042408农业综合开发158桥.FD3
Run date:	'12:54:38, 04/27/2025
Operator:	Administrator
Comment:	'

Instrument
Model:	F-2700 FL Spectrophotometer
Serial number:	23B8-004
ROM Version:	4J14000 07

Instrument parameters
Measurement type:	3-D scan
Data mode:	Fluorescence
EX  Start WL:	220.0 nm
EX  End WL:	600.0 nm
EX Sampling interval:	5.0 nm
EM  Start WL:	230.0 nm
EM  End WL:	650.0 nm
EM Sampling interval:	5.0 nm
Scan speed:	12000 nm/min
EX Slit:	5.0 nm
EM Slit:	5.0 nm
PMT Voltage:	700 V
Response:	Auto 
Corrected spectra:	Off
Contour interval:	50.000

Peak integration
Integration method:	Rectangular
Sensitivity:	1
Threshold:	1.000

Peaks
No.	ApexEX/EM(nm)	Height(Data)
1	225.0/555.0	69.85
2	225.0/575.0	67.76
3	225.0/585.0	69.91
4	230.0/345.0	1086
5	230.0/500.0	290.5
6	235.0/510.0	246.8
7	240.0/525.0	221.0
8	245.0/270.0	366.0
9	245.0/535.0	181.8
10	250.0/275.0	478.9
11	250.0/550.0	155.1
12	255.0/280.0	527.4
13	255.0/565.0	127.7
14	260.0/290.0	536.2
15	260.0/575.0	112.6
16	265.0/295.0	714.6
17	265.0/585.0	96.03
18	270.0/300.0	973.7
19	270.0/600.0	90.48
20	275.0/305.0	1023
21	275.0/340.0	817.8
22	275.0/610.0	79.97
23	280.0/625.0	66.50
24	285.0/320.0	908.8
25	285.0/635.0	50.65
26	290.0/325.0	806.1
27	305.0/345.0	530.0
28	315.0/355.0	418.2
29	320.0/365.0	396.7
30	330.0/375.0	357.7
31	335.0/380.0	345.4
32	350.0/400.0	304.8
33	425.0/500.0	33.00
34	440.0/520.0	19.55
35	455.0/540.0	10.61
36	460.0/345.0	3.382
37	485.0/265.0	2.602
38	505.0/275.0	3.586
39	510.0/280.0	3.624
40	520.0/285.0	4.238
41	530.0/290.0	4.048
42	540.0/295.0	5.687
43	545.0/300.0	6.240
44	550.0/305.0	6.634
45	560.0/310.0	6.348
46	570.0/315.0	6.320
47	575.0/320.0	6.190
48	585.0/325.0	6.279
49	590.0/330.0	5.298

Data points
	220.0	225.0	230.0	235.0	240.0	245.0	250.0	255.0	260.0	265.0	270.0	275.0	280.0	285.0	290.0	295.0	300.0	305.0	310.0	315.0	320.0	325.0	330.0	335.0	340.0	345.0	350.0	355.0	360.0	365.0	370.0	375.0	380.0	385.0	390.0	395.0	400.0	405.0	410.0	415.0	420.0	425.0	430.0	435.0	440.0	445.0	450.0	455.0	460.0	465.0	470.0	475.0	480.0	485.0	490.0	495.0	500.0	505.0	510.0	515.0	520.0	525.0	530.0	535.0	540.0	545.0	550.0	555.0	560.0	565.0	570.0	575.0	580.0	585.0	590.0	595.0	600.0
230.0	57.20	1119	3203	816.4	49.63	8.541	6.699	6.223	5.552	5.012	4.078	3.417	3.179	2.900	2.383	2.188	1.884	1.574	1.370	1.416	1.218	1.071	1.092	1.027	0.983	0.858	0.851	0.812	0.814	0.769	0.721	0.739	0.651	0.639	0.596	0.562	0.605	0.512	0.539	0.483	0.539	0.543	0.634	0.550	0.448	0.441	1.001	4.110	8.093	6.466	2.920	0.856	0.432	0.391	0.390	0.408	0.383	0.383	0.402	0.401	0.421	0.431	0.396	0.419	0.395	0.407	0.404	0.426	0.422	0.440	0.428	0.429	0.431	0.433	0.435	0.451	0.465
235.0	84.92	319.3	2200	3933	582.8	47.24	8.232	6.720	5.797	5.316	4.096	3.808	3.413	3.093	2.753	2.068	1.750	1.482	1.489	1.429	1.277	1.063	1.077	0.988	0.977	0.819	0.899	0.850	0.785	0.789	0.770	0.735	0.594	0.674	0.508	0.591	0.613	0.489	0.469	0.500	0.541	0.462	0.564	0.633	0.600	0.548	0.561	1.329	3.050	6.030	9.764	10.80	5.494	1.488	0.513	0.388	0.444	0.378	0.422	0.451	0.373	0.455	0.363	0.415	0.470	0.390	0.384	0.401	0.392	0.435	0.414	0.375	0.384	0.450	0.476	0.433	0.406
240.0	143.0	157.0	675.4	3697	4317	421.8	25.21	8.271	7.150	6.236	4.904	4.225	3.868	2.958	2.700	2.321	1.974	1.316	1.441	1.482	1.269	1.112	1.170	0.890	1.030	0.948	0.830	0.825	0.865	0.738	0.839	0.761	0.653	0.592	0.593	0.598	0.550	0.487	0.471	0.546	0.529	0.447	0.509	0.615	0.685	0.718	0.579	0.691	1.004	1.909	5.157	12.23	16.26	12.71	4.764	1.094	0.547	0.461	0.433	0.379	0.396	0.472	0.414	0.457	0.427	0.434	0.422	0.421	0.410	0.417	0.380	0.412	0.445	0.396	0.437	0.502	0.439
245.0	107.3	191.9	221.6	1342	4945	3118	303.0	14.88	7.765	6.936	5.490	4.702	4.251	2.878	2.780	2.439	2.013	1.504	1.494	1.443	1.273	1.216	1.094	0.957	1.103	1.063	0.841	0.804	0.841	0.747	0.746	0.712	0.612	0.651	0.591	0.630	0.536	0.557	0.540	0.534	0.552	0.456	0.488	0.532	0.608	0.769	0.976	0.845	0.696	0.728	1.466	4.109	10.69	19.42	20.32	12.00	3.522	0.650	0.437	0.421	0.385	0.369	0.474	0.428	0.425	0.458	0.454	0.389	0.421	0.385	0.416	0.468	0.490	0.453	0.422	0.460	0.431
250.0	63.98	149.9	244.8	394.2	1640	3379	3704	1185	70.34	9.751	7.126	5.364	4.376	3.533	3.190	2.380	2.298	1.869	1.767	1.433	1.276	1.472	1.153	1.046	1.087	1.007	0.899	0.911	0.804	0.819	0.768	0.776	0.657	0.718	0.588	0.597	0.575	0.616	0.563	0.548	0.522	0.535	0.524	0.532	0.525	0.555	0.668	0.866	1.116	0.896	0.905	1.326	2.882	6.105	11.38	17.90	23.62	21.33	12.48	3.750	0.690	0.432	0.434	0.483	0.427	0.428	0.446	0.428	0.433	0.426	0.445	0.433	0.425	0.477	0.430	0.487	0.421
255.0	53.25	64.05	183.1	340.8	449.1	885.1	3213	6546	1665	78.81	9.144	7.278	4.894	4.534	3.784	2.914	2.540	1.856	1.868	1.510	1.266	1.315	1.195	1.068	1.130	1.054	0.961	0.923	0.997	0.853	0.753	0.836	0.691	0.769	0.580	0.474	0.541	0.540	0.541	0.497	0.574	0.532	0.520	0.474	0.536	0.465	0.512	0.589	0.730	0.926	1.600	1.460	1.363	1.801	2.924	4.473	8.107	19.31	36.66	32.62	19.75	4.283	0.699	0.503	0.478	0.502	0.442	0.482	0.507	0.465	0.457	0.458	0.419	0.431	0.446	0.504	0.476
260.0	44.61	45.02	87.85	286.3	334.3	245.9	1024	5738	7708	1336	28.48	8.832	6.416	5.444	4.123	3.393	2.873	2.067	1.835	1.424	1.517	1.260	1.280	1.162	1.162	1.079	0.932	1.025	0.863	0.880	0.810	0.822	0.713	0.678	0.708	0.464	0.582	0.546	0.585	0.719	0.625	0.481	0.641	0.508	0.511	0.509	0.479	0.565	0.456	0.657	1.134	1.847	2.003	1.365	1.149	1.432	2.270	5.394	15.33	33.06	50.18	31.04	15.40	2.297	0.590	0.504	0.502	0.489	0.517	0.517	0.447	0.561	0.433	0.373	0.537	0.441	0.549
265.0	48.04	41.06	50.51	150.6	372.0	224.2	265.0	2042	8811	8871	204.5	14.92	8.215	5.933	4.799	3.619	3.125	2.596	2.141	1.617	1.563	1.429	1.625	1.390	1.078	1.176	0.933	1.056	0.882	0.888	0.927	0.877	0.802	0.766	0.659	0.553	0.580	0.552	0.576	0.687	0.547	0.487	0.634	0.531	0.501	0.517	0.495	0.525	0.479	0.442	0.633	0.991	1.894	2.602	1.692	0.936	0.975	1.691	3.906	9.680	25.40	47.36	58.68	27.86	9.318	1.047	0.533	0.536	0.521	0.515	0.462	0.512	0.432	0.504	0.483	0.435	0.513
270.0	66.45	52.25	52.95	63.77	192.7	366.0	259.3	512.3	2915	8937	7609	779.5	46.87	8.703	6.578	4.437	3.489	2.849	2.349	2.017	1.694	1.471	1.506	1.363	1.177	1.204	1.101	1.112	0.965	0.919	0.997	0.946	0.811	0.806	0.747	0.614	0.680	0.592	0.554	0.674	0.600	0.597	0.637	0.619	0.506	0.611	0.584	0.550	0.503	0.423	0.453	0.653	0.840	1.464	2.030	2.365	2.071	1.423	1.415	2.638	6.440	13.53	27.98	42.14	42.35	47.03	18.64	7.462	1.110	0.567	0.559	0.463	0.524	0.516	0.495	0.544	0.527
275.0	114.2	112.0	102.5	63.42	75.33	195.5	478.9	320.6	700.2	2255	5963	9999.9	1099	38.54	9.101	6.662	4.819	3.309	2.838	2.273	1.990	1.532	1.382	1.369	1.381	1.325	1.355	1.118	1.169	1.033	1.024	0.837	0.829	0.892	0.812	0.675	0.771	0.645	0.700	0.632	0.583	0.627	0.617	0.703	0.633	0.637	0.722	0.631	0.630	0.543	0.480	0.523	0.552	0.754	0.997	1.314	2.402	3.586	2.421	1.576	2.026	3.596	6.823	10.24	13.47	34.48	67.61	77.11	28.49	7.117	0.793	0.500	0.571	0.569	0.528	0.550	0.537
280.0	180.3	173.8	155.0	92.23	58.64	87.13	336.8	527.4	292.8	574.7	1793	8771	9173	752.1	19.89	7.981	6.007	3.860	3.338	2.688	2.147	1.803	1.587	1.436	1.398	1.462	1.294	1.151	1.164	1.051	1.016	0.950	0.816	0.940	0.811	0.837	0.777	0.776	0.801	0.652	0.539	0.660	0.733	0.779	0.724	0.814	0.795	0.912	0.791	0.615	0.599	0.557	0.566	0.660	0.632	0.759	1.255	2.620	3.624	3.228	1.818	1.499	2.280	2.952	3.791	9.124	24.22	56.99	82.40	38.19	21.63	3.038	0.692	0.717	0.604	0.609	0.568
285.0	224.5	261.9	217.4	127.3	67.45	67.03	154.0	519.3	337.5	250.8	509.6	2849	9999.9	7193	113.5	11.55	7.150	4.898	3.900	2.883	2.441	2.149	1.969	1.673	1.503	1.438	1.349	1.063	1.141	1.036	1.081	0.953	1.097	0.949	0.947	0.940	0.887	0.739	0.763	0.720	0.655	0.735	0.729	0.862	0.833	0.899	0.996	0.954	1.071	0.859	0.734	0.685	0.622	0.710	0.690	0.722	0.931	1.245	2.127	3.938	4.238	2.343	1.575	1.507	1.722	2.977	6.468	15.42	35.39	64.91	87.95	34.29	13.49	1.218	0.604	0.663	0.638
290.0	287.3	345.3	315.5	177.2	96.47	81.29	108.8	261.2	536.2	494.5	296.7	822.6	3143	7838	8461	437.0	27.90	6.660	4.930	3.711	2.794	2.328	2.204	1.965	1.551	1.439	1.414	1.112	1.302	1.168	1.091	1.038	1.138	1.057	0.973	0.933	1.016	0.992	0.789	0.802	0.745	0.755	0.820	0.933	1.014	1.080	1.218	1.286	1.289	1.090	0.901	0.882	0.773	0.786	0.735	0.755	0.893	0.935	1.269	1.955	2.910	3.830	4.048	3.270	2.058	2.094	2.729	4.681	9.192	17.72	35.10	49.36	64.84	55.72	22.27	10.25	1.480
295.0	352.2	432.5	396.0	237.0	135.4	118.6	131.3	197.1	327.2	714.6	690.7	474.1	922.4	2003	6465	9493	657.5	20.20	6.697	4.974	3.737	2.954	2.327	2.164	1.764	1.763	1.614	1.280	1.454	1.123	1.165	1.051	1.144	1.115	1.129	1.123	1.088	1.064	0.945	0.879	0.830	0.853	0.898	0.961	1.120	1.187	1.357	1.642	1.639	1.312	1.045	1.025	0.888	0.863	0.871	0.917	1.121	1.133	1.209	1.436	1.693	2.156	3.053	4.987	5.687	3.840	2.565	2.774	3.835	5.631	9.489	12.32	17.67	31.97	65.36	86.05	35.38
300.0	395.1	461.8	447.7	286.6	170.7	153.5	168.5	216.2	295.2	549.8	973.7	634.1	500.1	639.0	1877	7701	5803	86.81	10.71	5.898	4.366	3.180	2.819	2.192	2.074	1.727	1.605	1.439	1.400	1.308	1.110	1.049	1.122	1.169	1.209	1.124	1.125	0.989	1.055	0.835	0.870	0.967	0.930	1.013	1.060	1.288	1.435	1.703	1.723	1.323	1.125	1.260	1.144	0.975	0.943	1.059	1.229	1.380	1.399	1.497	1.695	1.910	2.323	3.291	5.529	6.240	5.173	3.447	2.872	3.310	3.837	4.272	5.243	8.460	20.81	52.12	81.53
305.0	404.9	509.6	459.4	307.6	207.6	195.7	215.0	271.2	335.5	480.9	852.0	1023	546.4	401.8	580.9	2414	8748	4589	66.74	7.943	5.201	3.732	3.060	2.579	2.148	1.923	1.739	1.705	1.587	1.308	1.185	1.113	1.028	1.182	1.204	1.193	1.159	1.063	0.908	1.011	0.961	0.975	1.032	1.089	1.123	1.417	1.529	1.653	1.830	1.359	1.376	1.485	1.339	1.218	1.139	1.160	1.535	1.533	1.834	1.829	2.085	2.194	2.552	2.861	3.852	5.247	6.634	6.222	4.236	3.213	2.930	2.869	2.707	3.134	5.997	13.80	30.79
310.0	424.4	525.1	481.6	340.1	237.9	236.7	264.0	322.1	393.4	501.2	681.7	962.2	925.7	495.7	340.0	659.1	2683	5989	5578	296.6	16.87	5.629	4.141	3.160	2.555	2.246	1.838	1.605	1.457	1.375	1.289	1.280	1.066	1.139	1.299	1.133	1.212	1.135	1.020	0.963	0.951	0.936	0.987	1.155	1.238	1.491	1.493	1.745	1.828	1.537	1.435	1.521	1.459	1.408	1.330	1.432	1.510	1.728	1.889	1.958	2.324	2.413	2.789	2.910	3.490	4.074	4.674	5.723	6.348	5.850	4.187	3.318	2.563	2.409	2.698	4.236	8.032
315.0	419.9	526.4	515.7	371.0	274.6	278.7	295.2	368.5	435.0	543.4	645.9	765.7	900.4	839.8	382.3	303.7	704.8	1485	4449	7018	445.3	12.68	5.227	4.162	3.082	2.365	2.137	1.703	1.575	1.741	1.372	1.259	1.244	1.300	1.197	1.274	1.168	1.220	1.005	0.954	0.963	1.003	1.042	1.098	1.347	1.486	1.562	1.915	1.791	1.534	1.506	1.649	1.545	1.499	1.490	1.610	1.712	1.897	2.052	1.955	2.392	2.556	2.787	3.211	3.659	3.870	4.112	4.346	4.661	5.152	6.320	5.738	3.854	2.848	2.105	2.471	3.037
320.0	430.8	590.9	562.8	417.6	308.7	297.0	337.0	391.7	472.4	579.9	661.1	742.7	769.0	908.8	612.5	282.0	303.5	425.2	1264	5961	4134	63.01	7.826	4.985	3.667	2.938	2.457	2.023	1.953	1.608	1.517	1.313	1.182	1.288	1.134	1.334	1.242	1.104	1.090	0.849	0.963	1.129	1.055	1.244	1.373	1.551	1.630	2.118	1.994	1.587	1.618	1.980	1.735	1.703	1.604	1.812	1.876	2.039	2.118	2.310	2.445	2.718	2.971	3.436	3.527	3.916	4.146	3.855	4.186	4.260	5.015	6.190	5.407	4.505	2.530	2.446	2.265
325.0	486.0	680.5	694.8	491.4	351.0	322.5	357.4	412.6	500.6	604.5	700.9	758.8	743.5	772.6	806.1	405.8	248.2	215.2	361.4	1896	6285	3354	49.62	6.479	4.518	3.739	2.709	2.559	1.951	1.651	1.569	1.450	1.277	1.255	1.181	1.242	1.134	1.218	1.206	0.960	0.924	1.128	1.056	1.297	1.481	1.734	1.891	2.448	2.322	2.076	1.801	1.959	1.839	1.780	1.794	1.932	2.056	2.128	2.237	2.625	2.578	2.856	3.298	3.496	3.757	4.142	4.008	4.241	4.243	4.220	4.618	5.020	5.469	6.279	4.861	2.924	2.405
330.0	533.3	779.9	873.9	639.3	441.1	376.7	384.1	443.5	523.9	629.4	726.0	782.5	764.3	701.4	689.0	619.1	364.0	206.5	187.2	499.4	1972	4612	4431	236.0	12.80	4.716	3.400	2.669	2.221	1.879	1.713	1.523	1.383	1.306	1.391	1.180	1.140	1.092	1.010	1.063	1.076	1.065	1.172	1.184	1.395	1.855	2.171	2.790	2.955	2.687	2.290	2.552	2.219	2.089	1.947	2.001	2.266	2.183	2.414	2.607	2.803	2.917	3.418	3.758	3.956	4.126	4.385	4.548	4.481	4.431	4.471	4.429	4.584	4.929	5.298	4.917	4.266
335.0	569.2	884.5	981.8	767.7	530.3	421.5	424.0	470.6	551.2	652.2	749.2	810.0	792.8	721.0	626.2	577.2	585.1	311.0	187.3	214.5	501.0	1145	3907	5547	355.6	10.52	4.685	3.534	2.574	2.086	1.668	1.678	1.544	1.446	1.391	1.312	1.173	1.147	1.116	0.961	1.055	1.168	1.220	1.359	1.476	1.955	2.160	3.156	3.218	2.988	2.902	2.925	2.555	2.332	2.286	2.282	2.378	2.404	2.716	2.727	2.814	3.156	3.349	3.817	3.936	4.260	4.274	4.557	4.459	4.893	4.556	4.626	4.397	4.575	4.099	4.114	4.857
340.0	575.7	924.4	1040	846.2	594.5	469.7	451.7	482.0	559.1	653.8	757.6	817.8	801.8	737.9	630.4	526.2	573.4	476.1	230.0	170.5	192.5	308.9	1120	5029	3376	53.29	6.493	4.145	3.287	2.548	1.991	1.824	1.913	1.478	1.419	1.178	1.184	1.238	1.170	0.891	1.046	1.135	1.192	1.417	1.433	2.053	2.283	3.109	3.297	3.067	2.928	3.306	2.836	2.541	2.355	2.417	2.419	2.433	2.749	3.002	2.883	3.296	3.575	3.874	3.721	4.321	4.057	4.588	4.597	4.623	4.553	4.646	4.594	4.403	4.116	3.840	3.985
345.0	617.2	927.7	1086	886.9	636.8	504.9	476.2	494.3	566.6	652.9	742.8	797.7	800.2	739.0	638.0	519.9	486.6	530.0	343.0	187.5	142.7	137.6	298.4	1618	5251	2819	42.80	5.218	3.974	2.856	2.320	1.926	1.806	1.734	1.366	1.106	1.217	1.196	1.123	1.020	1.103	1.274	1.266	1.427	1.541	1.959	2.326	2.870	3.382	3.250	3.311	3.250	2.868	2.816	2.377	2.360	2.640	2.749	2.745	2.991	2.907	3.090	3.620	3.796	4.044	4.306	4.420	4.444	4.858	4.628	4.411	4.600	4.376	4.566	4.188	3.764	3.891
350.0	568.7	860.2	1033	899.9	687.6	543.1	502.8	518.3	571.6	646.9	725.2	769.8	776.7	726.8	638.7	532.0	461.7	441.5	441.4	298.7	166.8	125.5	133.6	411.3	1672	3789	3378	210.9	11.57	3.511	2.854	2.118	1.872	1.614	1.360	1.305	1.168	1.215	1.071	1.029	1.066	1.102	1.248	1.293	1.475	1.769	2.257	2.844	3.180	3.165	3.128	3.430	2.984	2.888	2.851	2.602	2.591	2.855	2.852	3.100	2.983	3.231	3.601	3.679	3.993	4.132	4.178	4.302	4.566	4.703	4.550	4.406	4.295	4.553	4.211	3.984	3.936
355.0	515.6	796.1	982.0	892.2	731.7	606.4	549.8	545.7	582.8	648.7	710.4	751.7	748.3	717.3	641.8	547.7	479.4	414.8	389.1	418.2	269.6	158.2	126.4	160.1	418.5	939.4	2931	3260	327.2	8.924	3.972	2.556	2.178	1.822	1.531	1.254	1.247	1.288	1.038	1.101	1.085	1.048	1.132	1.167	1.624	1.785	2.140	2.709	3.047	3.179	3.051	3.518	3.069	2.962	2.853	2.831	2.850	3.012	2.983	2.908	2.965	3.282	3.520	3.874	3.750	4.088	3.988	4.159	4.360	4.406	4.455	4.489	4.329	4.676	4.464	4.041	4.016
360.0	525.7	771.6	960.2	899.9	758.1	649.5	595.6	584.3	606.0	656.1	706.3	733.6	732.0	697.9	641.5	563.6	500.9	427.5	372.7	394.9	377.2	217.0	146.1	123.6	155.8	251.4	834.2	3615	3084	50.67	6.004	3.259	2.456	1.917	1.643	1.341	1.227	1.161	1.092	1.080	1.092	1.161	1.104	1.221	1.593	1.765	2.065	2.674	2.949	2.904	3.009	3.690	3.259	3.138	2.983	2.942	2.890	3.064	3.037	3.001	3.242	3.701	3.871	3.713	3.895	4.112	3.696	4.203	4.418	4.445	4.050	4.495	4.410	4.474	4.289	4.399	4.123
365.0	491.6	734.3	907.0	884.0	767.3	676.5	619.5	613.4	627.6	672.4	707.7	719.0	723.9	699.0	632.7	568.9	514.0	445.3	383.5	361.5	396.7	316.6	181.4	135.3	114.0	107.5	224.0	1175	4297	2608	42.61	4.647	2.838	2.221	1.752	1.476	1.392	1.302	1.257	1.124	1.005	1.185	1.036	1.268	1.452	1.773	2.072	2.509	2.701	2.880	2.872	3.518	3.354	3.210	3.070	3.045	3.106	2.995	3.232	3.078	3.465	3.541	3.689	3.648	3.632	4.054	3.698	3.806	4.326	4.344	4.475	4.054	4.405	4.545	4.158	4.402	4.274
370.0	474.3	675.6	866.8	860.0	787.8	706.9	659.3	636.4	649.8	672.2	699.4	710.1	700.0	680.8	624.3	573.3	524.7	467.0	412.5	372.0	355.9	368.2	289.0	178.7	131.1	101.6	105.1	301.8	1343	3243	3066	195.3	11.45	2.958	2.156	1.720	1.511	1.321	1.264	1.147	1.142	1.067	1.158	1.289	1.454	1.789	1.906	2.551	2.707	2.803	2.861	3.486	3.463	3.387	3.399	3.076	3.197	3.281	3.530	3.106	3.270	3.642	3.823	3.617	3.734	4.113	3.936	3.776	4.084	4.195	4.216	4.381	4.453	4.289	4.128	4.252	4.276
375.0	440.9	649.4	814.6	836.4	790.1	729.6	688.4	654.9	674.4	675.5	697.9	696.2	686.5	667.9	614.4	573.7	532.6	483.7	441.0	396.9	354.7	339.5	357.7	276.4	168.3	124.7	100.2	122.8	337.0	801.4	2529	2969	299.3	9.167	2.924	2.299	1.907	1.435	1.506	1.353	1.245	1.145	1.188	1.357	1.316	1.625	1.875	2.477	2.633	2.647	2.812	3.473	3.538	3.536	3.464	3.212	3.394	3.386	3.447	3.625	3.669	3.663	3.731	3.743	3.852	3.826	3.897	3.948	4.128	4.105	4.220	4.312	4.174	4.137	4.250	4.116	4.132
380.0	432.6	643.1	808.7	837.2	788.6	744.1	684.3	666.2	674.9	683.3	690.3	691.5	671.0	652.2	608.9	571.8	532.5	495.9	457.8	413.1	368.1	337.0	340.5	345.4	223.7	151.0	115.7	95.86	123.6	214.2	717.9	3055	2686	44.19	5.047	2.666	2.038	1.619	1.392	1.245	1.239	1.056	1.180	1.367	1.371	1.546	1.771	2.287	2.560	2.494	2.690	3.173	3.316	3.504	3.293	3.357	3.500	3.568	3.424	3.625	3.581	3.684	3.575	3.654	3.692	3.690	3.725	3.836	4.198	3.987	4.204	4.362	4.149	4.061	4.146	4.328	4.237
385.0	429.4	631.4	770.9	813.6	788.7	755.5	704.7	673.7	675.1	675.5	690.5	678.5	662.5	633.3	601.5	561.2	528.4	499.3	463.8	422.3	384.7	346.4	320.7	340.8	303.0	189.1	137.4	105.8	89.57	93.56	193.4	961.9	3354	2196	36.22	3.821	2.597	1.898	1.434	1.355	1.204	1.213	1.236	1.277	1.432	1.760	1.767	2.275	2.399	2.495	2.693	3.190	3.253	3.555	3.677	3.461	3.491	3.563	3.541	3.619	3.594	3.521	3.770	3.762	3.777	3.713	3.837	3.772	3.846	4.032	4.099	4.109	4.252	4.146	4.129	4.216	4.296
390.0	413.7	594.3	743.6	786.6	787.7	754.1	708.9	677.1	672.9	670.6	676.3	662.9	645.2	616.8	587.8	548.6	521.4	495.2	464.4	431.9	400.2	364.9	330.8	315.0	321.9	270.3	181.2	133.5	104.5	84.59	88.73	246.5	1004	2358	2307	161.9	10.87	2.516	1.739	1.542	1.339	1.344	1.368	1.338	1.456	1.628	1.700	2.268	2.403	2.429	2.523	3.352	3.279	3.597	3.427	3.344	3.610	3.506	3.658	3.739	3.746	3.631	3.851	3.966	3.722	3.801	3.732	3.680	3.802	3.784	3.895	3.992	4.108	4.189	4.138	4.287	4.029
395.0	422.9	597.4	727.2	780.2	781.2	764.3	709.5	680.6	663.4	665.6	656.6	642.1	626.7	606.7	574.1	537.7	507.1	489.2	467.2	435.0	404.1	378.6	346.5	321.3	299.9	306.3	262.9	173.1	132.4	105.5	83.61	97.98	252.9	570.4	1665	2395	271.2	10.19	2.591	2.034	1.601	1.366	1.418	1.312	1.354	1.513	1.810	2.320	2.336	2.429	2.559	3.096	3.254	3.540	3.356	3.547	3.602	3.348	3.781	3.550	3.911	3.595	3.665	3.875	3.513	3.755	3.701	3.748	3.760	3.910	4.014	4.044	3.998	3.928	4.216	4.330	4.073
400.0	395.2	583.8	699.6	770.6	764.4	749.4	704.4	687.2	666.5	660.4	653.1	630.0	620.3	594.6	561.7	523.9	498.7	481.3	463.9	437.1	408.5	384.3	359.1	331.2	302.7	290.7	304.8	225.5	160.0	125.6	96.21	78.64	94.24	153.3	452.6	2023	2269	216.1	5.230	2.293	1.871	1.398	1.382	1.345	1.480	1.614	1.790	2.188	2.225	2.242	2.448	3.073	3.202	3.610	3.487	3.221	3.657	3.365	3.812	3.381	3.688	3.552	3.586	3.594	3.517	3.781	3.879	3.641	3.610	3.809	3.614	3.674	3.798	3.831	4.227	4.164	3.835
405.0	374.7	559.9	712.4	762.9	764.6	742.8	708.8	687.4	661.9	659.3	648.7	624.8	608.9	591.0	546.7	514.6	488.7	467.3	451.0	432.3	408.2	386.8	365.9	341.4	313.4	289.1	297.7	279.9	194.8	146.6	112.9	85.68	68.65	66.38	124.2	589.8	2276	1958	35.06	3.535	2.290	1.732	1.490	1.535	1.531	1.655	1.829	2.226	2.248	2.212	2.483	3.062	3.108	3.268	3.309	3.184	3.682	3.465	3.556	3.402	3.440	3.597	3.558	3.785	3.611	3.639	3.797	3.789	3.325	3.724	3.563	3.660	3.763	3.918	4.102	3.912	4.022
410.0	376.7	540.3	684.9	744.3	746.7	724.2	701.7	685.1	652.7	650.9	637.2	618.6	597.9	567.3	534.3	498.5	470.2	454.1	436.7	418.9	402.8	383.7	368.9	346.8	323.6	297.1	283.7	283.2	255.7	183.9	135.2	102.6	75.49	58.02	58.32	153.2	644.2	1695	1814	517.9	11.20	2.164	1.713	1.643	1.544	1.660	1.792	2.108	2.288	2.263	2.489	3.087	3.270	3.240	3.189	3.086	3.502	3.536	3.450	3.633	3.570	3.700	3.657	3.515	3.583	3.650	3.544	3.432	3.441	3.575	3.528	3.655	3.567	3.738	3.816	3.741	3.761
415.0	369.0	511.4	657.4	722.7	721.9	712.2	692.3	682.4	657.7	641.7	617.2	601.2	570.1	553.1	511.4	469.4	443.3	429.9	413.7	399.8	388.9	374.2	361.8	347.7	327.0	304.4	283.4	263.7	266.1	239.0	163.3	119.2	86.82	64.05	49.50	60.04	162.0	401.4	1098	2211	265.0	11.98	2.329	1.810	1.773	1.717	1.655	2.011	2.164	2.168	2.365	3.046	3.080	3.247	3.078	3.343	3.752	3.408	3.673	3.567	3.489	3.465	3.591	3.539	3.435	3.348	3.536	3.191	3.132	3.543	3.376	3.422	3.476	3.744	3.546	3.565	3.720
