Sample:	'1
File name:	H2025091002Íä¹µºÓ518¹úµÀÇÅ.FD3
Run date:	'15:12:05, 09/11/2025
Operator:	Administrator
Comment:	'

Instrument
Model:	F-2700 FL Spectrophotometer
Serial number:	23C7-003
ROM Version:	4J14000 07

Instrument parameters
Measurement type:	3-D scan
Data mode:	Fluorescence
EX  Start WL:	220.0 nm
EX  End WL:	600.0 nm
EX Sampling interval:	5.0 nm
EM  Start WL:	230.0 nm
EM  End WL:	650.0 nm
EM Sampling interval:	5.0 nm
Scan speed:	12000 nm/min
EX Slit:	5.0 nm
EM Slit:	5.0 nm
PMT Voltage:	700 V
Response:	Auto 
Corrected spectra:	Off
Contour interval:	50.000

Peak integration
Integration method:	Rectangular
Sensitivity:	1
Threshold:	1.000

Peaks
No.	ApexEX/EM(nm)	Height(Data)
1	225.0/585.0	56.05
2	225.0/595.0	52.78
3	230.0/345.0	780.1
4	230.0/385.0	751.3
5	235.0/390.0	762.3
6	240.0/405.0	767.4
7	245.0/400.0	767.2
8	250.0/420.0	745.7
9	250.0/545.0	142.6
10	255.0/280.0	327.5
11	255.0/415.0	750.9
12	255.0/560.0	120.0
13	260.0/570.0	99.05
14	265.0/585.0	91.47
15	270.0/300.0	924.1
16	270.0/595.0	89.51
17	275.0/305.0	1132
18	275.0/385.0	703.7
19	275.0/400.0	720.7
20	275.0/610.0	85.72
21	280.0/310.0	1071
22	280.0/620.0	72.73
23	285.0/635.0	50.40
24	305.0/345.0	459.3
25	310.0/350.0	425.1
26	315.0/355.0	435.0
27	510.0/280.0	2.121
28	515.0/285.0	2.288
29	545.0/300.0	5.148
30	550.0/305.0	5.717
31	560.0/310.0	5.659
32	570.0/315.0	5.395
33	575.0/290.0	47.83
34	575.0/320.0	4.966

Data points
	220.0	225.0	230.0	235.0	240.0	245.0	250.0	255.0	260.0	265.0	270.0	275.0	280.0	285.0	290.0	295.0	300.0	305.0	310.0	315.0	320.0	325.0	330.0	335.0	340.0	345.0	350.0	355.0	360.0	365.0	370.0	375.0	380.0	385.0	390.0	395.0	400.0	405.0	410.0	415.0	420.0	425.0	430.0	435.0	440.0	445.0	450.0	455.0	460.0	465.0	470.0	475.0	480.0	485.0	490.0	495.0	500.0	505.0	510.0	515.0	520.0	525.0	530.0	535.0	540.0	545.0	550.0	555.0	560.0	565.0	570.0	575.0	580.0	585.0	590.0	595.0	600.0
230.0	39.16	837.3	2709	1073	46.81	5.971	5.608	4.574	4.107	3.858	4.086	3.454	2.869	2.638	2.340	1.935	1.718	1.740	1.482	1.290	1.286	1.167	1.052	1.044	0.905	0.916	0.791	0.749	0.789	0.720	0.684	0.715	0.581	0.532	0.530	0.495	0.437	0.411	0.423	0.411	0.442	0.514	0.613	0.526	0.389	0.367	1.103	5.372	10.11	8.268	3.267	0.684	0.303	0.295	0.258	0.277	0.266	0.264	0.297	0.249	0.283	0.258	0.285	0.300	0.271	0.268	0.275	0.251	0.262	0.272	0.242	0.298	0.305	0.272	0.304	0.279	0.288
235.0	108.7	227.9	1270	2552	1240	72.84	6.179	5.545	4.487	4.012	4.474	4.018	3.375	2.958	2.453	1.851	1.929	1.628	1.510	1.305	1.401	1.205	1.109	1.066	0.900	0.960	0.852	0.702	0.712	0.745	0.748	0.668	0.605	0.492	0.503	0.536	0.491	0.514	0.455	0.392	0.375	0.392	0.454	0.632	0.500	0.400	0.512	1.553	3.509	6.169	8.738	9.247	4.983	1.447	0.387	0.307	0.281	0.251	0.315	0.280	0.249	0.287	0.235	0.278	0.342	0.249	0.268	0.316	0.274	0.271	0.278	0.340	0.284	0.274	0.255	0.287	0.271
240.0	116.3	128.1	334.1	1623	2927	396.6	35.50	7.179	5.541	4.928	4.477	3.809	2.823	2.946	2.365	2.130	1.902	1.598	1.523	1.322	1.251	1.370	1.071	1.067	1.072	0.878	0.823	0.846	0.739	0.855	0.652	0.572	0.559	0.630	0.488	0.492	0.462	0.483	0.419	0.430	0.332	0.354	0.415	0.482	0.503	0.694	0.527	0.689	1.046	1.805	4.179	10.17	13.66	9.931	3.683	0.703	0.304	0.237	0.259	0.239	0.291	0.278	0.244	0.317	0.300	0.249	0.235	0.297	0.311	0.313	0.255	0.288	0.253	0.357	0.224	0.285	0.239
245.0	73.18	154.0	126.2	466.2	2280	2898	310.2	14.79	6.513	5.414	5.454	4.172	3.656	3.113	2.677	2.305	1.947	1.529	1.487	1.302	1.150	1.266	1.151	1.048	1.109	0.898	0.766	0.882	0.687	0.856	0.691	0.701	0.566	0.592	0.470	0.586	0.469	0.445	0.390	0.356	0.367	0.359	0.383	0.392	0.373	0.572	0.712	0.696	0.608	0.592	1.139	3.373	8.582	14.56	15.52	8.833	2.691	0.331	0.277	0.240	0.253	0.282	0.287	0.260	0.265	0.307	0.263	0.248	0.371	0.289	0.240	0.244	0.275	0.276	0.329	0.258	0.286
250.0	34.72	94.23	149.3	170.2	636.4	2113	2953	1128	83.40	6.673	5.816	4.695	4.294	3.331	2.705	2.449	2.075	1.589	1.625	1.413	1.295	1.376	1.191	1.126	1.045	0.929	0.900	0.902	0.807	0.744	0.664	0.579	0.677	0.543	0.529	0.512	0.448	0.438	0.440	0.392	0.382	0.440	0.366	0.390	0.330	0.413	0.461	0.623	0.730	0.757	0.656	1.035	2.314	4.739	8.744	13.28	16.81	14.26	8.130	2.474	0.450	0.303	0.269	0.290	0.282	0.315	0.310	0.279	0.322	0.278	0.239	0.266	0.283	0.269	0.270	0.256	0.360
255.0	27.73	34.06	83.19	185.6	211.5	500.1	1716	4437	1659	99.78	8.138	6.146	5.129	4.232	2.922	2.744	2.141	1.815	1.879	1.503	1.656	1.511	1.251	1.060	1.004	1.026	0.938	0.925	1.014	0.765	0.673	0.619	0.623	0.599	0.495	0.506	0.441	0.459	0.452	0.344	0.421	0.466	0.474	0.405	0.310	0.338	0.357	0.401	0.438	0.633	0.928	0.958	0.989	1.282	2.278	3.352	6.348	14.10	24.42	22.93	12.63	2.687	0.473	0.337	0.379	0.334	0.317	0.268	0.327	0.271	0.329	0.296	0.350	0.262	0.276	0.314	0.341
260.0	24.32	21.23	36.10	127.8	200.4	152.3	448.4	2814	5349	1314	58.49	8.025	5.851	4.475	3.644	2.871	2.542	2.023	1.833	1.458	1.645	1.372	1.349	1.232	0.997	0.981	1.043	0.919	0.917	0.735	0.809	0.730	0.632	0.522	0.507	0.483	0.482	0.452	0.397	0.376	0.415	0.493	0.423	0.432	0.381	0.361	0.341	0.325	0.299	0.388	0.616	0.988	1.174	0.823	0.849	1.053	1.641	3.932	10.97	23.60	33.67	21.91	8.752	1.264	0.387	0.374	0.339	0.295	0.298	0.290	0.343	0.312	0.323	0.352	0.244	0.288	0.322
265.0	28.65	23.11	20.91	53.67	190.3	162.7	123.2	797.0	4171	5876	998.1	22.79	7.073	5.201	4.014	3.234	2.568	1.988	1.938	1.655	1.732	1.365	1.398	1.259	1.227	1.061	1.055	0.979	0.929	0.842	0.763	0.714	0.658	0.587	0.453	0.445	0.461	0.506	0.471	0.480	0.392	0.434	0.489	0.530	0.348	0.346	0.297	0.413	0.333	0.310	0.341	0.602	0.983	1.331	1.094	0.688	0.676	1.139	2.852	7.296	19.27	34.62	28.43	18.31	4.799	0.552	0.390	0.261	0.331	0.291	0.290	0.291	0.315	0.315	0.283	0.332	0.302
270.0	34.32	23.34	17.81	22.65	75.83	184.3	175.0	214.2	1151	4215	6490	2474	61.58	7.862	5.373	3.929	2.978	2.352	2.199	2.036	1.894	1.483	1.438	1.240	1.321	1.235	1.056	1.012	0.989	0.909	0.839	0.758	0.735	0.647	0.515	0.525	0.533	0.584	0.488	0.408	0.467	0.419	0.514	0.455	0.403	0.383	0.340	0.327	0.359	0.305	0.273	0.411	0.494	0.794	1.162	1.331	1.097	0.812	0.941	1.983	4.788	10.63	18.60	30.37	31.56	30.56	12.21	4.130	0.670	0.338	0.313	0.322	0.307	0.320	0.307	0.325	0.346
275.0	53.24	44.73	31.02	20.13	31.94	72.61	235.4	224.1	293.8	1004	3519	9154	3519	71.13	8.073	5.240	4.080	2.917	2.520	2.391	2.010	1.668	1.456	1.445	1.395	1.281	1.175	1.077	0.897	1.070	0.757	0.837	0.780	0.670	0.684	0.594	0.634	0.523	0.563	0.543	0.427	0.456	0.472	0.477	0.489	0.469	0.412	0.365	0.353	0.310	0.266	0.304	0.347	0.465	0.548	0.697	1.327	1.733	1.343	0.936	1.374	2.793	4.483	7.458	11.61	29.55	51.77	28.33	17.85	3.866	0.478	0.403	0.301	0.361	0.284	0.381	0.317
280.0	84.86	75.56	46.36	32.67	24.89	37.06	133.3	327.5	189.3	273.4	947.2	5765	9240	871.3	38.67	6.581	5.116	3.500	3.137	2.750	2.071	1.838	1.771	1.423	1.355	1.269	1.174	1.149	0.972	1.037	0.799	0.787	0.787	0.721	0.656	0.628	0.726	0.633	0.637	0.646	0.498	0.589	0.542	0.491	0.457	0.535	0.464	0.462	0.394	0.373	0.333	0.426	0.361	0.364	0.405	0.458	0.648	1.346	2.121	1.705	1.148	1.099	1.420	2.110	3.142	8.089	22.12	44.09	64.37	26.77	11.93	1.382	0.446	0.376	0.299	0.396	0.400
285.0	132.9	128.0	90.90	54.71	38.72	35.04	67.90	248.9	274.3	173.9	313.3	1676	7743	7263	594.7	16.74	6.395	4.573	3.556	2.841	2.476	2.070	1.774	1.365	1.386	1.293	1.134	1.254	1.231	0.967	0.996	0.771	0.775	0.661	0.760	0.762	0.712	0.754	0.699	0.589	0.669	0.611	0.669	0.548	0.562	0.668	0.609	0.626	0.530	0.452	0.384	0.430	0.408	0.397	0.367	0.438	0.558	0.723	1.527	2.288	2.235	1.378	1.029	1.101	1.433	2.464	5.769	13.33	34.43	61.96	68.00	22.03	5.777	0.642	0.345	0.411	0.403
290.0	241.9	233.9	192.7	112.4	69.41	58.32	74.55	145.3	324.3	392.3	337.0	628.4	2269	6370	7571	2036	35.93	6.903	4.609	3.683	2.876	2.238	1.952	1.663	1.592	1.435	1.179	1.266	1.196	1.007	0.921	0.867	0.776	0.780	0.920	0.942	1.045	0.977	0.884	0.804	0.818	0.772	0.794	0.831	0.878	0.956	0.920	0.924	0.816	0.683	0.597	0.523	0.574	0.487	0.509	0.511	0.523	0.647	0.899	1.292	1.923	2.375	2.674	2.086	1.650	1.923	2.595	4.306	9.298	18.66	34.56	47.83	42.18	45.48	13.66	5.174	0.659
295.0	354.8	373.0	313.7	185.2	108.0	92.99	105.1	150.2	255.8	523.4	733.5	601.7	888.7	1689	4281	9999.9	2804	42.61	7.137	4.913	3.557	2.718	2.338	1.977	1.650	1.622	1.317	1.570	1.170	1.155	0.967	0.827	0.939	0.755	0.987	1.061	1.292	1.106	1.032	0.986	0.842	0.953	0.994	1.037	1.107	1.183	1.222	1.321	1.221	0.989	0.786	0.735	0.720	0.673	0.659	0.615	0.696	0.825	1.039	1.102	1.393	1.928	2.531	3.872	3.979	3.062	2.836	3.060	4.195	6.080	9.164	12.19	14.67	39.64	72.32	72.79	21.44
300.0	439.9	482.3	383.6	227.4	134.2	115.9	136.4	182.2	272.6	476.7	924.1	838.9	688.7	679.8	1183	6359	9999.9	510.5	25.45	6.408	4.461	3.087	2.629	2.308	2.023	1.836	1.588	1.488	1.164	1.246	1.070	0.970	0.971	0.941	1.084	1.195	1.212	1.224	1.077	1.094	0.965	1.017	1.135	1.205	1.349	1.582	1.478	1.540	1.424	1.255	0.957	0.756	0.874	0.742	0.743	0.714	0.766	0.951	1.055	1.284	1.497	1.831	2.318	3.104	4.548	5.148	4.258	3.680	3.716	3.718	3.921	4.133	4.323	10.45	26.84	63.83	89.23
305.0	486.8	537.1	446.3	272.5	167.5	135.7	165.5	222.4	306.9	482.8	830.7	1132	786.7	517.3	434.3	1734	8150	8377	372.3	11.71	5.989	4.071	3.000	2.461	2.169	1.918	1.484	1.492	1.309	1.212	1.247	1.184	1.001	0.933	1.111	1.284	1.353	1.404	1.354	1.133	1.151	1.109	1.271	1.367	1.400	1.628	1.537	1.723	1.561	1.322	1.070	0.946	0.921	0.782	0.863	0.848	0.958	1.124	1.229	1.203	1.649	1.883	2.383	2.908	3.607	4.963	5.717	5.357	4.214	3.464	3.071	2.647	2.265	3.338	6.886	17.30	41.73
310.0	515.4	583.5	476.2	295.8	187.7	155.1	190.0	247.7	342.1	509.4	739.4	1027	1071	616.5	313.0	495.5	2150	6326	6342	1532	26.51	5.698	4.111	3.042	2.492	2.079	1.715	1.714	1.450	1.386	1.285	1.201	0.995	0.980	1.147	1.344	1.336	1.427	1.278	1.285	1.198	1.136	1.359	1.417	1.477	1.762	1.640	1.719	1.769	1.354	1.072	1.030	1.023	0.928	0.914	0.955	1.098	1.110	1.372	1.448	1.688	2.032	2.429	2.856	3.468	3.915	4.779	5.494	5.659	5.191	3.822	2.600	2.060	1.974	2.529	4.725	10.27
315.0	531.6	583.0	492.3	311.8	210.8	180.7	206.3	266.4	361.1	514.2	702.5	865.2	959.0	873.0	387.0	251.5	559.0	1480	3696	9105	2211	29.53	5.975	4.271	3.286	2.501	2.121	1.956	1.566	1.463	1.412	1.217	1.098	0.944	1.206	1.400	1.362	1.445	1.383	1.336	1.207	1.269	1.375	1.522	1.474	1.586	1.726	1.842	1.765	1.447	1.151	1.087	1.024	0.996	0.907	0.961	1.126	1.224	1.411	1.583	1.776	2.189	2.479	3.019	3.367	3.728	4.009	4.434	4.647	5.167	5.395	4.140	2.727	1.960	1.746	2.097	3.150
320.0	548.8	624.9	534.2	337.9	218.6	198.5	218.2	276.6	368.3	512.1	687.3	810.8	840.3	866.4	583.7	245.7	228.3	391.7	938.7	5525	8599	380.1	17.88	5.245	3.779	2.823	2.298	2.025	1.768	1.487	1.426	1.303	1.113	1.037	1.121	1.311	1.428	1.331	1.418	1.460	1.207	1.295	1.339	1.387	1.643	1.681	1.886	2.023	1.957	1.519	1.195	1.104	1.105	1.021	0.973	1.072	1.155	1.283	1.582	1.645	1.891	2.184	2.631	2.807	3.402	3.585	4.023	3.997	4.061	4.199	4.637	4.966	4.076	2.526	1.887	1.666	1.754
325.0	576.5	664.0	600.1	399.2	245.8	209.2	231.7	290.9	382.0	517.4	680.6	786.4	790.5	714.8	706.7	365.0	185.4	170.6	263.7	1459	6783	6888	291.9	9.662	4.641	3.455	2.616	2.371	1.996	1.648	1.520	1.322	1.192	1.116	1.166	1.266	1.391	1.467	1.351	1.165	1.212	1.275	1.452	1.439	1.565	1.883	1.830	2.154	2.138	1.859	1.486	1.312	1.234	1.155	1.161	1.096	1.195	1.399	1.606	1.836	1.846	2.216	2.616	2.944	3.214	3.779	3.783	4.034	3.896	4.383	3.931	3.848	4.321	4.126	2.885	1.952	1.576
330.0	592.3	713.2	686.5	478.5	304.6	251.6	263.5	314.1	391.0	519.9	670.3	768.1	772.2	661.5	588.2	538.3	317.8	164.7	140.4	384.0	1772	5188	5212	1316	22.24	5.124	3.558	2.799	2.231	1.920	1.678	1.437	1.269	1.176	1.147	1.232	1.259	1.396	1.272	1.238	1.226	1.301	1.447	1.507	1.783	1.977	2.076	2.433	2.467	2.183	1.581	1.516	1.484	1.459	1.315	1.206	1.372	1.470	1.633	1.876	1.951	2.297	2.599	2.803	3.189	3.432	3.686	4.010	3.888	4.100	3.784	3.531	3.569	3.877	3.803	3.368	2.688
335.0	594.6	744.0	735.3	547.0	372.2	303.1	299.2	341.4	414.1	528.0	649.3	740.7	755.6	660.0	536.4	465.4	489.7	280.4	151.5	172.8	458.3	1219	3020	7831	2051	28.17	5.261	3.729	2.668	2.144	1.881	1.540	1.339	1.202	1.087	1.121	1.240	1.390	1.334	1.220	1.211	1.389	1.406	1.415	1.770	2.175	2.280	2.729	2.701	2.270	1.741	1.811	1.735	1.574	1.534	1.636	1.526	1.692	1.863	1.907	2.051	2.420	2.650	2.742	2.946	3.449	3.583	3.691	3.855	3.862	3.714	3.335	3.347	3.021	2.854	3.094	3.809
340.0	635.9	765.7	756.9	610.2	427.9	343.6	341.7	371.8	429.0	522.8	636.7	731.1	741.5	661.9	544.2	437.2	454.1	433.5	212.7	152.6	187.1	334.0	774.1	4640	7586	346.5	18.53	4.626	3.363	2.678	2.116	1.610	1.401	1.282	1.266	1.277	1.379	1.378	1.296	1.215	1.177	1.282	1.542	1.504	1.825	2.259	2.383	2.722	2.677	2.247	2.098	2.010	1.898	1.765	1.814	1.736	1.714	1.760	1.951	1.989	2.211	2.395	2.602	2.897	3.001	3.267	3.512	3.597	3.946	3.793	3.723	3.542	3.429	3.247	3.026	2.929	2.922
345.0	634.4	779.8	780.1	632.7	473.0	388.4	389.0	397.2	445.5	525.7	628.5	708.4	726.7	660.9	555.2	454.8	401.0	459.3	343.7	186.8	153.9	159.2	233.5	1226	5625	6179	285.7	10.12	4.081	3.475	2.256	1.733	1.581	1.355	1.265	1.323	1.310	1.316	1.166	1.116	1.323	1.419	1.490	1.546	1.653	2.200	2.177	2.693	2.813	2.357	2.230	2.089	2.142	1.956	1.879	1.783	1.949	1.996	1.964	2.025	2.287	2.238	2.625	2.824	3.060	3.152	3.253	3.423	3.669	3.576	3.734	3.640	3.512	3.351	3.005	2.982	3.090
350.0	596.8	756.8	760.0	665.5	528.6	453.5	444.5	437.1	470.7	528.8	612.5	683.5	697.9	658.9	576.3	486.7	420.7	401.7	425.1	331.5	208.3	163.1	149.4	343.1	1467	4191	4244	1233	21.39	4.800	2.929	2.252	1.767	1.613	1.362	1.343	1.255	1.258	1.248	1.175	1.293	1.369	1.531	1.564	1.660	2.074	2.136	2.617	2.696	2.350	2.302	2.276	2.226	2.119	2.117	1.985	2.171	2.128	2.213	2.200	2.256	2.384	2.664	2.846	2.951	3.143	3.099	3.238	3.465	3.630	3.576	3.535	3.494	3.422	3.146	3.074	3.317
355.0	584.8	724.1	760.8	682.4	569.5	518.8	503.5	481.9	502.6	553.3	612.0	667.6	690.1	659.1	598.7	530.8	466.6	418.7	401.4	435.0	349.0	224.0	176.7	184.4	401.4	993.8	2213	6248	2017	27.62	4.741	3.120	2.102	1.727	1.494	1.309	1.312	1.245	1.328	1.374	1.182	1.309	1.584	1.500	1.684	1.926	2.150	2.467	2.780	2.331	2.271	2.472	2.518	2.404	2.393	2.314	2.391	2.403	2.455	2.502	2.368	2.558	2.900	2.791	2.930	3.103	3.107	3.428	3.343	3.616	3.578	3.577	3.502	3.555	3.342	3.375	3.694
360.0	586.4	726.7	748.2	691.6	617.1	570.8	545.9	536.6	543.2	571.0	610.4	666.2	685.3	666.1	620.0	561.4	506.0	460.3	422.2	428.3	452.6	308.7	217.3	177.3	187.7	290.2	570.2	3395	6468	335.7	18.88	4.224	2.767	2.322	1.784	1.439	1.318	1.266	1.468	1.353	1.327	1.425	1.527	1.525	1.873	2.043	2.137	2.432	2.589	2.352	2.285	2.431	2.507	2.539	2.525	2.509	2.546	2.554	2.547	2.630	2.616	2.738	2.796	3.036	3.116	3.103	2.996	3.198	3.407	3.668	3.667	3.489	3.573	3.579	3.574	3.810	3.744
365.0	578.2	715.8	741.1	701.3	636.7	609.5	586.7	566.5	565.4	593.4	632.8	671.2	680.5	668.8	634.7	584.9	540.1	501.5	461.4	431.3	461.9	423.5	276.8	208.6	167.7	155.0	188.6	885.7	4334	5631	289.8	10.18	3.645	2.577	1.952	1.683	1.326	1.547	1.256	1.374	1.281	1.352	1.527	1.514	1.863	2.055	2.317	2.374	2.592	2.318	2.284	2.725	2.708	2.755	2.643	2.668	2.726	2.717	2.623	2.664	2.719	2.908	2.959	3.128	3.210	3.062	3.297	3.372	3.293	3.592	3.560	3.518	3.692	3.974	3.650	3.806	3.992
370.0	568.7	696.5	731.8	708.8	675.9	657.2	639.6	615.3	605.9	628.0	658.6	678.8	686.3	677.4	653.9	614.2	581.7	548.4	517.0	480.3	461.9	464.9	404.0	281.5	208.2	160.7	134.3	261.3	1111	3469	4777	1189	20.01	3.876	2.582	2.043	1.683	1.510	1.373	1.464	1.318	1.508	1.672	1.618	1.804	2.147	2.207	2.483	2.544	2.348	2.317	2.704	2.886	2.892	2.806	2.770	2.917	2.943	2.761	2.914	2.906	3.071	3.166	2.954	3.200	3.197	3.209	3.406	3.459	3.506	3.676	4.029	3.873	3.999	3.834	4.152	4.059
375.0	580.3	680.2	730.2	727.2	708.6	688.7	677.1	654.1	640.7	653.3	671.6	689.3	694.1	690.2	668.6	639.8	613.3	588.8	564.6	530.1	492.8	460.3	459.5	401.4	271.5	199.6	154.8	149.3	310.9	821.0	1925	5288	1943	25.80	3.730	2.576	1.977	1.747	1.571	1.498	1.400	1.532	1.719	1.687	1.728	2.051	2.142	2.383	2.662	2.252	2.475	2.735	2.931	2.853	2.851	2.894	3.062	3.142	3.135	3.041	3.095	3.195	3.121	2.830	3.280	3.262	3.242	3.293	3.615	3.664	3.856	4.043	3.982	3.967	3.999	4.359	4.521
380.0	582.2	692.9	732.0	724.6	729.4	720.4	696.0	676.9	663.5	666.9	688.5	702.2	699.4	691.0	679.5	645.9	633.6	610.7	593.5	559.6	521.1	482.4	453.5	456.2	348.9	240.9	182.1	143.4	150.7	238.3	481.7	2552	5328	1435	17.79	3.586	2.415	1.865	1.564	1.486	1.483	1.594	1.676	1.706	1.868	2.163	2.127	2.542	2.693	2.372	2.470	2.774	2.946	2.973	2.867	2.919	3.128	3.320	3.118	3.257	3.251	3.204	3.116	3.269	3.357	3.200	3.205	3.243	3.721	3.726	3.696	3.833	3.882	4.073	4.211	4.121	4.568
385.0	598.1	696.1	751.3	745.5	733.9	749.7	716.9	693.2	690.1	682.2	690.7	703.7	698.3	694.7	680.5	655.8	647.4	630.9	609.7	583.2	540.9	503.9	459.0	445.6	417.3	293.1	212.5	166.0	133.4	123.6	155.4	647.1	3103	4701	257.7	11.39	3.077	2.380	1.924	1.691	1.764	1.658	1.798	1.872	1.851	2.044	2.132	2.406	2.569	2.493	2.425	2.893	2.934	3.000	3.195	2.954	3.454	3.184	3.238	3.315	3.384	3.303	3.296	3.323	3.311	3.282	3.428	3.324	3.675	3.728	4.022	3.907	3.999	3.938	4.258	4.253	4.460
390.0	606.0	689.4	747.3	762.3	758.0	751.3	738.2	713.6	702.5	699.2	700.7	701.4	701.3	691.8	685.9	659.1	650.2	639.4	619.8	599.8	562.0	529.7	484.4	444.5	423.0	376.0	274.8	203.9	161.1	125.8	104.5	190.4	772.2	2431	3408	1075	18.06	3.689	2.487	2.137	1.738	1.910	1.714	1.874	1.963	1.998	2.228	2.419	2.651	2.447	2.429	2.921	3.107	3.078	3.179	3.130	3.362	3.324	3.347	3.286	3.361	3.405	3.327	3.340	3.323	3.306	3.389	3.389	3.721	3.497	3.766	3.913	3.944	4.093	4.296	4.261	4.555
395.0	598.2	685.0	739.3	758.3	763.4	755.6	763.3	736.6	708.5	708.5	706.8	720.0	709.3	691.4	684.2	657.9	648.9	647.4	626.7	610.8	576.9	545.3	506.1	461.5	419.8	390.3	358.5	259.2	201.1	157.3	120.5	108.6	216.1	572.5	1193	3570	1689	25.12	3.652	2.690	2.165	1.959	1.984	1.919	1.983	2.232	2.092	2.430	2.639	2.508	2.529	2.852	3.110	3.085	3.226	3.104	3.277	3.316	3.393	3.463	3.269	3.265	3.422	3.384	3.338	3.335	3.463	3.371	3.556	3.700	3.836	3.732	3.907	4.102	4.124	4.237	4.493
400.0	606.5	679.3	729.4	750.2	761.2	767.2	762.4	742.8	727.3	719.6	716.2	720.7	701.1	696.0	680.6	657.2	647.6	642.4	627.8	609.7	580.4	550.8	517.3	474.0	429.2	388.7	383.1	320.0	235.5	185.4	140.7	106.4	102.6	166.2	296.8	1508	3778	1304	18.08	3.392	2.612	2.442	2.265	2.074	2.144	2.219	2.063	2.537	2.709	2.449	2.387	2.799	3.072	3.220	3.130	3.181	3.513	3.422	3.246	3.398	3.432	3.391	3.468	3.312	3.186	3.303	3.353	3.408	3.483	3.650	3.666	3.769	4.010	4.103	4.182	4.384	4.606
405.0	634.6	691.1	728.4	745.5	767.4	764.7	764.1	745.3	733.9	720.9	718.2	716.7	700.5	689.6	676.0	650.1	636.8	634.4	619.8	602.6	576.9	554.8	524.9	483.2	443.0	398.1	376.2	360.3	282.6	211.9	162.8	119.8	91.10	83.89	98.61	374.9	1883	3517	235.3	12.19	3.398	2.633	2.431	2.199	2.088	2.274	2.131	2.389	2.535	2.594	2.426	2.827	3.149	3.219	3.168	3.293	3.563	3.343	3.218	3.287	3.445	3.421	3.535	3.406	3.330	3.322	3.250	3.324	3.422	3.586	3.544	3.492	4.033	3.960	3.929	4.138	4.401
410.0	611.9	682.1	736.5	743.1	749.3	760.7	752.2	743.9	736.5	721.4	720.5	712.1	699.7	678.5	652.5	633.0	619.9	616.5	602.2	587.4	570.0	548.0	524.8	490.9	456.3	410.7	374.8	356.6	332.5	264.1	192.7	144.3	107.1	80.68	65.42	113.5	460.4	1602	2442	993.7	17.87	3.506	2.667	2.343	2.164	2.428	2.220	2.507	2.600	2.465	2.465	2.906	3.076	3.172	3.233	3.169	3.260	3.384	3.319	3.334	3.474	3.417	3.611	3.357	3.549	3.287	3.431	3.218	3.355	3.401	3.660	3.576	3.846	3.935	4.000	4.181	4.273
415.0	604.1	663.9	716.5	725.0	734.8	734.7	739.2	750.9	731.4	726.2	715.2	701.1	682.3	661.1	632.8	604.2	591.8	587.8	579.0	565.9	553.1	531.0	514.4	486.7	454.5	417.5	382.8	351.6	332.2	313.9	235.4	169.3	127.2	94.48	69.71	64.00	129.8	375.9	774.7	2431	1534	24.69	3.594	2.771	2.341	2.386	2.234	2.517	2.606	2.466	2.406	2.796	3.052	3.157	3.190	3.036	3.182	3.364	3.332	3.264	3.505	3.521	3.599	3.396	3.477	3.520	3.244	3.423	3.192	3.319	3.558	3.768	3.541	3.919	3.830	4.180	4.200
