Sample:	'1
File name:	G2025051412晋控明水循环水2.FD3
Run date:	'14:06:41, 05/21/2025
Operator:	Administrator
Comment:	'

Instrument
Model:	F-2700 FL Spectrophotometer
Serial number:	23B8-004
ROM Version:	4J14000 07

Instrument parameters
Measurement type:	3-D scan
Data mode:	Fluorescence
EX  Start WL:	220.0 nm
EX  End WL:	600.0 nm
EX Sampling interval:	5.0 nm
EM  Start WL:	230.0 nm
EM  End WL:	650.0 nm
EM Sampling interval:	5.0 nm
Scan speed:	12000 nm/min
EX Slit:	5.0 nm
EM Slit:	5.0 nm
PMT Voltage:	700 V
Response:	Auto 
Corrected spectra:	Off
Contour interval:	50.000

Peak integration
Integration method:	Rectangular
Sensitivity:	1
Threshold:	1.000

Peaks
No.	ApexEX/EM(nm)	Height(Data)
1	225.0/570.0	27.22
2	225.0/580.0	27.00
3	230.0/565.0	29.43
4	235.0/515.0	173.3
5	240.0/265.0	358.1
6	240.0/385.0	1904
7	240.0/400.0	1569
8	240.0/525.0	175.4
9	245.0/270.0	374.2
10	245.0/535.0	163.8
11	250.0/275.0	490.8
12	250.0/550.0	138.0
13	255.0/280.0	555.5
14	255.0/565.0	120.5
15	260.0/290.0	506.1
16	260.0/575.0	104.8
17	265.0/295.0	624.6
18	265.0/585.0	90.92
19	270.0/300.0	854.0
20	270.0/600.0	82.06
21	275.0/305.0	857.2
22	275.0/340.0	492.8
23	275.0/610.0	67.65
24	280.0/385.0	2802
25	280.0/400.0	2222
26	280.0/625.0	59.20
27	285.0/320.0	745.5
28	285.0/635.0	41.96
29	290.0/325.0	657.9
30	300.0/335.0	427.5
31	305.0/345.0	395.1
32	310.0/350.0	320.2
33	315.0/355.0	318.0
34	320.0/365.0	317.0
35	335.0/385.0	877.6
36	355.0/385.0	1439
37	355.0/405.0	1253
38	370.0/405.0	1333
39	400.0/465.0	63.64
40	415.0/485.0	37.06
41	425.0/500.0	26.02
42	430.0/505.0	22.64
43	440.0/520.0	16.24
44	455.0/540.0	8.887
45	470.0/560.0	4.172
46	475.0/565.0	3.434
47	485.0/385.0	7.778
48	505.0/275.0	2.924
49	510.0/280.0	3.355
50	520.0/285.0	3.451
51	530.0/290.0	3.194
52	540.0/295.0	4.260
53	545.0/300.0	4.876
54	545.0/385.0	8.879
55	550.0/305.0	4.836
56	560.0/310.0	4.066
57	570.0/315.0	4.875
58	570.0/385.0	15.20
59	580.0/320.0	4.407
60	585.0/325.0	4.087

Data points
	220.0	225.0	230.0	235.0	240.0	245.0	250.0	255.0	260.0	265.0	270.0	275.0	280.0	285.0	290.0	295.0	300.0	305.0	310.0	315.0	320.0	325.0	330.0	335.0	340.0	345.0	350.0	355.0	360.0	365.0	370.0	375.0	380.0	385.0	390.0	395.0	400.0	405.0	410.0	415.0	420.0	425.0	430.0	435.0	440.0	445.0	450.0	455.0	460.0	465.0	470.0	475.0	480.0	485.0	490.0	495.0	500.0	505.0	510.0	515.0	520.0	525.0	530.0	535.0	540.0	545.0	550.0	555.0	560.0	565.0	570.0	575.0	580.0	585.0	590.0	595.0	600.0
230.0	25.16	207.0	799.7	370.0	26.07	6.462	5.358	4.449	4.019	3.690	3.433	2.889	2.752	2.223	1.807	1.568	1.312	1.161	1.071	0.946	0.941	0.799	0.865	0.772	0.726	0.720	0.771	0.812	0.644	0.700	0.717	0.650	0.545	0.486	0.471	0.409	0.463	0.405	0.363	0.383	0.394	0.355	0.412	0.365	0.350	0.302	0.466	1.433	2.904	2.583	1.393	0.467	0.278	0.285	0.290	0.280	0.272	0.263	0.271	0.257	0.274	0.249	0.283	0.258	0.271	0.298	0.272	0.267	0.297	0.266	0.297	0.284	0.291	0.290	0.269	0.280	0.289
235.0	38.42	70.29	588.9	1504	524.7	48.73	7.571	5.429	4.012	3.768	3.565	2.708	3.261	2.249	1.885	1.557	1.424	1.237	1.126	1.119	0.927	0.770	0.862	0.953	0.714	0.694	0.798	0.707	0.673	0.728	0.647	0.656	0.676	0.635	0.421	0.460	0.395	0.405	0.399	0.451	0.399	0.369	0.458	0.392	0.395	0.346	0.399	0.565	1.264	2.823	5.171	6.629	3.685	0.956	0.275	0.255	0.272	0.268	0.226	0.308	0.310	0.264	0.233	0.262	0.299	0.255	0.251	0.256	0.289	0.277	0.268	0.276	0.370	0.325	0.245	0.262	0.284
240.0	50.28	59.60	190.2	1385	2309	437.1	26.77	5.919	5.084	4.395	3.912	2.901	2.972	2.611	2.252	1.651	1.296	1.312	1.046	1.099	1.010	0.844	0.923	0.966	0.824	0.755	0.706	0.838	0.680	0.764	0.743	0.655	0.643	0.477	0.418	0.466	0.388	0.380	0.419	0.440	0.468	0.375	0.397	0.407	0.389	0.483	0.432	0.433	0.495	0.944	2.833	8.150	11.40	9.137	3.250	0.682	0.297	0.263	0.250	0.285	0.298	0.280	0.230	0.261	0.241	0.291	0.269	0.264	0.244	0.310	0.276	0.278	0.288	0.288	0.312	0.307	0.348
245.0	52.83	90.10	85.17	477.9	2399	2594	327.0	12.38	6.331	4.456	4.512	3.835	2.969	2.371	1.953	1.900	1.290	1.384	1.227	1.107	0.889	0.892	0.850	0.996	0.900	0.800	0.898	0.723	0.644	0.809	0.656	0.659	0.663	0.528	0.455	0.421	0.333	0.392	0.407	0.412	0.459	0.348	0.387	0.417	0.367	0.492	0.517	0.511	0.379	0.386	0.835	2.922	7.915	14.24	15.18	8.670	2.338	0.448	0.304	0.307	0.323	0.308	0.333	0.296	0.254	0.328	0.257	0.282	0.307	0.330	0.306	0.258	0.313	0.283	0.371	0.242	0.323
250.0	34.80	75.14	154.1	183.8	754.4	2475	3346	1137	67.43	6.442	4.964	4.363	3.343	2.870	2.241	1.865	1.569	1.433	1.224	1.189	1.020	0.881	0.776	0.903	0.845	0.761	0.873	0.750	0.723	0.754	0.751	0.781	0.552	0.545	0.490	0.407	0.405	0.403	0.391	0.405	0.361	0.380	0.377	0.353	0.386	0.362	0.383	0.567	0.660	0.602	0.633	0.925	2.074	4.667	8.818	14.23	17.78	15.91	9.227	2.581	0.518	0.344	0.289	0.329	0.303	0.317	0.291	0.318	0.272	0.299	0.308	0.269	0.339	0.291	0.302	0.307	0.365
255.0	33.69	39.04	122.9	268.2	254.2	626.4	2531	5154	1539	57.57	7.304	5.777	4.504	3.225	2.420	2.299	1.732	1.630	1.250	1.357	0.978	1.191	0.862	0.801	0.907	0.910	0.873	0.833	0.751	0.800	0.827	0.716	0.575	0.610	0.440	0.394	0.429	0.380	0.419	0.348	0.407	0.453	0.444	0.340	0.448	0.379	0.312	0.365	0.477	0.665	1.135	1.162	0.951	1.327	2.292	3.595	6.374	15.56	28.47	26.97	14.38	2.857	0.416	0.355	0.309	0.330	0.279	0.300	0.271	0.341	0.351	0.297	0.319	0.306	0.256	0.309	0.317
260.0	31.46	28.83	49.77	251.0	299.0	199.3	779.7	4166	5591	269.1	26.55	7.107	5.186	3.755	2.829	2.222	1.850	1.712	1.533	1.213	1.122	1.085	0.966	0.952	0.902	0.860	0.859	0.864	0.739	0.858	0.949	0.744	0.561	0.518	0.463	0.415	0.456	0.411	0.370	0.429	0.510	0.478	0.417	0.376	0.452	0.369	0.277	0.356	0.343	0.385	0.762	1.496	1.718	1.111	0.844	1.137	1.780	4.349	12.19	26.15	36.19	24.99	10.38	1.528	0.327	0.332	0.312	0.311	0.317	0.315	0.301	0.304	0.313	0.325	0.296	0.316	0.324
265.0	36.62	24.49	25.12	116.0	358.1	238.7	212.2	1401	5832	5310	213.9	11.86	7.070	4.920	3.458	2.545	2.135	1.761	1.601	1.356	1.150	1.048	1.074	0.914	0.987	0.948	0.818	0.881	0.794	0.868	0.899	0.710	0.685	0.577	0.424	0.504	0.436	0.465	0.415	0.371	0.424	0.375	0.447	0.444	0.492	0.396	0.326	0.396	0.346	0.335	0.393	0.764	1.602	2.023	1.451	0.771	0.714	1.306	3.168	7.820	19.62	34.87	33.44	22.20	5.906	0.713	0.376	0.328	0.320	0.328	0.358	0.336	0.366	0.352	0.332	0.306	0.360
270.0	38.32	27.32	23.47	42.92	179.4	374.2	275.8	366.7	1877	5427	6318	802.9	42.78	7.059	4.356	3.216	2.667	2.052	1.661	1.377	1.361	1.121	1.086	1.004	1.096	0.897	0.933	0.906	0.934	0.948	0.982	0.825	0.681	0.600	0.493	0.564	0.486	0.445	0.424	0.324	0.424	0.363	0.405	0.392	0.458	0.406	0.367	0.334	0.340	0.309	0.326	0.436	0.696	1.204	1.824	2.035	1.921	1.073	1.085	2.167	4.894	10.25	18.16	30.29	32.17	32.59	15.08	5.180	0.740	0.373	0.340	0.348	0.379	0.351	0.296	0.383	0.418
275.0	40.53	38.05	30.68	30.84	61.37	182.0	490.8	319.8	466.2	1381	4910	8863	1059	30.81	6.801	4.712	3.229	2.548	2.342	1.569	1.376	1.089	1.094	1.159	1.085	1.047	1.109	0.961	0.896	0.823	0.906	0.872	0.667	0.647	0.632	0.593	0.489	0.453	0.498	0.396	0.402	0.396	0.441	0.382	0.492	0.438	0.390	0.447	0.388	0.333	0.352	0.336	0.455	0.571	0.778	1.145	2.238	2.924	2.152	1.192	1.485	2.723	4.522	7.326	10.29	23.34	45.15	51.34	22.88	5.404	0.507	0.375	0.434	0.364	0.289	0.399	0.356
280.0	57.12	51.91	49.51	33.59	38.92	76.63	324.0	555.5	245.1	366.1	1494	7412	7865	146.0	14.06	5.998	3.825	2.991	2.445	1.923	1.598	1.367	1.337	1.291	1.230	1.163	1.101	0.970	0.898	0.867	0.908	0.928	0.746	0.564	0.623	0.523	0.520	0.412	0.397	0.496	0.441	0.396	0.459	0.426	0.459	0.410	0.458	0.407	0.428	0.417	0.327	0.391	0.397	0.465	0.460	0.615	1.140	2.306	3.355	3.020	1.566	1.083	1.460	2.150	2.900	6.267	16.28	36.87	54.22	32.67	17.22	2.310	0.485	0.444	0.363	0.347	0.422
285.0	63.11	70.05	61.56	48.61	41.30	53.15	138.8	510.2	349.6	180.4	418.1	2416	8766	5979	106.3	8.258	4.982	3.608	2.703	2.109	2.120	1.894	1.418	1.349	1.281	1.154	1.046	1.024	1.001	0.944	0.922	0.999	0.748	0.623	0.564	0.591	0.493	0.500	0.456	0.546	0.532	0.440	0.455	0.476	0.495	0.430	0.488	0.505	0.509	0.453	0.412	0.422	0.437	0.430	0.444	0.512	0.661	1.029	1.867	3.387	3.451	2.070	1.081	1.020	1.273	2.045	4.258	9.805	22.25	42.37	57.52	28.82	9.945	0.999	0.446	0.379	0.460
290.0	70.04	88.87	92.53	72.80	56.62	58.66	85.65	225.6	506.1	466.8	246.8	656.3	2706	6479	6055	426.9	20.85	5.041	3.776	2.957	2.276	1.846	1.688	1.556	1.418	1.108	1.154	1.251	1.081	0.944	1.048	0.920	0.833	0.666	0.629	0.601	0.576	0.487	0.512	0.506	0.541	0.489	0.511	0.451	0.479	0.485	0.537	0.589	0.566	0.484	0.454	0.521	0.459	0.469	0.547	0.495	0.578	0.710	0.894	1.451	2.307	3.188	3.194	2.463	1.506	1.268	1.690	2.982	5.646	11.39	22.04	31.90	41.06	37.74	18.72	8.170	1.194
295.0	82.23	105.0	121.8	103.4	79.99	76.62	92.82	133.2	257.7	624.6	594.4	317.9	728.2	1635	4646	6523	587.3	16.15	4.865	3.791	2.894	2.218	1.711	1.759	1.698	1.343	1.397	1.410	1.221	1.053	1.151	1.073	0.791	0.716	0.728	0.559	0.631	0.584	0.588	0.523	0.523	0.576	0.471	0.422	0.469	0.537	0.569	0.606	0.646	0.534	0.548	0.704	0.572	0.538	0.652	0.724	0.670	0.714	0.800	0.939	1.164	1.643	2.108	3.705	4.260	2.871	1.570	1.648	2.105	3.375	5.662	7.911	10.98	18.97	39.43	54.34	29.37
300.0	79.53	122.5	145.0	129.1	100.6	97.27	117.7	140.4	203.9	413.0	854.0	470.9	322.9	485.7	1350	6043	5428	83.76	8.741	5.019	3.509	2.539	1.998	2.113	1.603	1.537	1.328	1.462	1.246	1.017	1.111	1.134	0.806	0.791	0.759	0.598	0.480	0.575	0.553	0.599	0.494	0.444	0.576	0.498	0.509	0.587	0.544	0.612	0.699	0.586	0.591	0.725	0.682	0.644	0.694	0.720	0.749	0.829	0.909	0.934	1.183	1.080	1.271	2.359	3.677	4.876	3.658	1.885	1.717	1.790	2.194	2.492	3.271	4.979	11.93	29.58	51.32
305.0	82.71	132.5	161.9	147.3	121.4	118.7	146.9	181.4	227.5	329.1	687.6	857.2	369.2	273.5	410.3	1949	6967	4146	62.57	6.505	4.286	3.231	2.509	2.226	1.592	1.443	1.540	1.464	1.081	1.051	1.097	1.001	0.901	0.897	0.682	0.599	0.572	0.614	0.571	0.553	0.576	0.494	0.526	0.523	0.534	0.611	0.573	0.668	0.697	0.679	0.678	0.732	0.700	0.738	0.749	0.764	0.819	0.959	1.099	1.036	1.410	1.337	1.372	1.902	2.217	3.713	4.836	4.465	2.707	1.970	1.667	1.720	1.751	2.012	3.361	7.687	17.70
310.0	97.72	137.5	186.2	162.6	144.6	148.5	172.4	210.9	265.6	334.0	474.2	770.4	743.6	351.0	241.4	534.3	2163	4998	4572	291.5	14.47	4.222	3.191	2.546	1.851	1.705	1.653	1.677	1.442	1.351	1.321	1.145	0.968	0.858	0.679	0.639	0.632	0.634	0.563	0.581	0.532	0.508	0.543	0.506	0.533	0.574	0.592	0.716	0.753	0.729	0.744	0.804	0.804	0.807	0.822	0.897	0.997	1.082	1.109	1.248	1.376	1.506	1.766	1.958	2.047	2.378	3.005	3.883	4.066	3.954	3.043	1.957	1.586	1.482	1.689	2.519	4.666
315.0	95.12	143.1	184.5	175.2	163.6	164.0	198.7	237.4	290.2	353.6	433.9	536.5	709.4	689.6	277.6	233.6	563.2	1242	3714	4505	423.3	10.67	4.578	3.177	2.459	1.891	1.776	1.885	1.513	1.268	1.444	1.173	0.937	0.878	0.734	0.626	0.684	0.654	0.551	0.514	0.564	0.511	0.581	0.513	0.538	0.622	0.558	0.741	0.824	0.739	0.747	0.978	0.907	0.823	0.876	0.959	1.207	1.175	1.255	1.337	1.393	1.613	1.669	1.967	1.987	2.180	2.358	2.565	2.787	3.449	4.875	4.060	2.612	1.785	1.499	1.539	1.948
320.0	113.5	171.0	216.5	200.9	174.6	183.5	206.6	257.0	309.5	362.1	431.0	484.4	546.0	745.5	485.7	197.7	220.8	335.8	1052	4588	3934	62.32	6.840	4.029	3.241	1.981	2.011	2.163	1.486	1.306	1.517	1.335	1.011	0.938	0.833	0.716	0.727	0.691	0.532	0.568	0.609	0.469	0.552	0.615	0.615	0.596	0.697	0.799	0.868	0.855	0.805	0.918	0.902	0.933	0.885	0.996	1.106	1.132	1.204	1.355	1.556	1.629	1.799	2.122	2.089	2.164	2.294	2.522	2.451	2.636	3.256	4.009	4.407	3.134	1.996	1.417	1.353
325.0	113.4	193.4	270.1	235.8	194.6	196.1	216.4	268.5	319.4	378.8	442.6	480.8	483.2	564.2	657.9	286.0	153.0	140.9	276.2	1483	5236	3111	48.86	5.355	3.735	2.566	2.272	2.435	1.633	1.485	1.507	1.400	1.151	0.996	0.783	0.719	0.742	0.683	0.662	0.582	0.541	0.578	0.476	0.563	0.569	0.549	0.757	0.795	0.917	0.978	0.963	0.978	0.893	1.014	1.047	1.125	1.211	1.117	1.399	1.546	1.575	1.731	1.753	2.105	2.252	2.286	2.489	2.517	2.547	2.383	2.504	2.629	3.840	4.087	3.510	1.896	1.444
330.0	125.9	201.0	311.6	296.5	245.9	221.6	236.8	279.5	328.4	384.9	446.5	488.3	472.5	447.1	500.7	474.3	237.0	114.7	114.3	368.4	1638	3852	3567	234.7	12.33	3.668	2.740	2.656	1.967	1.594	1.639	1.586	1.229	1.053	0.808	0.776	0.741	0.700	0.700	0.587	0.530	0.552	0.511	0.529	0.504	0.615	0.678	0.895	1.043	1.052	1.031	1.062	1.020	1.156	1.047	1.174	1.301	1.361	1.404	1.603	1.607	1.832	1.914	1.995	2.211	2.244	2.348	2.466	2.558	2.439	2.541	2.302	2.607	2.913	3.196	3.123	2.799
335.0	127.4	231.8	349.6	351.7	290.6	258.5	270.2	294.9	335.0	399.0	455.2	491.5	474.7	426.2	373.4	385.1	427.5	185.9	94.67	130.0	399.3	951.1	3051	3616	355.0	9.408	3.740	3.139	2.457	1.880	1.786	1.636	1.039	1.120	0.870	0.788	0.799	0.707	0.644	0.504	0.596	0.506	0.518	0.644	0.597	0.581	0.724	0.904	1.222	1.231	1.220	1.433	1.156	1.288	1.294	1.263	1.298	1.478	1.480	1.562	1.783	1.768	2.027	2.033	2.202	2.170	2.264	2.485	2.538	2.429	2.442	2.084	2.298	2.264	2.257	2.205	2.948
340.0	121.8	236.5	381.9	390.8	327.3	298.4	307.6	318.4	356.8	401.9	455.6	492.8	474.5	431.7	355.4	302.4	397.5	332.8	122.5	88.71	132.4	244.8	872.5	3833	3266	53.64	5.808	3.827	2.637	1.993	2.017	1.558	1.162	1.122	0.876	0.857	0.774	0.744	0.716	0.552	0.573	0.467	0.486	0.530	0.547	0.708	0.791	1.045	1.251	1.321	1.274	1.590	1.328	1.526	1.429	1.268	1.488	1.597	1.560	1.745	1.772	1.881	2.079	2.147	2.534	2.230	2.492	2.592	2.539	2.523	2.490	2.278	2.172	2.220	1.957	1.912	2.080
345.0	131.9	232.2	387.2	419.2	384.5	348.1	349.9	355.8	386.2	413.9	456.2	477.0	471.4	425.7	351.3	278.4	290.3	395.1	223.9	88.97	86.02	97.16	227.2	1244	4341	2657	44.23	5.210	3.052	2.317	2.561	1.937	1.256	1.219	0.984	0.783	0.752	0.881	0.766	0.660	0.600	0.522	0.516	0.540	0.491	0.721	0.716	1.096	1.297	1.167	1.328	1.562	1.484	1.668	1.534	1.580	1.690	1.721	1.706	1.941	1.914	1.998	2.094	2.268	2.643	2.299	2.351	2.473	2.673	2.395	2.281	2.349	2.355	2.200	1.939	1.910	1.939
350.0	130.0	226.6	380.2	448.6	437.0	403.4	395.2	393.7	418.3	451.5	471.2	473.8	465.0	421.2	358.3	290.3	254.0	288.4	320.2	197.4	105.1	82.58	97.51	313.3	1355	3083	2898	217.0	12.13	3.262	2.786	2.264	1.562	1.331	1.093	0.901	0.793	0.806	0.625	0.587	0.638	0.552	0.518	0.551	0.543	0.689	0.766	0.998	1.213	1.279	1.299	1.672	1.749	1.782	1.819	1.766	1.782	2.000	1.887	2.052	1.988	2.147	2.305	2.270	2.429	2.368	2.255	2.361	2.396	2.310	2.252	2.382	2.170	2.175	1.976	1.937	1.833
355.0	115.4	223.7	358.0	463.8	467.6	450.3	446.4	429.9	437.1	466.6	480.7	475.4	462.6	424.7	371.5	304.7	263.6	244.3	256.0	318.0	194.4	104.5	87.29	120.8	339.1	756.4	2291	4611	339.7	11.31	3.999	3.304	1.979	1.363	1.249	0.928	0.817	0.729	0.680	0.596	0.603	0.596	0.526	0.618	0.618	0.721	0.742	0.992	1.254	1.257	1.313	1.716	1.849	1.891	1.965	1.930	2.045	2.187	2.095	2.096	2.024	2.244	2.355	2.400	2.447	2.370	2.389	2.408	2.490	2.222	2.482	2.374	2.151	2.177	2.030	1.919	2.010
360.0	119.6	204.6	371.4	466.5	502.4	486.9	468.6	465.5	468.5	480.1	483.0	478.6	460.0	428.2	378.7	320.1	280.8	249.3	229.4	289.2	298.2	154.7	101.0	93.13	123.8	204.4	640.7	3936	3011	52.60	8.967	5.611	3.025	1.518	1.271	0.922	0.831	0.834	0.792	0.621	0.697	0.596	0.583	0.557	0.563	0.656	0.721	0.940	1.217	1.271	1.495	1.921	1.826	2.060	2.091	2.084	2.001	2.145	2.358	2.063	2.151	2.184	2.302	2.548	2.547	2.319	2.369	2.347	2.466	2.267	2.399	2.200	2.198	2.199	2.122	2.046	2.212
365.0	122.5	211.8	368.7	477.2	534.0	523.3	512.0	488.6	494.1	493.2	499.8	491.1	476.9	440.4	385.4	329.6	298.7	268.7	242.5	245.7	317.0	251.0	134.8	105.3	93.72	94.97	185.0	1236	3456	2556	46.88	14.77	6.160	2.528	1.473	1.103	0.849	0.776	0.852	0.654	0.617	0.626	0.656	0.498	0.610	0.610	0.770	0.935	1.092	1.299	1.562	2.003	1.802	2.158	2.200	2.125	2.216	2.314	2.357	2.361	2.364	2.485	2.452	2.505	2.426	2.408	2.518	2.345	2.441	2.547	2.353	2.214	2.217	2.238	2.125	2.142	2.245
370.0	121.6	223.0	412.1	582.4	660.3	677.3	586.7	550.2	554.7	592.7	646.0	624.2	736.6	567.3	413.4	356.6	325.8	298.0	275.1	262.2	284.4	323.6	277.0	204.7	169.7	166.1	221.1	457.6	1135	2695	2825	815.5	81.69	16.99	3.837	1.795	1.266	1.044	0.798	0.812	0.706	0.749	0.668	0.573	0.577	0.608	0.777	1.073	1.150	1.371	1.696	2.237	2.425	2.848	2.847	2.533	2.542	2.533	2.458	2.696	2.516	2.728	2.777	2.848	3.012	3.155	3.131	2.995	3.183	3.678	3.758	2.886	2.446	2.476	2.317	2.321	2.308
375.0	135.1	296.1	608.0	888.2	1230	1158	783.4	687.6	746.5	876.7	1169	1121	1457	1062	494.1	405.6	367.3	354.1	334.6	339.5	357.9	377.8	495.8	474.8	421.4	428.0	695.0	806.3	644.8	1132	2692	4100	1090	79.49	12.42	4.017	2.134	1.428	1.103	0.932	0.928	0.917	0.783	0.712	0.696	0.790	0.981	1.316	1.675	1.906	2.584	3.583	4.227	4.876	4.839	4.089	3.537	3.096	2.849	3.139	3.475	3.572	3.774	4.097	5.178	5.517	4.932	4.551	5.658	8.594	8.922	5.512	3.185	2.758	2.714	2.601	2.412
380.0	157.6	354.2	757.2	1229	1689	1583	935.2	790.5	907.0	1128	1613	1558	2401	1474	563.5	441.0	400.5	393.7	386.4	404.8	440.6	458.5	600.1	784.1	693.1	723.7	1105	1230	885.6	1028	1877	3776	2944	303.9	22.12	6.052	2.872	1.868	1.355	1.159	1.085	0.912	0.840	0.767	0.814	0.920	1.007	1.452	2.142	2.498	3.249	4.592	5.741	7.015	6.752	5.021	4.046	3.654	3.135	3.305	3.916	4.102	4.244	5.168	6.675	8.292	6.590	6.153	7.932	12.81	12.81	7.222	3.801	3.012	2.970	2.680	2.792
385.0	177.5	363.7	846.8	1403	1904	1792	1013	841.1	980.1	1233	1804	1756	2802	1668	596.6	451.3	421.0	416.0	411.8	441.1	483.7	504.4	641.8	877.6	857.8	870.5	1314	1439	1030	1101	1759	2313	3083	2290	44.54	8.187	3.535	2.238	1.525	1.262	1.215	0.952	0.944	0.837	0.931	0.961	1.093	1.630	2.178	2.739	3.840	5.213	6.247	7.778	7.636	5.791	4.559	4.087	3.596	3.705	4.109	4.394	4.838	5.782	7.231	8.879	7.666	6.964	9.145	13.90	15.20	7.927	4.145	3.302	2.955	2.993	2.871
390.0	147.1	321.5	714.5	1186	1622	1510	914.1	773.8	879.7	1063	1503	1461	2292	1402	549.4	430.4	405.1	398.9	394.7	414.5	446.3	457.0	553.1	713.3	738.4	790.8	1091	1170	835.4	868.3	1343	1461	1165	1904	1960	573.6	13.24	2.430	1.679	1.291	1.036	0.926	0.943	0.853	0.790	0.892	1.092	1.478	1.922	2.429	3.198	4.459	5.208	6.538	6.584	4.921	4.247	3.567	3.433	3.331	3.704	4.098	4.378	4.774	5.963	7.513	6.425	6.092	7.580	11.60	12.30	6.857	3.794	3.252	2.802	2.869	2.733
395.0	130.8	308.0	669.7	1112	1497	1395	882.2	748.6	848.3	994.5	1402	1349	2105	1291	523.7	422.6	397.4	390.3	388.4	403.8	433.5	448.5	526.7	659.8	654.8	755.6	1070	1101	778.2	805.2	1226	1241	591.8	523.4	1147	2323	280.0	14.43	2.004	1.667	1.253	1.042	0.958	0.883	0.876	0.911	0.939	1.358	1.799	2.346	2.853	4.296	4.642	5.969	6.096	4.676	4.042	3.485	3.332	3.504	3.575	4.078	3.948	4.392	5.552	6.855	5.826	5.267	6.916	10.87	11.41	6.001	3.651	3.076	2.584	2.686	2.686
400.0	133.7	315.3	697.4	1159	1569	1458	918.6	758.9	865.4	1042	1467	1420	2222	1353	531.8	421.5	396.1	393.1	391.6	410.2	451.0	464.8	559.7	695.8	682.4	771.4	1173	1217	854.8	876.9	1328	1319	518.1	217.9	308.1	1460	2040	235.7	7.044	1.869	1.465	1.167	0.988	0.892	0.907	0.965	0.995	1.415	1.901	2.528	2.999	4.432	5.019	6.348	5.995	4.643	3.864	3.547	3.339	3.342	3.716	4.281	4.228	4.679	6.029	7.009	6.394	5.522	7.319	11.17	12.21	6.540	3.686	2.943	2.612	2.696	2.713
405.0	139.4	300.9	687.4	1152	1565	1456	891.5	751.7	851.1	1019	1451	1397	2203	1341	519.3	410.1	386.3	388.2	381.5	404.3	445.6	462.8	558.0	700.3	679.7	750.0	1146	1253	878.7	885.0	1333	1318	497.1	151.9	96.51	395.2	1606	1731	36.66	3.390	1.591	1.340	0.942	0.905	1.011	0.948	1.031	1.492	1.850	2.307	2.949	4.311	5.185	6.240	6.030	4.730	4.000	3.493	3.258	3.141	3.760	4.121	3.935	4.559	5.832	7.001	6.121	5.539	7.182	11.36	11.55	6.630	3.803	2.993	2.695	2.683	2.667
410.0	121.7	259.8	564.6	918.6	1240	1180	770.8	672.6	734.9	857.8	1158	1116	1665	1063	464.2	380.2	358.1	355.7	350.9	365.9	391.5	401.2	467.4	566.6	550.4	591.0	848.4	943.9	715.7	686.2	984.6	967.9	371.8	113.2	47.91	102.9	427.5	1210	1436	485.1	12.09	1.497	1.091	0.967	0.930	0.869	0.998	1.261	1.636	2.017	2.443	3.551	4.129	4.993	4.832	4.076	3.265	3.155	2.914	2.933	3.239	3.566	3.621	3.840	4.729	5.546	4.817	4.510	5.519	8.389	9.021	5.239	3.213	2.785	2.489	2.356	2.538
