Sample:	'1
File name:	G2025072302—’«≈¥Â«≈ 3±∂.FD3
Run date:	'09:54:04, 07/24/2025
Operator:	Administrator
Comment:	'

Instrument
Model:	F-2700 FL Spectrophotometer
Serial number:	23B8-004
ROM Version:	4J14000 07

Instrument parameters
Measurement type:	3-D scan
Data mode:	Fluorescence
EX  Start WL:	220.0 nm
EX  End WL:	600.0 nm
EX Sampling interval:	5.0 nm
EM  Start WL:	230.0 nm
EM  End WL:	650.0 nm
EM Sampling interval:	5.0 nm
Scan speed:	12000 nm/min
EX Slit:	5.0 nm
EM Slit:	5.0 nm
PMT Voltage:	700 V
Response:	Auto 
Corrected spectra:	Off
Contour interval:	50.000

Peak integration
Integration method:	Rectangular
Sensitivity:	1
Threshold:	1.000

Peaks
No.	ApexEX/EM(nm)	Height(Data)
1	225.0/620.0	40.29
2	230.0/345.0	2523
3	230.0/625.0	36.78
4	240.0/265.0	469.6
5	245.0/270.0	456.9
6	250.0/275.0	594.7
7	250.0/545.0	259.5
8	255.0/280.0	657.0
9	255.0/560.0	191.6
10	260.0/290.0	634.0
11	260.0/570.0	136.9
12	265.0/295.0	816.9
13	265.0/585.0	124.4
14	270.0/300.0	1154
15	270.0/600.0	109.7
16	275.0/305.0	1215
17	275.0/415.0	3569
18	275.0/435.0	3444
19	275.0/610.0	98.16
20	280.0/315.0	1136
21	280.0/340.0	1310
22	280.0/625.0	82.12
23	285.0/320.0	1229
24	285.0/640.0	65.78
25	290.0/325.0	1179
26	320.0/365.0	604.7
27	330.0/375.0	543.7
28	345.0/415.0	1756
29	345.0/435.0	1734
30	440.0/520.0	30.89
31	455.0/540.0	17.38
32	475.0/345.0	7.375
33	485.0/265.0	2.211
34	505.0/275.0	3.023
35	510.0/280.0	3.638
36	510.0/445.0	8.232
37	515.0/285.0	3.768
38	530.0/290.0	3.435
39	535.0/270.0	38.57
40	540.0/295.0	4.473
41	545.0/300.0	5.358
42	550.0/305.0	5.909
43	550.0/410.0	8.624
44	555.0/415.0	8.761
45	560.0/310.0	5.185
46	570.0/315.0	5.403
47	575.0/320.0	5.569
48	585.0/325.0	5.980

Data points
	220.0	225.0	230.0	235.0	240.0	245.0	250.0	255.0	260.0	265.0	270.0	275.0	280.0	285.0	290.0	295.0	300.0	305.0	310.0	315.0	320.0	325.0	330.0	335.0	340.0	345.0	350.0	355.0	360.0	365.0	370.0	375.0	380.0	385.0	390.0	395.0	400.0	405.0	410.0	415.0	420.0	425.0	430.0	435.0	440.0	445.0	450.0	455.0	460.0	465.0	470.0	475.0	480.0	485.0	490.0	495.0	500.0	505.0	510.0	515.0	520.0	525.0	530.0	535.0	540.0	545.0	550.0	555.0	560.0	565.0	570.0	575.0	580.0	585.0	590.0	595.0	600.0
230.0	77.12	1622	3887	981.7	39.01	6.333	5.598	5.090	4.650	4.098	3.475	3.749	3.012	2.584	2.120	1.942	1.591	1.377	1.227	0.984	1.069	0.871	0.844	0.895	0.831	0.778	0.720	0.615	0.688	0.630	0.519	0.575	0.474	0.441	0.396	0.366	0.344	0.335	0.244	0.225	0.308	0.543	0.486	0.333	0.237	0.262	1.801	7.535	12.02	7.968	2.731	0.488	0.181	0.151	0.138	0.142	0.172	0.160	0.166	0.164	0.139	0.139	0.142	0.142	0.169	0.146	0.168	0.155	0.176	0.143	0.160	0.160	0.178	0.162	0.138	0.147	0.152
235.0	143.8	460.8	2406	3799	638.0	52.97	7.254	5.646	5.755	3.995	4.226	4.228	3.521	2.852	2.269	1.974	1.360	1.413	1.241	1.160	1.068	0.917	1.003	0.902	0.737	0.706	0.788	0.614	0.580	0.688	0.585	0.733	0.532	0.465	0.409	0.376	0.399	0.302	0.285	0.274	0.232	0.352	0.448	0.597	0.538	0.384	0.602	2.049	4.936	8.891	11.59	11.47	4.922	0.891	0.172	0.163	0.200	0.144	0.174	0.227	0.157	0.157	0.152	0.166	0.174	0.162	0.146	0.163	0.173	0.153	0.164	0.140	0.156	0.116	0.153	0.157	0.156
240.0	196.2	207.4	751.4	3282	4017	488.0	25.26	6.609	5.327	4.561	5.740	3.694	3.520	3.039	2.189	1.743	1.474	1.395	1.208	1.264	0.851	0.878	1.057	1.001	0.923	0.890	0.881	0.652	0.644	0.722	0.679	0.618	0.583	0.448	0.355	0.376	0.305	0.324	0.288	0.236	0.279	0.272	0.329	0.469	0.739	0.604	0.471	0.674	1.347	2.858	6.812	15.93	17.57	10.99	3.386	0.491	0.231	0.252	0.204	0.169	0.160	0.159	0.146	0.195	0.180	0.135	0.149	0.158	0.143	0.157	0.127	0.172	0.192	0.148	0.170	0.151	0.178
245.0	148.5	267.1	243.4	1181	4398	3819	354.3	13.44	5.828	5.906	5.559	4.170	3.571	2.657	2.367	1.983	1.657	1.438	1.395	1.150	0.965	0.962	0.896	0.953	0.901	0.880	0.840	0.752	0.732	0.786	0.614	0.555	0.510	0.470	0.319	0.403	0.295	0.286	0.277	0.231	0.282	0.278	0.243	0.355	0.491	0.598	0.944	0.737	0.583	0.778	1.725	5.808	14.25	21.76	19.67	9.385	2.089	0.243	0.213	0.160	0.183	0.179	0.138	0.193	0.176	0.166	0.198	0.226	0.147	0.199	0.203	0.119	0.166	0.177	0.166	0.192	0.194
250.0	66.25	189.6	310.7	366.3	1467	4075	4691	1325	64.71	8.276	6.453	5.409	4.021	3.333	2.398	2.300	1.772	1.707	1.306	1.299	1.171	1.060	1.063	0.976	0.911	0.979	0.944	0.767	0.720	0.706	0.610	0.508	0.439	0.494	0.389	0.363	0.298	0.336	0.302	0.280	0.254	0.277	0.206	0.313	0.276	0.321	0.615	0.860	1.013	0.930	0.793	1.598	3.679	7.632	14.20	19.99	24.07	17.74	9.182	2.141	0.302	0.177	0.210	0.184	0.180	0.191	0.194	0.196	0.170	0.225	0.152	0.161	0.183	0.214	0.175	0.197	0.182
255.0	33.98	64.14	235.7	402.0	426.0	1062	4028	7401	1766	54.68	9.248	6.785	5.755	4.508	3.412	2.661	1.979	1.707	1.396	1.194	1.239	1.048	1.083	0.793	0.913	0.947	0.914	0.918	0.860	0.653	0.656	0.662	0.468	0.477	0.496	0.334	0.354	0.335	0.236	0.293	0.251	0.292	0.274	0.268	0.305	0.267	0.307	0.346	0.564	1.117	1.461	1.485	1.324	1.956	3.414	5.057	10.25	23.98	36.79	27.13	12.73	2.210	0.277	0.261	0.152	0.221	0.141	0.184	0.174	0.219	0.153	0.175	0.202	0.232	0.162	0.233	0.162
260.0	31.01	30.55	94.31	353.6	381.6	296.9	1251	6489	7643	300.0	25.47	9.168	6.635	4.828	3.752	3.071	2.391	1.836	1.517	1.606	1.349	1.082	1.076	0.994	0.923	1.003	0.885	0.990	0.864	0.736	0.648	0.772	0.580	0.498	0.535	0.381	0.402	0.345	0.225	0.300	0.279	0.305	0.298	0.301	0.216	0.228	0.243	0.340	0.287	0.610	1.082	2.035	1.766	1.136	1.091	1.388	2.579	6.989	18.60	36.66	44.79	24.70	8.938	0.979	0.188	0.212	0.192	0.209	0.152	0.246	0.281	0.179	0.169	0.261	0.183	0.232	0.174
265.0	26.22	21.21	38.28	172.0	469.6	270.7	322.4	2243	8838	6730	233.1	14.04	8.781	5.327	4.409	3.069	2.635	2.134	1.778	1.546	1.329	1.117	1.220	1.069	0.957	0.939	0.688	0.899	0.904	0.912	0.761	0.687	0.633	0.502	0.522	0.472	0.333	0.295	0.294	0.253	0.243	0.317	0.341	0.274	0.259	0.262	0.243	0.244	0.231	0.350	0.409	1.043	2.009	2.211	1.302	0.719	0.848	1.835	4.600	11.78	28.95	47.15	33.04	20.42	4.343	0.383	0.244	0.247	0.265	0.185	0.267	0.178	0.155	0.227	0.215	0.204	0.197
270.0	46.62	36.56	29.03	62.81	231.1	456.9	318.3	565.0	2883	7705	8244	933.6	48.81	7.730	5.684	4.081	2.995	2.530	2.094	1.799	1.335	1.306	1.278	1.224	0.948	1.068	0.877	0.938	0.852	0.783	0.810	0.735	0.665	0.570	0.529	0.474	0.413	0.378	0.375	0.302	0.321	0.292	0.287	0.324	0.289	0.293	0.252	0.279	0.251	0.263	0.247	0.447	0.729	1.278	1.983	2.140	1.759	1.264	1.359	2.940	7.032	14.72	23.85	38.57	37.84	34.34	13.45	3.897	0.433	0.250	0.209	0.202	0.197	0.225	0.219	0.188	0.211
275.0	84.44	73.85	56.51	44.74	79.69	233.0	594.7	386.4	698.6	1967	7051	9999.9	1254	39.38	7.437	5.140	3.413	2.939	2.523	2.092	1.547	1.490	1.396	1.243	1.255	1.130	1.045	0.923	0.924	0.860	0.824	0.837	0.656	0.743	0.619	0.556	0.478	0.515	0.461	0.346	0.375	0.393	0.316	0.347	0.369	0.433	0.411	0.353	0.288	0.277	0.258	0.272	0.354	0.512	0.704	1.234	2.537	3.023	2.258	1.363	1.849	3.646	5.671	9.372	13.87	32.52	54.72	32.86	20.07	3.533	0.338	0.242	0.251	0.247	0.271	0.276	0.237
280.0	138.7	130.7	91.55	59.21	53.48	98.92	408.0	657.0	307.9	510.5	2139	9694	9395	174.5	18.16	7.482	4.847	3.506	2.596	2.080	1.908	1.469	1.222	1.250	1.464	1.223	1.102	0.997	0.914	0.857	0.782	0.894	0.763	0.904	0.771	0.677	0.621	0.497	0.462	0.425	0.436	0.446	0.385	0.549	0.441	0.597	0.602	0.449	0.431	0.337	0.280	0.342	0.319	0.363	0.443	0.560	1.195	2.448	3.638	3.112	1.384	1.244	1.643	2.508	3.604	8.674	22.33	43.05	60.54	30.76	13.33	1.494	0.287	0.301	0.277	0.274	0.231
285.0	190.6	191.1	146.3	79.65	53.66	66.21	178.8	632.8	396.2	237.5	592.6	3320	9999.9	6882	130.0	10.62	6.004	4.188	3.003	2.771	2.170	1.819	1.630	1.503	1.422	1.251	1.247	1.068	1.013	0.828	0.868	0.798	0.797	0.828	0.880	0.863	0.756	0.568	0.509	0.506	0.503	0.510	0.535	0.496	0.569	0.612	0.721	0.646	0.559	0.472	0.351	0.407	0.423	0.406	0.455	0.402	0.595	1.050	1.969	3.768	3.614	2.039	0.962	1.121	1.397	2.480	5.653	12.59	30.93	52.30	56.82	24.94	7.157	0.651	0.356	0.290	0.246
290.0	285.1	299.4	224.7	128.9	77.96	80.11	109.3	286.2	634.0	564.0	332.8	924.4	3399	8247	7270	508.1	28.32	6.238	4.269	3.155	2.350	2.036	1.842	1.571	1.509	1.342	1.258	1.182	0.994	1.030	0.867	0.828	0.802	0.965	1.057	1.015	0.937	0.781	0.645	0.660	0.627	0.667	0.643	0.565	0.725	0.822	0.842	0.943	0.759	0.654	0.489	0.483	0.514	0.499	0.468	0.423	0.587	0.699	0.955	1.641	2.441	3.300	3.435	2.544	1.417	1.433	2.170	3.605	7.771	15.01	26.56	37.78	36.42	37.87	16.50	5.808	0.747
295.0	340.3	375.0	317.5	180.0	107.7	105.6	116.7	175.6	336.7	816.9	768.6	499.1	970.4	2145	6319	7515	701.0	22.55	6.048	4.410	2.899	2.199	2.157	1.713	1.775	1.504	1.360	1.348	1.247	1.174	0.917	0.949	0.852	0.910	1.194	1.117	1.082	0.921	0.798	0.708	0.669	0.739	0.787	0.703	0.881	0.892	0.974	1.056	0.979	0.903	0.644	0.678	0.653	0.650	0.683	0.539	0.668	0.693	0.795	1.028	1.246	1.725	2.495	4.168	4.473	2.931	1.802	1.940	2.827	4.191	6.735	9.338	11.22	26.55	48.58	54.43	24.76
300.0	400.9	421.9	369.1	230.3	144.0	134.8	147.5	187.1	268.4	565.9	1154	683.2	511.9	667.3	1905	7906	6184	99.16	12.59	5.811	3.736	2.637	2.381	2.121	1.699	1.601	1.297	1.361	1.126	1.076	0.937	0.830	0.839	0.970	1.237	1.109	1.151	0.893	0.852	0.837	0.717	0.702	0.841	0.774	0.958	1.114	1.182	1.304	1.143	0.960	0.800	0.862	0.744	0.766	0.769	0.691	0.768	0.850	0.896	1.009	1.264	1.265	1.860	2.588	4.237	5.358	3.962	2.500	2.120	2.200	2.595	3.009	3.335	7.009	16.90	38.29	58.34
305.0	395.3	473.4	409.6	268.0	185.1	182.8	207.6	250.0	330.0	499.4	1012	1215	616.4	434.9	619.0	2727	8837	4736	77.86	8.350	5.116	3.375	2.686	2.431	1.882	1.507	1.533	1.297	1.277	1.162	0.977	0.939	0.990	1.083	1.193	1.284	1.247	0.929	0.937	0.913	0.772	0.815	0.848	0.926	1.144	1.210	1.240	1.221	1.368	1.040	0.993	0.947	0.867	0.844	0.854	0.906	0.905	1.107	0.960	1.370	1.367	1.389	1.654	2.370	2.979	4.363	5.909	4.930	3.433	2.455	2.228	1.828	1.936	2.634	4.865	10.38	24.10
310.0	450.3	529.5	469.9	322.4	231.9	227.5	262.6	320.2	406.5	533.7	772.1	1162	1126	587.5	412.1	796.7	2908	6245	5495	331.2	20.45	5.257	3.578	2.946	2.409	1.977	1.698	1.519	1.321	1.240	1.047	0.997	1.029	1.158	1.267	1.278	1.186	1.006	1.012	0.921	0.796	0.896	0.923	1.026	1.124	1.192	1.324	1.511	1.356	1.198	1.073	1.138	1.090	0.931	0.977	0.982	1.035	1.301	1.391	1.515	1.711	1.758	2.023	2.351	2.684	3.271	4.030	4.783	5.185	4.660	3.732	2.595	2.066	2.032	2.357	3.268	6.325
315.0	523.9	614.0	551.0	378.7	296.1	283.5	320.4	372.1	455.9	575.2	725.5	895.2	1136	1065	512.3	438.3	861.2	1631	4733	5018	487.6	17.41	5.132	3.656	2.968	2.349	1.906	1.791	1.396	1.308	1.386	1.040	1.094	1.277	1.255	1.307	1.236	1.047	1.003	0.998	0.844	0.933	0.925	1.068	1.254	1.477	1.551	1.684	1.635	1.411	1.240	1.425	1.182	1.224	1.223	1.164	1.368	1.644	1.559	1.756	1.808	1.967	2.085	2.702	2.688	3.249	3.378	3.510	3.871	4.521	5.403	4.979	3.292	2.247	2.104	2.154	2.771
320.0	656.2	823.7	711.8	492.3	385.4	345.2	380.8	426.8	501.5	636.6	772.0	893.4	980.2	1229	862.0	472.6	492.4	566.0	1416	5588	4432	71.92	9.990	4.899	3.557	2.690	2.320	1.976	1.608	1.525	1.273	1.224	1.188	1.225	1.203	1.245	1.200	1.068	1.110	0.978	0.940	0.994	1.046	1.177	1.407	1.810	1.755	2.103	2.031	1.794	1.696	1.750	1.435	1.581	1.338	1.398	1.554	1.778	1.810	2.059	2.074	2.224	2.451	2.604	3.136	3.237	3.445	3.593	3.459	4.002	4.621	5.569	5.536	4.258	2.758	2.423	2.413
325.0	847.0	1151	1084	777.0	532.8	426.8	440.8	478.0	560.8	695.4	839.9	960.5	993.1	1075	1179	686.1	487.1	382.7	481.6	1880	6185	3554	59.78	7.459	4.491	3.246	2.749	1.989	1.862	1.672	1.390	1.286	1.120	1.187	1.186	1.257	1.146	1.139	1.200	1.199	1.114	1.236	1.302	1.384	1.803	2.233	2.488	2.993	3.310	2.540	2.410	2.491	2.087	1.701	1.666	1.594	1.859	1.836	2.129	2.354	2.134	2.476	2.691	3.091	3.340	3.636	3.763	3.807	3.815	4.084	4.289	4.843	5.183	5.980	4.818	3.441	2.659
330.0	1136	1583	1725	1345	865.9	589.8	528.7	558.6	638.6	777.1	952.0	1077	1113	1071	1114	1047	700.3	436.8	344.4	597.1	1987	4419	4111	260.9	18.45	4.591	3.304	2.537	2.146	1.936	1.643	1.403	1.382	1.276	1.353	1.300	1.223	1.173	1.232	1.200	1.248	1.483	1.623	1.859	2.311	3.020	3.619	4.411	4.731	4.166	3.855	4.029	3.340	2.743	2.284	2.198	2.420	2.244	2.306	2.501	2.559	2.661	2.937	3.322	3.659	3.883	3.988	4.338	4.481	4.471	4.628	4.818	4.598	5.215	5.447	5.429	4.846
335.0	1410	1960	2234	1907	1302	864.8	661.2	656.7	728.2	861.2	1048	1189	1244	1199	1119	1065	1071	654.2	421.2	398.1	622.6	1171	3417	5154	409.1	18.31	4.891	3.576	2.595	2.315	1.952	1.727	1.486	1.410	1.534	1.394	1.410	1.167	1.147	1.320	1.377	1.599	1.850	2.135	2.828	3.934	4.561	5.548	5.942	5.419	5.390	5.937	4.942	4.469	3.460	2.833	2.741	2.755	2.739	2.909	3.094	3.046	3.617	3.579	3.886	4.500	4.292	4.609	4.769	5.078	5.024	5.179	4.970	5.207	5.259	5.032	5.632
340.0	1504	2184	2518	2159	1534	979.0	739.5	702.1	773.9	908.9	1086	1230	1310	1272	1160	1025	1079	878.1	512.2	391.5	353.2	408.9	1038	4352	3565	318.7	9.294	4.111	3.024	2.443	2.233	1.736	1.602	1.347	1.580	1.297	1.467	1.434	1.288	1.530	1.448	1.779	1.908	2.570	3.219	4.157	4.806	6.031	6.402	6.556	6.191	6.602	5.827	5.027	3.888	3.235	2.931	2.948	2.948	2.985	3.066	3.056	3.752	3.982	4.145	4.639	4.654	4.501	5.074	5.237	5.543	5.353	5.364	5.282	5.302	4.915	5.105
345.0	1517	2217	2523	2211	1576	1031	764.9	718.7	793.7	920.5	1087	1216	1281	1259	1162	1014	945.9	941.7	657.9	417.6	309.4	263.3	366.6	1398	4527	3018	51.85	6.364	3.799	2.692	2.229	1.807	1.625	1.337	1.548	1.346	1.393	1.378	1.390	1.331	1.386	1.704	1.977	2.476	3.224	3.887	4.707	6.070	6.898	6.436	6.546	7.375	5.858	5.000	4.068	3.319	3.243	3.178	3.028	3.044	3.215	3.061	3.794	3.891	4.401	4.460	4.610	4.748	4.957	5.086	5.185	5.438	5.324	5.303	5.037	5.038	4.978
350.0	1449	2070	2468	2229	1637	1088	813.3	752.5	815.3	917.1	1053	1174	1234	1218	1137	998.4	885.9	803.1	766.0	565.4	346.3	263.3	246.2	430.7	1410	3193	3095	229.3	16.17	3.816	2.633	2.061	1.661	1.499	1.523	1.340	1.407	1.366	1.310	1.243	1.474	1.715	1.987	2.363	2.910	3.882	4.605	5.710	6.584	6.235	6.615	6.956	5.997	5.236	4.218	3.550	3.439	3.262	3.292	3.165	3.228	3.302	3.675	3.861	4.134	4.219	4.529	4.544	4.902	5.090	5.121	5.166	5.112	5.057	5.078	5.004	4.723
355.0	1346	1883	2245	2101	1597	1131	854.7	786.7	846.0	925.2	1043	1125	1172	1173	1106	982.3	867.6	743.3	672.2	698.6	478.0	305.0	250.7	240.1	407.1	804.5	2228	3369	373.8	17.08	3.996	2.810	1.891	1.688	1.467	1.464	1.404	1.337	1.294	1.357	1.423	1.582	1.821	2.197	2.825	3.625	4.078	5.001	5.844	5.748	5.989	6.948	6.155	5.392	4.332	3.632	3.373	3.274	3.431	3.391	3.164	3.402	3.797	3.876	4.338	4.074	4.118	4.402	4.281	4.885	4.729	5.104	5.011	5.050	4.708	4.674	4.722
360.0	1234	1763	2080	1947	1554	1111	872.6	820.1	851.8	916.4	1009	1080	1120	1113	1047	945.6	849.5	722.9	622.1	633.9	603.4	378.5	273.3	217.6	210.7	257.7	623.0	2808	3149	301.5	9.406	3.573	2.297	1.828	1.650	1.461	1.423	1.254	1.324	1.340	1.378	1.502	1.740	2.130	2.459	3.164	3.903	4.982	5.507	5.403	5.549	6.375	6.002	5.302	4.390	3.610	3.556	3.389	3.351	3.451	3.316	3.534	3.607	3.795	3.998	3.940	4.151	4.110	4.303	4.464	4.579	4.580	5.171	4.626	4.906	4.530	4.400
365.0	1126	1582	1922	1803	1479	1115	874.1	832.4	849.6	912.1	972.8	1035	1073	1057	999.8	910.7	828.2	716.8	611.2	573.8	604.7	504.3	319.1	237.8	190.0	156.8	202.1	848.3	3314	2732	49.28	5.549	2.805	1.967	1.806	1.476	1.464	1.214	1.405	1.299	1.402	1.557	1.722	2.114	2.359	2.993	3.435	4.615	5.002	5.183	5.226	5.983	5.298	5.073	4.330	3.876	3.824	3.701	3.552	3.470	3.285	3.347	3.486	3.942	4.045	3.801	3.816	4.066	4.156	4.299	4.287	4.360	4.599	4.648	4.645	4.587	4.283
370.0	1039	1443	1682	1649	1389	1088	899.1	859.0	859.0	913.2	957.7	996.6	1007	991.6	944.6	865.5	799.9	708.7	621.1	569.2	538.0	554.9	461.7	303.1	226.1	167.6	137.7	254.7	979.9	2510	2614	686.1	15.11	3.195	2.360	1.832	1.664	1.411	1.440	1.296	1.385	1.417	1.663	1.874	2.356	2.855	3.095	4.105	4.498	4.458	4.777	5.517	5.206	4.761	4.157	3.777	3.685	3.707	3.544	3.353	3.402	3.660	3.586	3.910	3.923	3.830	3.725	3.964	3.964	4.245	4.087	4.320	4.137	4.282	4.291	4.392	4.303
375.0	919.1	1289	1535	1489	1277	1059	910.5	861.0	882.6	911.8	945.7	961.4	965.9	928.9	893.5	830.8	773.6	702.4	633.5	583.8	529.6	511.2	543.7	444.0	289.3	214.7	162.4	153.5	285.5	625.2	1705	3067	329.7	17.11	3.891	2.809	2.057	1.766	1.412	1.286	1.321	1.341	1.544	1.704	2.125	2.706	3.128	3.571	4.014	4.009	4.135	4.831	4.698	4.504	3.903	3.767	3.520	3.598	3.359	3.377	3.472	3.457	3.676	3.555	3.718	3.751	3.661	3.854	3.607	3.494	3.733	3.953	3.974	4.100	3.961	4.065	4.326
380.0	899.5	1190	1378	1384	1236	1043	923.6	870.9	880.0	904.8	936.5	937.5	938.4	898.6	865.5	803.8	746.4	690.1	639.2	595.6	543.4	503.7	514.9	537.3	380.9	262.4	202.3	159.7	155.3	203.3	478.3	2242	2626	254.7	9.909	4.662	3.103	2.106	1.473	1.426	1.279	1.261	1.430	1.681	1.937	2.499	2.716	3.392	3.795	3.651	3.942	4.658	4.539	4.647	3.908	3.793	3.601	3.620	3.311	3.301	3.518	3.303	3.429	3.598	3.660	3.521	3.467	3.689	3.583	3.606	3.569	3.669	4.056	3.921	3.889	3.725	3.891
385.0	834.5	1094	1261	1305	1196	1027	929.1	894.9	890.7	927.2	952.4	941.2	932.2	892.6	838.2	783.0	733.0	684.1	641.4	604.3	567.4	530.5	505.1	541.2	501.0	335.0	250.5	199.4	159.2	138.2	173.8	667.0	2431	2107	41.15	9.879	6.063	3.428	1.968	1.576	1.337	1.352	1.483	1.627	1.887	2.271	2.653	3.447	3.354	3.374	3.749	4.257	4.269	4.308	3.854	3.878	3.582	3.599	3.579	3.548	3.515	3.355	3.640	3.720	3.734	3.632	3.532	3.807	3.666	3.761	3.540	3.959	3.719	3.637	3.799	3.908	4.002
390.0	778.4	1038	1196	1231	1174	1074	989.0	964.8	981.3	1029	1063	1074	1051	988.6	914.6	832.0	759.3	699.7	668.5	648.4	621.7	602.0	575.3	573.0	595.8	526.8	387.1	312.2	258.9	214.0	184.2	260.0	746.9	1785	1850	512.0	23.35	10.48	4.652	2.146	1.655	1.537	1.686	1.630	1.983	2.100	2.439	3.081	3.358	3.321	3.494	4.327	4.315	4.251	3.975	3.793	3.911	3.815	3.811	3.606	3.703	3.686	3.966	3.958	4.008	3.779	3.611	4.038	3.802	3.845	3.828	3.972	3.854	3.900	4.030	3.855	3.932
395.0	740.9	976.1	1150	1216	1213	1170	1146	1163	1226	1355	1471	1509	1463	1350	1191	1026	879.5	782.3	747.1	742.9	758.1	767.0	774.1	776.9	777.9	789.1	718.1	579.1	454.4	413.7	364.9	328.7	377.4	580.5	1263	2243	282.8	33.73	12.63	4.284	2.500	1.867	1.733	1.753	2.041	2.222	2.378	3.162	3.527	3.306	3.529	4.355	4.184	4.527	4.258	4.225	4.563	3.932	4.168	4.346	4.584	4.294	4.400	4.745	4.786	4.738	4.455	4.722	5.076	4.520	4.774	4.268	4.552	4.546	4.488	4.199	4.118
400.0	765.3	944.7	1143	1227	1297	1323	1338	1437	1572	1829	2053	2061	2050	1870	1599	1320	1068	897.1	873.2	884.1	927.4	976.7	1021	1063	1068	1072	1071	942.3	799.2	724.9	637.4	544.8	423.4	429.5	570.6	1678	1978	241.2	27.46	8.241	3.379	2.203	2.011	1.891	2.016	2.623	2.292	3.412	3.547	3.581	3.750	4.541	4.516	4.824	4.559	4.776	4.996	4.742	4.985	4.672	4.695	4.963	5.427	5.751	5.808	6.070	5.666	5.992	5.847	5.808	5.832	5.728	5.714	5.519	5.100	5.019	4.811
405.0	711.9	951.7	1156	1283	1401	1495	1588	1732	2002	2394	2743	2870	2762	2483	2107	1677	1290	1064	1007	1045	1120	1210	1306	1395	1416	1411	1417	1358	1178	1065	960.2	822.8	664.4	566.9	521.3	771.4	1893	1582	169.8	14.00	5.158	2.964	2.440	2.434	2.295	2.640	2.689	3.389	3.701	3.658	4.128	4.997	5.168	5.365	5.185	5.254	5.660	5.413	5.744	5.468	5.615	6.261	6.337	6.983	7.119	7.112	7.422	7.182	7.204	7.365	7.060	7.115	6.842	6.721	6.159	6.030	5.481
410.0	703.3	951.1	1152	1317	1493	1650	1801	2037	2360	2879	3357	3537	3396	3035	2547	1989	1491	1201	1128	1181	1283	1410	1548	1674	1727	1731	1711	1664	1557	1394	1254	1091	893.8	739.8	635.3	597.3	799.4	1370	1380	157.4	14.48	4.165	2.960	2.588	2.760	2.881	3.036	3.485	3.898	3.913	4.302	5.273	5.551	5.772	5.761	5.760	6.191	6.005	6.334	6.308	6.651	7.149	7.210	7.665	8.256	8.206	8.624	8.603	8.443	8.553	8.232	8.094	7.865	7.389	6.981	6.683	6.336
415.0	694.6	895.9	1103	1303	1484	1673	1843	2067	2416	2927	3400	3569	3434	3077	2569	2003	1498	1195	1121	1181	1278	1418	1567	1688	1751	1756	1731	1663	1597	1496	1320	1142	942.4	770.3	652.9	550.2	469.5	466.5	857.2	1481	236.2	11.95	3.338	2.787	2.919	3.069	3.223	3.707	3.532	3.864	4.079	5.419	5.741	5.783	5.592	5.846	6.641	6.408	6.526	6.990	6.822	6.853	7.246	7.979	8.019	8.539	8.476	8.761	8.561	8.627	8.277	8.364	8.061	7.425	7.340	6.420	5.873
