Sample:	'1
File name:	Default_20230428_112053.FD3
Run date:	'11:14:32, 04/28/2023
Operator:	user
Comment:	'

Instrument
Model:	F-2700 FL Spectrophotometer
Serial number:	2190-003
ROM Version:	4J14000 07

Instrument parameters
Measurement type:	3-D scan
Data mode:	Fluorescence
EX  Start WL:	220.0 nm
EX  End WL:	600.0 nm
EX Sampling interval:	5.0 nm
EM  Start WL:	230.0 nm
EM  End WL:	650.0 nm
EM Sampling interval:	5.0 nm
Scan speed:	12000 nm/min
EX Slit:	5.0 nm
EM Slit:	5.0 nm
PMT Voltage:	700 V
Response:	Auto 
Corrected spectra:	Off
Contour interval:	50.000

Peak integration
Integration method:	Rectangular
Sensitivity:	1
Threshold:	1.000

Peaks
No.	ApexEX/EM(nm)	Height(Data)
1	225.0/565.0	69.02
2	225.0/580.0	64.05
3	225.0/615.0	63.28
4	225.0/635.0	67.23
5	225.0/645.0	64.69
6	230.0/355.0	166.8
7	230.0/570.0	56.55
8	230.0/595.0	50.91
9	235.0/545.0	75.02
10	240.0/520.0	141.2
11	245.0/265.0	221.5
12	245.0/530.0	129.6
13	245.0/575.0	41.45
14	245.0/615.0	33.67
15	245.0/625.0	36.80
16	250.0/540.0	133.0
17	250.0/610.0	32.78
18	255.0/280.0	330.6
19	255.0/555.0	119.2
20	260.0/285.0	451.9
21	260.0/405.0	366.1
22	260.0/565.0	104.4
23	265.0/290.0	456.2
24	265.0/415.0	379.0
25	265.0/435.0	378.6
26	265.0/575.0	95.92
27	270.0/295.0	638.4
28	270.0/400.0	374.7
29	270.0/425.0	373.5
30	270.0/440.0	366.1
31	270.0/590.0	92.10
32	270.0/645.0	30.07
33	275.0/305.0	744.0
34	275.0/420.0	369.9
35	275.0/430.0	371.1
36	275.0/600.0	84.93
37	280.0/310.0	738.6
38	280.0/340.0	430.2
39	280.0/410.0	383.1
40	280.0/440.0	363.8
41	280.0/615.0	67.39
42	285.0/235.0	13.09
43	285.0/315.0	734.0
44	285.0/335.0	429.0
45	285.0/345.0	428.6
46	285.0/375.0	398.8
47	285.0/390.0	391.4
48	285.0/625.0	62.64
49	290.0/320.0	732.4
50	290.0/370.0	392.3
51	290.0/385.0	386.9
52	290.0/640.0	48.05
53	295.0/245.0	9.347
54	300.0/235.0	8.785
55	300.0/335.0	427.3
56	305.0/340.0	456.9
57	310.0/345.0	417.9
58	310.0/400.0	358.5
59	315.0/350.0	342.1
60	320.0/360.0	371.0
61	325.0/365.0	379.8
62	330.0/370.0	328.2
63	335.0/380.0	350.4
64	340.0/385.0	351.2
65	345.0/390.0	308.0
66	350.0/395.0	301.4
67	355.0/405.0	288.8
68	360.0/410.0	269.5
69	365.0/415.0	251.9
70	370.0/425.0	236.1
71	375.0/430.0	203.0
72	385.0/445.0	170.1
73	400.0/465.0	110.0
74	415.0/485.0	67.85
75	420.0/490.0	56.72
76	435.0/510.0	35.45
77	440.0/515.0	31.57
78	445.0/525.0	26.66
79	450.0/530.0	22.66
80	455.0/535.0	18.81
81	460.0/545.0	15.56
82	505.0/275.0	3.454
83	510.0/280.0	3.368
84	515.0/285.0	3.665
85	525.0/290.0	3.381
86	545.0/300.0	4.440
87	550.0/305.0	4.565
88	560.0/310.0	4.141
89	570.0/315.0	3.970
90	575.0/320.0	4.344
91	580.0/325.0	3.789

Data points
	220.0	225.0	230.0	235.0	240.0	245.0	250.0	255.0	260.0	265.0	270.0	275.0	280.0	285.0	290.0	295.0	300.0	305.0	310.0	315.0	320.0	325.0	330.0	335.0	340.0	345.0	350.0	355.0	360.0	365.0	370.0	375.0	380.0	385.0	390.0	395.0	400.0	405.0	410.0	415.0	420.0	425.0	430.0	435.0	440.0	445.0	450.0	455.0	460.0	465.0	470.0	475.0	480.0	485.0	490.0	495.0	500.0	505.0	510.0	515.0	520.0	525.0	530.0	535.0	540.0	545.0	550.0	555.0	560.0	565.0	570.0	575.0	580.0	585.0	590.0	595.0	600.0
230.0	50.01	83.67	652.3	645.3	74.56	28.16	26.08	21.51	16.36	15.89	14.70	13.98	12.96	11.48	9.839	7.664	7.577	6.497	5.092	4.922	4.691	4.918	4.562	3.935	3.589	3.436	3.006	3.040	2.967	3.246	2.823	2.763	2.630	2.871	2.902	2.247	2.308	2.276	2.416	2.282	2.154	2.222	2.059	2.012	1.709	1.804	1.649	2.060	3.418	3.708	2.339	1.604	1.397	1.494	1.522	1.411	1.461	1.479	1.412	1.411	1.550	1.440	1.526	1.338	1.391	1.610	1.426	1.398	1.340	1.485	1.503	1.399	1.424	1.630	1.385	1.365	1.761
235.0	59.78	62.18	291.4	 1162	982.1	118.8	23.70	23.86	21.18	14.64	14.67	10.35	12.24	13.09	8.950	7.701	8.785	6.712	6.080	5.739	4.445	4.302	3.969	3.942	3.861	3.208	3.500	3.463	2.861	3.461	2.415	2.848	2.400	2.665	2.492	2.484	1.989	2.299	2.433	1.792	2.171	2.279	2.188	2.051	1.540	1.858	1.512	1.953	2.050	3.131	4.478	5.330	3.599	1.757	1.722	1.072	1.353	1.400	1.350	1.451	1.975	1.499	1.116	1.459	1.398	1.344	1.528	1.440	1.504	1.476	1.424	1.498	1.327	1.326	1.511	1.515	1.954
240.0	66.50	68.41	99.87	633.8	 1976	 1029	76.61	24.33	22.08	18.21	18.40	13.11	9.917	12.55	9.578	8.941	8.267	6.597	6.381	4.444	5.184	5.228	4.174	3.305	3.472	3.378	3.969	3.027	3.102	3.450	2.456	2.650	2.369	2.538	2.585	2.526	1.910	2.243	2.430	2.292	2.026	1.808	2.188	1.908	1.683	2.137	1.409	2.088	1.579	1.924	3.131	5.887	8.397	7.248	2.925	1.261	1.074	1.648	1.341	1.263	1.441	1.305	1.443	1.209	1.346	1.522	1.268	1.221	1.369	1.697	1.561	1.403	1.422	1.279	1.367	1.324	1.657
245.0	54.23	79.67	74.30	197.3	 1256	 2687	982.4	54.56	21.24	19.59	18.15	16.95	13.21	10.88	7.926	9.347	7.058	5.626	6.654	5.462	6.334	4.839	4.260	3.474	3.370	3.019	3.480	3.331	3.440	3.596	2.877	3.025	2.841	2.211	2.354	2.285	2.203	2.638	2.456	2.433	2.165	2.021	2.244	1.689	1.739	1.868	1.496	1.824	1.604	1.206	1.865	3.017	5.763	10.66	11.34	7.220	2.542	1.827	1.576	1.363	1.455	1.422	1.357	1.513	1.500	1.241	1.485	1.133	1.377	1.366	2.032	1.307	1.414	1.458	1.324	1.551	1.560
250.0	67.70	65.86	91.66	108.3	341.7	 1440	 3027	 2171	314.8	20.85	18.06	15.29	13.57	12.10	9.045	8.125	8.364	7.321	6.120	5.617	5.120	4.455	4.350	3.976	3.690	3.577	3.563	3.031	3.905	3.028	3.494	3.308	2.738	3.167	2.719	2.180	2.432	2.506	2.020	2.238	1.799	2.103	2.135	2.025	1.854	1.807	1.654	1.708	1.511	1.350	1.546	1.720	2.614	4.437	7.655	11.16	13.33	12.31	6.985	2.903	1.600	1.559	1.610	1.548	1.379	1.273	1.433	1.607	1.375	1.306	1.611	1.667	1.395	1.290	1.297	1.434	1.498
255.0	59.77	52.12	59.58	135.8	164.8	357.6	 1150	 4383	 3963	392.9	18.54	17.94	14.20	13.56	10.00	9.995	6.903	6.449	5.952	5.305	5.371	3.906	4.884	4.320	4.074	4.238	3.519	3.340	3.865	3.235	2.878	3.223	2.505	2.508	2.318	2.436	2.435	2.186	1.847	2.158	2.411	2.579	2.543	2.372	1.981	1.858	1.713	1.904	1.560	1.372	1.659	2.071	1.880	2.547	2.910	3.714	5.940	12.91	22.53	20.30	8.570	2.477	1.420	1.300	1.419	1.397	1.601	1.626	1.358	1.469	1.321	1.737	1.368	1.416	1.360	1.583	1.520
260.0	56.52	67.89	49.55	80.74	186.2	167.1	300.1	 2064	 6233	 3607	197.2	19.22	14.79	14.09	8.603	9.319	7.174	7.542	6.790	5.122	5.163	5.028	4.274	4.922	4.214	2.881	3.480	3.266	3.493	3.662	3.155	3.258	2.755	2.846	2.627	1.944	2.186	2.225	2.000	2.163	1.994	2.379	2.094	1.816	1.997	1.888	1.645	1.641	1.687	1.695	1.184	2.262	2.425	2.208	2.031	1.916	2.816	4.360	11.46	21.53	27.38	19.81	5.254	1.926	1.659	1.492	1.640	1.521	1.411	1.251	1.518	1.422	1.629	1.448	1.286	1.579	1.435
265.0	75.94	59.26	37.29	43.61	135.2	221.5	121.4	534.2	 3246	 7488	 1051	83.89	17.22	16.77	11.31	10.42	7.658	6.048	5.586	5.478	5.081	4.981	4.527	4.337	4.163	3.346	4.208	3.753	2.998	3.485	3.339	2.917	3.112	2.575	2.408	2.268	2.162	2.021	1.844	2.003	2.103	2.086	2.126	2.041	2.153	1.986	1.760	1.744	1.821	1.550	1.431	1.770	1.892	2.240	2.164	1.575	1.927	2.184	3.871	7.855	17.50	30.16	29.20	13.33	3.194	1.677	1.763	1.690	1.418	1.527	1.261	1.400	1.651	1.304	1.491	1.821	1.466
270.0	57.40	59.31	49.45	39.56	67.01	176.2	231.1	194.4	809.1	 3413	 6416	 3905	340.7	20.28	15.32	11.66	9.064	7.263	6.872	6.176	5.300	4.685	4.777	4.510	4.540	3.767	3.921	4.018	3.207	3.160	3.188	2.873	2.746	2.920	2.061	2.458	1.991	2.189	2.077	2.035	1.908	2.227	1.954	2.147	2.137	2.113	2.073	1.748	1.537	1.617	1.400	1.568	1.699	2.175	2.559	2.148	2.568	1.894	2.138	2.995	5.323	10.25	18.02	25.30	27.74	22.72	9.588	2.395	1.574	1.367	1.530	1.446	1.355	1.242	1.597	1.497	1.437
275.0	63.78	52.92	45.17	49.07	48.50	76.25	196.1	322.0	250.9	795.2	 2136	 7748	 6013	409.1	17.02	15.29	10.07	8.886	7.880	5.955	5.222	4.858	4.435	4.475	4.422	3.310	3.116	3.958	2.892	3.255	3.425	3.270	2.777	2.873	2.519	2.522	1.927	2.168	1.972	2.108	1.809	1.837	2.563	2.167	1.895	1.859	1.984	1.601	1.594	1.706	1.504	1.521	1.519	1.635	2.017	1.852	2.672	3.454	2.479	2.058	2.347	3.614	5.730	7.266	11.46	27.01	40.02	31.29	11.39	2.034	1.444	1.496	1.264	1.545	1.793	1.459	1.412
280.0	72.68	58.70	48.42	45.79	38.98	43.42	85.75	330.6	323.6	227.1	530.5	 3043	9999.9	 4817	245.8	16.21	12.91	8.944	8.211	6.584	5.512	6.046	4.080	4.596	4.066	3.451	3.254	3.831	3.820	3.204	3.060	2.905	2.852	2.614	2.457	1.983	2.279	2.332	2.048	2.210	2.352	1.955	2.152	2.076	1.881	1.824	1.767	1.677	1.657	1.743	1.625	1.626	1.814	1.447	1.565	1.546	1.801	2.554	3.368	3.110	2.087	1.993	2.561	2.791	3.899	8.338	19.81	39.38	43.55	24.17	4.989	1.749	1.420	1.676	1.576	1.764	1.296
285.0	66.32	61.38	57.35	54.00	35.26	35.84	43.32	166.1	451.9	230.3	177.2	773.5	 4614	9999.9	 3488	92.77	15.94	9.948	7.849	7.469	5.746	6.410	4.971	4.095	4.236	4.164	2.980	4.180	3.995	3.234	3.374	3.471	3.123	2.334	2.784	2.438	2.603	2.387	2.221	2.021	2.086	2.102	1.740	1.878	1.831	1.470	2.130	1.988	1.435	1.649	1.396	1.769	1.843	1.619	1.550	1.365	1.736	1.881	2.404	3.665	3.483	2.390	1.836	1.615	2.320	3.185	5.757	13.77	29.46	47.34	38.75	13.14	2.584	1.421	1.913	1.595	1.534
290.0	63.83	71.35	64.65	62.20	47.52	43.01	43.82	83.68	242.2	456.2	305.3	277.9	 1178	 4402	 9105	 5112	223.2	15.09	9.174	7.627	6.619	6.421	5.414	4.680	4.559	3.863	4.162	3.598	3.886	3.816	3.449	3.613	3.419	2.790	2.700	2.809	2.215	2.551	2.380	2.194	1.946	1.892	1.914	1.708	1.895	1.831	1.961	1.849	1.854	1.565	1.500	1.662	1.499	1.659	1.590	1.484	1.735	1.883	1.742	2.188	2.655	3.381	3.160	2.728	2.064	2.031	2.664	4.568	8.422	16.00	26.76	34.16	34.63	23.63	9.920	2.537	1.752
295.0	70.27	75.36	80.22	71.48	66.68	58.18	54.53	68.68	113.0	276.0	638.4	384.3	416.0	 1109	 2697	 9215	 8017	278.8	14.10	10.56	8.997	5.143	6.365	4.856	4.685	3.816	4.428	3.602	3.818	3.415	3.607	3.187	3.069	2.830	2.151	2.640	2.182	2.571	2.266	2.399	1.992	2.336	1.747	2.283	1.864	1.744	1.948	1.882	2.061	1.568	1.463	1.475	2.065	2.056	1.843	1.372	1.721	1.966	1.640	1.659	1.965	2.376	2.470	3.759	3.875	2.958	2.295	2.661	3.255	4.762	7.221	9.374	15.91	32.92	47.62	35.37	10.55
300.0	72.04	71.56	97.26	87.52	74.41	64.09	60.42	80.22	108.1	178.9	496.4	715.2	349.2	411.3	716.5	 3433	9999.9	 3135	183.6	15.63	11.43	6.414	6.006	5.186	4.833	4.289	4.377	3.688	3.624	3.809	4.077	4.034	3.445	2.892	2.523	2.414	2.579	2.454	2.246	2.393	2.196	2.387	2.228	2.125	1.782	1.932	2.044	1.687	1.914	1.970	1.355	1.840	1.913	2.112	1.729	1.721	1.597	1.699	1.584	1.665	1.999	2.005	2.417	3.117	3.911	4.440	3.043	2.698	2.619	2.709	2.920	3.634	5.068	10.14	26.55	48.26	48.86
305.0	70.94	85.67	98.14	94.23	82.94	71.03	75.45	96.50	115.6	177.4	304.1	744.0	620.1	306.5	296.3	874.3	 4723	9999.9	 2470	86.56	12.07	7.737	6.250	6.194	5.681	4.711	4.839	4.447	3.709	4.531	3.558	3.756	3.414	2.718	2.012	2.398	2.729	2.960	2.288	2.751	2.021	2.244	2.025	1.958	1.736	1.623	2.009	1.791	1.702	1.776	1.669	2.022	1.908	1.902	1.705	2.020	1.493	1.510	1.774	2.088	1.996	2.195	2.116	2.582	2.907	3.644	4.565	3.933	2.759	2.716	2.300	2.552	2.541	3.699	7.590	16.91	36.66
310.0	68.09	86.52	101.1	106.5	85.20	82.26	84.64	110.8	135.3	185.2	256.5	450.5	738.6	579.5	263.2	297.5	 1158	 4474	 8655	 5407	163.4	13.25	8.822	6.880	6.025	4.944	5.085	4.766	4.404	4.245	3.524	3.710	3.595	3.189	2.318	2.344	2.426	2.717	2.248	2.126	1.989	2.158	1.977	2.162	1.766	1.765	1.845	1.950	1.566	1.622	1.677	1.897	1.769	1.909	1.603	1.801	1.855	2.031	1.948	2.077	2.141	2.287	2.230	2.428	2.725	3.214	3.524	3.971	4.141	3.288	2.675	2.510	2.168	2.570	3.317	5.382	10.07
315.0	73.49	98.73	101.6	114.5	102.0	89.42	90.00	123.1	152.7	201.7	266.4	346.7	476.2	734.0	528.0	208.3	330.7	 1044	 2583	 9086	 7246	216.8	11.84	7.689	7.481	6.228	5.289	4.518	4.402	4.345	3.903	3.202	3.716	3.388	2.786	2.079	2.182	2.018	2.494	2.100	1.529	2.179	1.985	2.030	1.717	1.873	1.925	2.019	1.509	1.925	1.600	2.168	1.831	1.733	1.824	1.927	1.752	2.260	1.856	1.761	1.989	2.386	2.464	2.308	2.383	2.851	3.100	3.045	3.526	3.627	3.970	3.347	2.282	2.503	2.232	2.489	3.582
320.0	67.72	98.57	121.7	121.2	102.4	91.90	101.7	129.1	160.4	221.7	284.4	337.5	389.2	549.3	732.4	326.7	163.3	283.3	623.7	 3439	9999.9	 2261	144.6	9.106	7.698	6.283	5.253	4.780	4.318	4.004	3.622	3.394	3.887	3.615	2.933	2.307	2.452	2.403	2.512	1.915	1.886	2.009	2.262	2.030	1.618	2.331	1.714	1.923	1.741	1.720	1.474	1.805	1.889	1.561	2.053	1.967	2.039	2.224	1.807	1.750	1.964	2.360	2.593	2.256	2.722	2.769	2.851	2.712	2.732	3.293	3.629	4.344	3.563	2.360	1.872	1.832	2.427
325.0	74.56	92.48	120.0	140.4	103.8	97.20	118.3	138.7	167.3	228.6	288.4	349.2	388.8	426.4	607.1	540.7	179.2	125.8	185.6	830.9	 4738	9999.9	 1916	73.93	9.197	8.251	5.134	5.859	4.215	4.461	4.046	3.193	4.462	3.378	2.702	2.567	2.455	2.535	2.516	2.165	1.984	2.312	1.946	1.810	1.634	2.184	1.908	1.873	1.815	1.634	1.821	2.043	1.936	1.961	1.778	1.908	2.279	2.003	1.975	2.087	1.996	2.235	2.303	2.065	2.475	2.578	2.605	2.615	2.885	2.941	2.757	3.455	3.789	3.383	2.486	1.795	2.021
330.0	80.83	92.78	130.2	135.3	119.3	106.9	130.8	151.5	182.9	250.7	310.6	369.8	414.4	410.0	421.3	513.9	420.0	163.0	100.4	230.8	 1140	 4413	 7961	 4857	127.3	11.22	7.037	6.178	5.681	4.840	4.192	4.063	3.878	3.024	3.099	2.735	2.792	2.624	2.562	2.178	1.996	2.035	2.232	1.926	2.016	2.047	1.917	2.030	1.987	1.597	1.779	1.924	1.814	2.012	2.148	1.996	2.073	1.968	2.209	2.432	2.197	2.356	2.424	2.699	2.591	2.921	2.696	2.568	2.840	2.613	2.719	2.586	3.044	2.951	3.030	3.203	2.568
335.0	77.32	96.26	128.6	148.9	134.2	108.9	151.2	169.8	205.1	260.9	321.5	388.8	425.7	429.0	377.1	336.9	427.3	385.3	131.6	112.1	300.7	 1018	 2490	 8799	 6845	176.3	10.31	8.608	6.459	5.471	4.884	4.898	3.983	2.978	3.437	2.744	2.460	2.395	2.674	2.158	1.896	2.426	2.420	2.517	2.068	2.292	2.036	1.902	1.756	1.686	1.740	1.816	1.688	2.035	1.988	2.221	2.304	2.259	2.363	2.899	2.730	2.464	2.502	2.717	2.601	2.663	2.913	2.793	3.127	2.508	2.565	2.378	2.495	2.382	2.415	3.200	3.426
340.0	77.62	107.9	150.6	144.5	146.8	137.2	158.1	178.4	215.2	279.4	324.0	380.0	430.2	419.7	371.6	297.4	303.1	456.9	270.7	103.0	124.6	267.5	595.1	 3487	9999.9	 4976	123.8	9.804	6.742	5.765	4.916	5.014	4.201	3.806	3.820	2.677	2.553	2.570	2.332	2.588	2.428	2.147	2.272	2.301	1.789	2.021	2.038	1.780	2.285	1.780	1.614	2.050	1.849	2.171	1.759	1.977	2.507	2.290	2.295	2.670	2.617	2.805	2.579	2.718	2.864	2.864	2.764	3.275	3.035	2.751	2.719	2.676	2.663	2.516	2.522	2.906	3.186
345.0	81.16	106.5	155.9	156.2	140.4	158.3	160.3	182.5	216.8	276.0	332.6	383.0	408.2	428.6	386.2	299.4	257.7	337.0	417.9	176.9	97.56	114.1	175.0	843.6	 5022	9999.9	 1594	67.36	8.854	6.973	6.106	5.064	3.967	4.138	3.708	3.294	2.381	2.776	2.878	2.230	2.325	2.487	2.295	2.009	2.010	2.158	2.040	1.815	2.233	1.874	1.511	1.985	2.363	1.991	2.059	2.246	2.996	2.235	2.654	2.316	2.697	2.829	2.624	2.565	2.596	3.072	2.773	2.871	2.764	3.249	2.841	3.071	2.995	2.927	2.164	2.494	2.062
350.0	85.92	101.1	146.7	161.9	161.8	161.3	188.0	193.5	236.9	279.9	319.5	363.9	405.1	419.8	385.9	320.2	254.6	242.6	335.6	342.1	174.6	102.9	99.81	233.6	 1226	 4690	 7736	 4399	110.8	10.32	6.505	5.510	4.444	4.507	3.743	3.477	3.005	2.848	2.578	2.497	2.640	2.502	1.873	2.095	2.221	1.935	1.922	1.990	1.927	1.919	1.756	2.217	2.134	2.030	1.907	2.108	2.543	2.379	2.401	2.323	2.717	2.802	2.982	2.623	2.582	2.998	2.556	2.960	2.628	2.760	3.096	2.478	2.639	2.658	2.213	2.314	2.322
355.0	76.82	103.1	166.8	161.3	155.4	192.3	203.7	213.4	233.1	270.7	321.3	374.1	394.1	405.7	373.5	334.0	273.2	241.8	238.9	317.3	334.3	165.8	106.8	116.3	322.2	 1085	 2608	 8563	 6087	150.2	8.870	7.344	5.749	4.339	4.193	3.353	3.051	2.996	3.254	2.971	2.431	2.181	1.873	2.131	2.413	2.091	1.860	2.155	1.813	1.846	1.519	2.019	1.939	2.204	2.106	2.235	2.308	2.535	2.352	2.624	2.192	2.802	2.567	2.505	2.618	2.734	2.842	2.766	2.669	2.601	2.566	2.709	2.557	2.629	2.326	2.578	2.412
360.0	71.50	101.6	164.8	163.3	176.3	209.1	224.7	235.7	250.5	270.0	329.7	367.2	387.1	395.6	379.0	337.2	280.3	252.2	236.5	246.4	371.0	282.0	136.4	106.0	136.2	288.5	628.7	 3658	 9961	 4304	100.0	9.215	5.920	4.604	4.063	3.942	3.154	2.938	3.095	2.995	2.317	2.686	2.159	2.236	2.112	1.866	2.143	2.295	1.640	1.457	1.550	2.213	1.993	2.130	2.156	2.228	2.164	2.167	2.500	2.259	2.506	2.733	2.435	2.958	2.767	2.861	2.776	2.990	2.619	2.594	2.615	2.653	2.223	2.334	2.393	3.083	2.323
365.0	70.03	101.2	143.3	188.4	202.0	231.5	235.4	245.1	261.7	290.0	331.6	375.4	392.2	395.5	379.2	340.2	303.6	274.1	254.9	240.6	301.0	379.8	222.0	123.6	103.4	123.6	185.0	894.1	 5120	9999.9	 1403	52.10	7.695	5.914	4.523	3.694	3.192	3.004	2.964	2.808	2.543	2.532	2.098	1.868	1.994	2.174	1.793	2.183	1.758	1.630	1.620	1.944	2.146	2.049	2.231	2.172	2.069	2.186	2.200	2.478	2.605	2.519	2.933	3.007	2.832	2.753	2.589	2.814	2.414	2.703	2.821	2.837	2.594	2.738	2.563	2.828	2.378
370.0	75.50	99.55	142.6	194.3	210.2	241.6	247.3	260.2	275.4	297.2	335.1	361.8	388.4	389.2	392.3	357.7	324.6	296.6	275.8	268.3	264.7	317.2	328.2	210.4	128.5	107.3	104.7	246.5	 1253	 4863	 7833	 4090	86.75	8.561	5.901	4.540	3.612	3.274	3.178	3.069	2.579	2.641	2.509	2.337	2.394	2.032	1.774	2.210	1.877	1.980	1.758	2.293	2.316	2.147	2.100	2.304	2.416	2.429	2.601	2.432	2.378	2.618	2.679	2.823	2.861	2.801	2.530	2.597	2.788	2.564	2.967	2.873	2.608	3.018	2.874	2.434	2.513
375.0	74.41	93.61	155.5	182.2	223.9	250.7	256.6	273.5	283.5	305.9	341.4	362.2	386.9	398.8	384.6	368.9	349.0	320.4	312.0	296.7	274.2	278.8	307.0	344.8	201.6	124.3	105.5	115.0	326.0	 1118	 2836	 8874	 5250	114.4	7.853	5.621	4.447	3.599	2.785	2.880	2.924	2.630	2.635	2.462	2.394	2.204	1.846	1.994	1.947	1.683	1.850	2.612	2.193	2.660	2.390	2.450	2.750	2.504	2.075	2.200	2.346	2.817	2.604	2.859	2.821	2.811	2.569	2.813	2.753	2.665	3.079	2.999	2.594	2.678	3.086	2.764	2.617
380.0	84.32	100.4	150.7	188.2	217.9	257.2	280.4	285.1	296.5	323.1	345.1	355.2	386.9	382.0	386.3	369.4	352.6	341.2	332.1	310.0	296.4	276.8	273.3	350.4	300.5	162.7	113.1	100.4	129.4	289.1	679.2	 4079	 9764	 1288	67.83	6.570	5.355	4.322	3.894	3.029	3.039	2.926	2.498	2.393	2.630	2.266	1.933	2.328	2.087	1.917	2.015	2.186	2.373	2.814	2.419	2.683	2.910	2.207	2.657	2.560	2.702	2.556	2.882	2.534	2.633	2.534	2.733	2.952	2.735	2.775	2.782	3.000	2.704	2.431	2.803	2.621	2.831
385.0	81.74	97.30	149.0	201.3	234.3	273.8	277.1	283.9	317.5	314.7	342.9	366.5	376.6	382.4	386.9	367.6	351.0	352.2	338.0	319.4	300.8	290.8	271.4	291.3	351.2	226.4	137.7	109.8	94.61	113.3	188.3	 1005	 5634	 8712	 1059	23.42	5.779	4.412	4.195	3.014	3.099	2.918	2.307	2.513	2.758	2.596	2.306	2.148	2.287	2.059	1.926	2.258	2.389	2.398	2.383	2.343	2.670	2.247	3.080	2.777	3.064	2.326	2.741	2.817	2.499	2.904	2.607	2.384	2.315	2.931	2.676	2.623	3.169	2.802	2.988	2.877	2.674
390.0	80.60	106.1	146.3	197.0	247.7	277.8	289.8	316.3	330.5	331.0	345.8	377.6	381.8	391.4	377.0	372.4	361.8	361.3	345.8	337.2	325.8	309.4	285.7	273.0	298.6	308.0	207.6	135.4	105.0	88.33	88.17	258.8	 1402	 4768	 6829	 2759	63.88	6.544	4.910	3.837	3.666	3.104	2.932	3.031	2.471	2.389	2.093	2.113	2.183	1.816	2.079	2.334	2.409	2.620	2.444	2.292	2.641	2.359	2.724	2.699	2.732	2.660	2.891	2.921	2.421	2.757	2.630	2.491	2.810	2.910	2.396	2.849	2.885	2.678	2.594	2.858	2.726
395.0	83.56	105.6	139.4	210.6	238.1	292.7	303.4	319.4	335.5	346.0	350.6	365.6	371.0	382.6	377.5	375.2	367.6	356.3	349.7	350.6	332.9	322.0	302.9	275.2	259.9	282.5	301.4	196.5	126.9	100.1	82.08	104.6	344.2	 1092	 2824	 7772	 3864	79.75	6.319	5.305	4.031	3.548	3.322	3.334	2.679	2.318	2.185	2.242	2.197	1.958	2.001	2.717	2.380	2.641	2.600	2.458	3.012	2.814	2.801	2.824	2.753	2.751	2.960	2.336	2.882	2.801	2.546	2.710	2.338	2.825	2.890	2.954	2.936	2.538	2.934	2.752	2.326
400.0	89.62	102.1	151.7	230.3	252.3	305.7	306.3	333.5	359.6	351.7	374.7	365.3	379.7	382.6	381.1	378.5	359.6	345.9	358.5	353.8	338.4	333.1	305.8	282.3	259.1	257.0	294.8	264.7	159.1	120.1	89.69	77.97	115.4	271.6	677.4	 4045	 8005	 1040	45.53	6.353	4.564	4.277	3.829	3.514	2.637	2.223	2.367	2.263	2.275	2.150	2.077	2.747	2.607	2.556	2.439	3.035	2.770	3.137	2.676	2.993	2.866	2.793	3.093	2.515	2.956	2.882	2.984	2.791	2.794	2.595	2.891	2.613	2.700	2.826	2.862	3.007	2.622
