Sample:	'1
File name:	t2025022712Ò»²ã³Ø1  3000±¶.FD3
Run date:	'12:43:41, 02/28/2025
Operator:	Administrator
Comment:	'

Instrument
Model:	F-2700 FL Spectrophotometer
Serial number:	23B8-004
ROM Version:	4J14000 07

Instrument parameters
Measurement type:	3-D scan
Data mode:	Fluorescence
EX  Start WL:	220.0 nm
EX  End WL:	600.0 nm
EX Sampling interval:	5.0 nm
EM  Start WL:	230.0 nm
EM  End WL:	650.0 nm
EM Sampling interval:	5.0 nm
Scan speed:	12000 nm/min
EX Slit:	5.0 nm
EM Slit:	5.0 nm
PMT Voltage:	700 V
Response:	Auto 
Corrected spectra:	Off
Contour interval:	50.000

Peak integration
Integration method:	Rectangular
Sensitivity:	1
Threshold:	1.000

Peaks
No.	ApexEX/EM(nm)	Height(Data)
1	225.0/490.0	191.5
2	230.0/250.0	304.8
3	230.0/500.0	166.5
4	235.0/255.0	358.1
5	235.0/515.0	137.9
6	240.0/265.0	440.8
7	240.0/525.0	126.2
8	245.0/270.0	467.7
9	245.0/540.0	121.5
10	250.0/275.0	644.6
11	250.0/550.0	108.6
12	255.0/565.0	157.6
13	265.0/585.0	368.7
14	270.0/300.0	4888
15	270.0/595.0	368.5
16	300.0/335.0	285.2
17	305.0/345.0	246.0
18	310.0/350.0	176.2
19	315.0/355.0	172.3
20	320.0/360.0	158.9
21	325.0/370.0	125.2
22	330.0/375.0	116.0
23	335.0/380.0	127.4
24	340.0/385.0	102.2
25	345.0/395.0	74.54
26	350.0/400.0	86.68
27	355.0/405.0	76.47
28	360.0/410.0	57.96
29	365.0/420.0	59.22
30	370.0/425.0	55.88
31	375.0/430.0	42.57
32	380.0/440.0	39.89
33	385.0/445.0	36.80
34	390.0/300.0	11.99
35	390.0/450.0	27.90
36	395.0/460.0	25.98
37	400.0/465.0	22.61
38	405.0/470.0	17.63
39	410.0/480.0	15.18
40	415.0/485.0	14.29
41	420.0/490.0	11.71
42	425.0/500.0	11.21
43	430.0/505.0	9.684
44	435.0/510.0	7.638
45	440.0/300.0	8.558
46	440.0/520.0	7.723
47	445.0/525.0	6.130
48	455.0/540.0	4.821
49	465.0/555.0	2.895
50	470.0/560.0	2.624
51	475.0/260.0	2.064
52	480.0/575.0	1.787
53	485.0/265.0	2.438
54	495.0/270.0	2.577
55	530.0/585.0	2.268
56	540.0/300.0	23.44
57	540.0/590.0	2.434
58	550.0/305.0	21.01

Data points
	220.0	225.0	230.0	235.0	240.0	245.0	250.0	255.0	260.0	265.0	270.0	275.0	280.0	285.0	290.0	295.0	300.0	305.0	310.0	315.0	320.0	325.0	330.0	335.0	340.0	345.0	350.0	355.0	360.0	365.0	370.0	375.0	380.0	385.0	390.0	395.0	400.0	405.0	410.0	415.0	420.0	425.0	430.0	435.0	440.0	445.0	450.0	455.0	460.0	465.0	470.0	475.0	480.0	485.0	490.0	495.0	500.0	505.0	510.0	515.0	520.0	525.0	530.0	535.0	540.0	545.0	550.0	555.0	560.0	565.0	570.0	575.0	580.0	585.0	590.0	595.0	600.0
230.0	107.6	867.8	1871	523.3	26.11	9.060	7.286	6.184	5.704	5.077	4.435	3.883	3.126	2.562	2.103	1.796	1.491	1.449	1.311	1.216	1.082	1.062	1.009	0.931	0.933	0.905	0.814	0.784	0.877	0.787	0.750	0.726	0.677	0.669	0.623	0.612	0.605	0.591	0.557	0.592	0.757	1.093	1.052	0.718	0.551	0.522	1.188	4.335	6.404	4.198	1.588	0.579	0.415	0.431	0.415	0.420	0.449	0.449	0.478	0.457	0.451	0.453	0.457	0.476	0.475	0.472	0.476	0.506	0.487	0.483	0.487	0.492	0.473	0.509	0.513	0.522	0.572
235.0	232.5	274.0	1103	1617	437.5	30.51	8.189	6.062	5.183	5.660	4.414	4.112	2.908	2.408	2.046	1.919	1.488	1.480	1.413	1.297	1.140	1.025	1.025	1.030	0.986	0.839	0.845	0.848	0.864	0.834	0.840	0.757	0.710	0.616	0.613	0.597	0.615	0.566	0.505	0.555	0.583	0.758	0.944	1.034	0.891	0.663	0.678	1.454	2.698	4.285	5.705	5.279	2.255	0.736	0.431	0.418	0.466	0.476	0.529	0.428	0.471	0.414	0.506	0.466	0.534	0.470	0.572	0.460	0.484	0.505	0.546	0.463	0.449	0.460	0.535	0.545	0.535
240.0	335.1	216.1	350.5	1367	1538	309.9	15.01	7.604	5.870	6.051	5.149	4.069	3.166	2.412	2.138	1.844	1.670	1.464	1.410	1.229	1.080	1.070	0.991	1.036	0.926	0.899	0.861	0.724	0.898	0.901	0.733	0.718	0.683	0.649	0.582	0.596	0.653	0.575	0.558	0.554	0.567	0.591	0.704	0.826	1.136	1.205	0.815	0.747	0.980	1.508	3.261	6.829	7.728	4.625	1.722	0.518	0.461	0.465	0.496	0.466	0.435	0.436	0.485	0.465	0.519	0.467	0.551	0.450	0.489	0.485	0.515	0.454	0.464	0.480	0.636	0.536	0.508
245.0	239.0	339.4	165.3	480.4	1720	1437	203.5	9.623	6.106	6.632	5.756	4.350	3.630	2.491	2.058	1.882	1.735	1.506	1.376	1.072	1.065	1.082	0.958	1.050	0.987	0.962	0.808	0.732	0.807	0.812	0.707	0.777	0.720	0.696	0.547	0.569	0.580	0.588	0.579	0.521	0.560	0.573	0.586	0.613	0.823	1.083	1.296	1.109	0.769	0.640	1.086	2.751	5.903	8.838	7.815	3.810	1.112	0.509	0.456	0.410	0.544	0.465	0.474	0.455	0.527	0.584	0.564	0.524	0.506	0.509	0.514	0.479	0.559	0.511	0.550	0.510	0.548
250.0	101.4	240.2	304.8	212.8	583.5	1551	1686	507.4	28.75	7.067	6.544	5.090	3.731	2.646	2.325	1.825	1.569	1.524	1.331	1.230	1.234	1.046	0.996	0.964	0.863	0.921	0.830	0.762	0.844	0.823	0.745	0.787	0.725	0.724	0.611	0.583	0.619	0.579	0.590	0.595	0.567	0.544	0.537	0.551	0.567	0.707	0.838	1.214	1.317	1.076	0.833	1.033	1.788	3.404	5.671	8.049	9.562	7.535	3.829	1.170	0.545	0.468	0.476	0.468	0.474	0.536	0.515	0.487	0.551	0.463	0.495	0.476	0.503	0.536	0.565	0.521	0.539
255.0	61.59	87.16	225.7	358.1	224.8	426.7	1523	2438	265.3	22.19	6.956	5.664	4.586	3.278	2.549	2.184	1.826	1.457	1.431	1.229	1.281	1.156	0.968	0.899	0.893	0.965	0.812	0.802	0.845	0.831	0.737	0.668	0.807	0.691	0.661	0.599	0.573	0.592	0.591	0.628	0.583	0.537	0.589	0.540	0.505	0.561	0.621	0.700	0.848	1.213	1.583	1.521	1.049	1.155	1.696	2.377	4.407	9.259	14.41	11.75	5.097	1.063	0.537	0.538	0.502	0.542	0.530	0.490	0.510	0.486	0.484	0.508	0.496	0.539	0.564	0.507	0.545
260.0	50.87	46.86	97.28	340.7	326.8	167.2	515.4	2306	2033	200.3	11.69	6.545	4.600	3.172	2.950	2.270	1.921	1.682	1.512	1.284	1.173	1.045	1.044	0.952	0.936	0.878	0.947	0.838	0.906	0.845	0.730	0.720	0.771	0.719	0.686	0.611	0.558	0.594	0.596	0.560	0.560	0.562	0.591	0.603	0.519	0.519	0.503	0.519	0.525	0.659	1.120	2.064	1.944	1.178	0.869	1.020	1.519	3.034	7.588	14.37	17.06	11.02	3.406	0.798	0.543	0.503	0.509	0.533	0.501	0.486	0.497	0.562	0.479	0.511	0.599	0.529	0.516
265.0	53.55	39.25	44.39	178.4	440.8	254.2	177.0	888.2	2893	1708	139.7	9.243	5.125	3.272	3.269	2.489	1.930	1.767	1.431	1.412	1.320	1.040	0.999	0.981	1.009	0.871	0.883	0.810	0.910	0.974	0.856	0.790	0.757	0.722	0.769	0.630	0.541	0.604	0.572	0.625	0.577	0.572	0.613	0.526	0.569	0.510	0.484	0.514	0.425	0.458	0.613	1.241	2.233	2.438	1.516	0.929	0.961	1.194	2.255	5.034	11.34	17.93	17.31	8.564	2.123	0.584	0.556	0.516	0.501	0.540	0.557	0.545	0.492	0.479	0.635	0.557	0.465
270.0	66.97	45.32	33.82	75.67	253.4	467.7	292.2	280.2	1037	2499	2489	519.7	21.27	4.974	3.310	2.597	2.071	1.936	1.629	1.378	1.350	1.147	1.069	1.041	0.994	0.963	0.938	0.815	0.826	0.947	0.786	0.849	0.815	0.772	0.740	0.709	0.615	0.611	0.645	0.624	0.614	0.643	0.617	0.560	0.560	0.581	0.479	0.498	0.463	0.422	0.431	0.686	1.083	1.766	2.310	2.577	2.161	1.329	1.247	1.746	3.217	6.116	10.18	14.73	16.48	13.72	6.606	2.000	0.687	0.582	0.557	0.507	0.520	0.538	0.515	0.553	0.586
275.0	231.8	147.9	78.88	77.11	146.7	318.0	644.6	338.4	406.5	862.1	2585	3771	158.3	19.26	4.841	3.424	2.627	2.000	1.776	1.415	1.381	1.149	1.181	1.069	1.115	1.069	0.991	0.899	0.794	0.934	0.868	0.978	1.173	1.330	1.111	0.963	1.039	0.841	0.976	0.911	0.905	0.911	0.979	0.888	0.858	0.922	0.668	0.667	0.599	0.527	0.470	0.649	0.754	1.011	1.280	1.838	3.350	4.031	2.513	1.495	1.724	2.368	3.415	4.753	6.946	13.66	22.09	20.45	9.772	2.054	0.680	0.578	0.529	0.557	0.503	0.529	0.562
280.0	777.2	462.3	273.1	192.1	180.4	261.9	619.7	880.5	688.3	909.2	1546	4066	3082	122.1	9.069	4.064	3.023	2.316	2.145	1.738	1.581	1.311	1.223	1.128	1.206	0.966	1.052	0.867	0.929	1.112	1.001	1.271	2.367	3.011	2.429	2.018	1.861	1.621	1.752	1.731	1.733	1.930	2.064	1.968	1.915	1.573	1.317	1.298	1.004	0.811	0.753	1.073	0.958	1.036	1.265	1.431	2.358	4.057	5.056	4.080	3.286	3.383	3.985	4.781	5.814	7.097	11.93	20.99	26.09	18.56	6.047	1.124	0.656	0.690	0.596	0.635	0.617
285.0	1606	1017	604.0	430.7	315.1	336.1	579.4	1249	1529	1654	1827	2554	4248	1065	75.29	6.206	3.548	2.843	2.260	1.932	1.741	1.458	1.334	1.057	1.385	1.042	1.176	0.894	1.080	1.087	1.163	2.139	3.888	5.150	4.699	3.866	3.424	2.850	2.735	2.940	3.216	3.341	3.734	3.614	3.516	3.022	2.583	2.437	1.838	1.572	1.449	1.612	1.505	1.462	1.633	1.711	2.214	3.184	4.928	6.979	7.629	6.945	7.142	8.068	8.895	8.959	9.656	11.53	15.94	23.13	23.70	12.92	3.276	1.017	0.855	0.772	0.738
290.0	2873	1858	1179	772.1	529.1	483.4	729.8	1395	2463	3131	3097	2711	2187	2603	1987	300.6	9.946	3.597	2.605	2.206	1.834	1.559	1.501	1.324	1.342	1.137	1.200	1.034	1.094	1.121	1.362	3.163	6.288	8.692	8.326	6.881	5.544	5.121	4.803	4.741	5.159	5.627	5.741	5.865	5.668	5.368	4.290	3.943	3.315	2.723	2.479	2.645	2.297	2.103	2.030	2.388	2.927	3.739	5.222	7.190	9.518	12.18	14.16	14.68	15.20	14.10	13.39	12.86	11.09	10.24	12.56	15.50	17.48	15.72	9.639	3.219	0.966
295.0	3804	2548	1628	1100	709.5	592.8	876.6	1573	2710	4135	4329	3314	1646	934.1	2089	2900	86.32	7.135	3.319	2.796	2.162	1.923	1.647	1.555	1.333	1.266	1.231	1.118	1.009	1.108	1.590	3.749	8.040	11.33	10.89	9.103	7.342	6.633	6.255	6.051	6.372	7.213	7.598	7.823	7.574	7.100	5.805	5.273	4.487	3.845	3.294	3.583	3.005	2.576	2.224	2.903	3.319	4.626	6.109	7.843	10.48	13.75	16.59	20.26	22.21	19.15	17.32	15.78	11.94	7.993	5.941	5.548	6.139	10.60	19.48	22.76	12.66
300.0	4081	2757	1814	1238	777.9	617.0	904.7	1613	2710	4031	4888	3697	1598	547.5	712.6	2772	2132	66.48	4.464	3.024	2.577	2.098	1.849	1.581	1.303	1.435	1.210	1.278	1.062	1.143	1.425	4.124	8.564	11.97	11.99	9.501	8.052	7.065	6.674	6.612	6.921	7.599	7.965	8.357	8.558	7.734	6.294	5.869	4.837	4.248	3.812	3.956	3.422	2.721	2.385	2.834	3.574	4.674	6.161	7.948	10.32	13.41	15.97	19.18	23.44	22.48	20.11	16.97	12.14	7.642	4.638	3.483	2.826	3.903	7.055	14.56	22.79
305.0	3952	2819	1840	1245	763.2	591.8	853.5	1530	2571	3710	4491	3942	1620	494.3	275.6	963.5	2804	1751	43.89	4.018	2.851	2.534	1.930	1.639	1.440	1.380	1.233	1.290	1.120	1.077	1.457	3.909	8.458	11.67	11.62	9.916	8.163	7.079	6.619	6.276	7.026	7.414	7.824	7.949	8.259	7.545	6.302	5.850	5.193	4.072	3.812	4.019	3.073	2.558	2.412	2.697	3.315	4.496	5.805	7.902	10.04	12.94	14.83	17.60	20.33	20.39	21.01	18.88	12.98	7.355	4.616	3.102	2.521	2.258	2.733	4.683	9.226
310.0	3437	2415	1630	1096	678.7	507.8	715.2	1284	2135	3075	3586	3326	1811	556.5	187.3	265.2	917.0	2206	1442	211.3	7.001	2.761	2.049	1.921	1.576	1.362	1.323	1.339	1.141	1.146	1.464	3.433	7.064	10.51	10.23	8.932	7.317	6.574	5.586	5.880	5.990	6.289	6.819	6.844	7.142	6.677	5.720	5.182	4.466	3.751	3.441	3.497	2.918	2.338	2.162	2.379	2.989	3.843	5.030	6.395	8.186	10.59	12.72	14.81	16.61	16.39	16.58	15.78	12.95	8.892	5.347	3.258	2.410	1.990	1.694	1.988	2.994
315.0	2715	1931	1323	895.8	551.2	406.9	549.6	967.6	1620	2332	2706	2394	1501	820.2	208.3	110.5	228.2	552.4	1449	2090	62.50	4.797	2.303	2.069	1.617	1.449	1.455	1.282	1.159	1.197	1.439	3.016	5.795	8.025	8.534	7.250	6.304	5.661	4.948	4.693	4.794	5.262	5.485	5.714	5.364	5.446	4.815	4.149	3.705	3.044	2.835	2.994	2.491	2.134	1.855	2.008	2.374	2.980	3.934	4.921	6.090	8.249	9.677	11.51	12.51	12.43	12.35	11.61	9.450	6.857	6.551	5.199	3.147	1.937	1.390	1.391	1.485
320.0	2208	1597	1085	728.0	448.2	329.2	438.7	756.8	1267	1824	2106	1855	1085	802.7	372.8	81.88	73.70	140.3	425.6	1899	1679	50.86	3.149	2.486	1.882	1.417	1.347	1.352	1.168	1.237	1.245	2.595	4.801	6.704	7.041	6.094	5.458	4.747	3.976	4.074	4.237	4.255	4.519	4.623	4.631	4.585	4.040	3.547	3.107	2.647	2.425	2.420	2.151	1.870	1.595	1.627	1.931	2.360	3.077	4.042	5.172	6.605	7.808	9.311	9.827	9.850	9.688	9.193	7.210	5.150	4.646	5.012	4.894	3.024	1.688	1.261	1.147
325.0	1729	1313	895.4	606.2	375.0	268.4	344.6	596.7	991.1	1428	1659	1452	827.6	542.0	514.6	113.4	41.08	46.70	107.7	620.6	2029	1207	35.92	2.770	1.822	1.655	1.494	1.206	1.207	1.300	1.352	2.148	3.756	5.987	5.846	5.484	4.652	3.986	3.449	3.444	3.275	3.456	3.745	3.881	3.705	3.716	3.299	3.068	2.519	2.239	2.005	2.077	1.699	1.480	1.376	1.515	1.738	2.043	2.648	3.327	4.228	5.257	6.376	7.307	7.967	7.737	7.553	7.079	5.925	4.038	3.554	3.217	3.639	4.102	3.171	1.642	1.053
330.0	1334	1000	699.0	473.0	294.8	202.4	255.6	432.8	706.9	1013	1190	1064	613.6	332.3	313.5	313.4	118.7	27.26	35.34	150.0	634.1	1390	1052	180.6	6.527	1.881	1.648	1.368	1.285	1.233	1.207	1.821	3.089	4.413	4.598	4.250	3.762	3.237	2.732	2.634	2.641	2.790	2.952	3.129	3.040	2.913	2.505	2.422	2.136	1.783	1.659	1.712	1.390	1.199	1.139	1.194	1.381	1.618	1.982	2.519	3.120	3.927	4.615	5.337	5.872	5.734	5.577	5.337	4.353	3.250	2.635	2.186	1.976	2.268	2.688	3.010	2.448
335.0	991.7	770.6	525.5	357.8	221.4	148.3	177.0	297.8	482.9	694.8	820.8	750.7	448.4	235.2	152.1	194.9	285.2	71.41	18.88	43.23	149.9	342.7	978.0	1608	53.41	4.689	2.064	1.658	1.331	1.341	1.151	1.547	2.649	3.385	3.620	3.185	3.018	2.575	2.195	2.178	2.053	2.127	2.251	2.169	2.399	2.228	1.874	1.957	1.773	1.446	1.275	1.421	1.189	1.090	0.970	0.923	1.149	1.300	1.485	1.881	2.357	2.680	3.512	3.777	4.220	4.026	3.776	3.900	3.205	2.531	2.065	1.824	1.466	1.389	1.405	1.567	2.329
340.0	763.9	627.7	420.6	298.0	183.8	115.8	140.8	223.8	356.2	520.0	613.2	564.7	352.6	189.1	104.1	89.68	229.3	214.2	35.80	18.65	42.11	84.85	278.3	1355	1349	45.64	2.798	1.882	1.493	1.451	1.122	1.474	2.210	2.881	3.062	2.775	2.604	2.423	1.863	1.738	1.717	1.662	1.790	1.798	1.947	1.937	1.655	1.656	1.575	1.287	1.105	1.136	1.001	1.006	0.885	0.925	0.991	1.097	1.208	1.567	1.755	2.038	2.425	2.889	3.303	2.968	3.255	3.106	2.581	2.037	1.588	1.567	1.408	1.104	1.034	1.026	1.271
345.0	602.4	523.0	362.3	250.9	151.7	100.6	112.1	175.5	278.0	395.4	465.5	437.8	281.8	155.9	84.55	54.31	103.4	246.0	79.83	18.02	17.54	27.05	70.64	420.1	1493	1025	36.31	2.386	1.671	1.399	1.244	1.320	1.892	2.401	2.548	2.260	2.334	1.874	1.650	1.524	1.554	1.395	1.508	1.555	1.582	1.630	1.351	1.466	1.287	1.145	1.016	1.094	1.010	0.856	0.826	0.807	0.856	1.021	1.073	1.218	1.438	1.751	2.001	2.432	2.482	2.572	2.477	2.498	2.054	1.747	1.433	1.336	1.152	1.073	0.982	0.927	0.881
350.0	492.0	386.6	287.8	196.4	122.7	79.02	85.17	126.3	198.9	278.9	332.6	317.7	215.1	127.3	69.56	40.02	42.86	108.5	176.2	98.48	20.17	13.97	22.93	101.5	445.4	1005	892.8	170.2	7.859	1.516	1.385	1.451	1.753	2.000	2.101	1.878	1.846	1.596	1.393	1.318	1.354	1.300	1.293	1.254	1.351	1.354	1.204	1.263	1.095	0.941	0.840	0.917	0.893	0.766	0.735	0.731	0.757	0.795	0.985	1.091	1.197	1.422	1.629	1.848	1.922	1.968	2.016	1.942	1.712	1.458	1.301	1.187	1.130	0.914	0.821	0.787	0.829
355.0	396.4	305.7	232.3	158.7	94.13	66.08	68.15	92.64	138.3	194.3	233.9	229.5	159.8	103.2	58.79	33.98	26.73	40.38	79.01	172.3	65.08	14.99	12.42	29.50	105.4	240.4	700.8	1211	256.4	6.295	1.471	1.391	1.504	1.675	1.810	1.554	1.510	1.426	1.236	1.211	1.152	1.241	1.110	1.159	1.251	1.184	1.010	1.058	0.952	0.768	0.810	0.867	0.710	0.664	0.675	0.619	0.693	0.708	0.838	0.863	1.068	1.076	1.254	1.372	1.464	1.389	1.337	1.545	1.368	1.181	1.081	1.035	0.996	0.875	0.756	0.734	0.760
360.0	339.7	271.9	207.7	134.4	90.31	62.34	57.89	73.92	104.8	149.1	178.7	177.4	129.4	83.57	52.35	31.78	23.71	24.83	34.14	110.7	158.9	44.97	11.27	13.43	30.09	59.36	186.8	876.3	1194	46.95	3.111	1.732	1.579	1.686	1.634	1.582	1.481	1.303	1.108	1.060	0.999	0.976	0.968	1.003	1.048	0.976	0.916	0.910	0.861	0.753	0.720	0.805	0.685	0.636	0.623	0.603	0.676	0.653	0.721	0.784	0.906	1.011	0.998	1.211	1.320	1.196	1.175	1.405	1.244	1.046	1.085	0.925	0.991	0.796	0.712	0.754	0.755
365.0	308.3	241.9	176.5	123.3	85.74	56.51	56.41	65.10	91.34	121.3	144.8	142.7	111.8	75.65	49.45	32.53	24.85	21.58	22.46	48.85	143.7	120.6	23.36	9.877	12.87	19.08	47.50	251.1	1068	1068	37.87	2.280	1.652	1.603	1.651	1.382	1.351	1.287	1.128	1.064	1.012	0.962	0.948	0.993	0.963	0.920	0.883	0.815	0.847	0.706	0.668	0.789	0.735	0.657	0.568	0.541	0.598	0.648	0.676	0.785	0.871	0.879	0.960	1.009	1.247	1.151	1.172	1.206	1.054	0.863	0.916	0.913	0.824	0.716	0.703	0.746	0.736
370.0	255.7	208.8	162.6	113.7	75.74	55.48	50.12	52.52	73.31	95.23	113.1	115.6	93.38	67.79	46.23	33.31	27.71	24.28	22.83	27.62	62.41	125.2	90.67	23.96	9.960	10.40	15.90	61.29	299.1	873.9	692.4	169.3	9.291	1.697	1.651	1.327	1.207	1.214	1.033	0.963	0.965	0.910	0.914	0.956	0.888	0.967	0.783	0.806	0.779	0.678	0.646	0.692	0.684	0.675	0.605	0.619	0.664	0.656	0.717	0.669	0.796	0.782	0.872	0.854	1.044	0.957	1.057	0.959	0.979	0.941	0.823	0.787	0.831	0.782	0.769	0.724	0.763
375.0	238.4	198.4	148.0	105.9	75.17	56.20	52.65	47.54	58.94	76.53	91.27	92.17	77.66	59.99	45.63	35.48	31.71	28.42	25.44	24.89	31.74	54.81	116.0	92.90	18.27	8.481	8.512	18.17	70.44	204.6	461.9	1015	246.4	7.836	1.678	1.449	1.229	1.183	1.085	1.020	0.904	0.869	0.958	0.941	0.767	0.895	0.790	0.755	0.738	0.649	0.594	0.625	0.761	0.656	0.647	0.576	0.636	0.608	0.630	0.568	0.680	0.746	0.789	0.863	0.820	0.909	0.900	0.921	0.904	0.953	0.791	0.870	0.786	0.778	0.808	0.719	0.737
380.0	222.5	180.5	145.1	103.5	79.58	57.79	49.62	46.80	52.20	62.80	74.46	79.07	67.09	55.92	43.25	36.34	33.43	32.30	27.63	25.51	25.89	29.71	67.23	127.4	48.48	10.17	6.794	8.530	19.64	49.71	121.1	656.9	922.7	41.15	3.699	1.410	1.264	1.156	1.042	0.939	0.905	0.867	0.936	0.747	0.767	0.798	0.810	0.814	0.712	0.635	0.565	0.724	0.698	0.633	0.641	0.631	0.581	0.642	0.710	0.567	0.558	0.694	0.718	0.742	0.810	0.808	0.792	0.778	0.865	0.788	0.762	0.797	0.751	0.799	0.781	0.746	0.717
385.0	212.2	170.7	130.1	101.8	82.83	64.34	49.58	43.29	45.53	54.37	65.16	69.29	60.95	52.79	44.04	38.39	34.24	33.10	30.22	27.47	24.37	23.60	33.38	92.59	102.2	26.88	7.217	5.920	8.267	14.46	31.15	179.1	723.6	731.0	34.13	1.884	1.228	1.108	1.032	0.956	1.042	0.874	0.820	0.811	0.739	0.838	0.824	0.720	0.721	0.535	0.580	0.655	0.653	0.716	0.590	0.611	0.663	0.702	0.634	0.607	0.649	0.696	0.733	0.709	0.731	0.782	0.807	0.754	0.807	0.792	0.745	0.827	0.781	0.793	0.743	0.863	0.723
390.0	204.0	162.8	124.9	100.7	78.34	59.34	47.43	41.45	42.83	46.26	55.08	58.14	53.62	47.49	41.16	38.17	35.42	34.48	32.07	29.63	25.65	22.39	22.41	39.61	83.96	74.07	24.27	5.813	5.481	6.657	10.02	43.31	193.4	525.1	645.0	136.4	8.589	1.310	1.113	0.974	1.026	0.857	0.891	0.741	0.726	0.761	0.797	0.681	0.687	0.615	0.557	0.722	0.684	0.688	0.597	0.636	0.670	0.677	0.659	0.599	0.635	0.618	0.606	0.692	0.707	0.708	0.800	0.721	0.741	0.765	0.716	0.773	0.770	0.792	0.804	0.883	0.797
395.0	196.4	159.4	120.1	99.96	76.14	56.37	47.23	37.21	36.40	41.74	46.82	49.76	47.17	43.78	40.33	37.73	36.12	35.58	33.00	30.88	26.60	22.54	19.37	20.92	34.17	74.54	73.62	15.77	4.504	4.136	5.130	12.24	45.91	122.9	335.5	676.9	204.6	7.802	1.229	1.023	0.946	0.900	0.948	0.828	0.835	0.781	0.758	0.788	0.622	0.596	0.564	0.675	0.659	0.695	0.586	0.604	0.742	0.602	0.565	0.626	0.625	0.566	0.607	0.663	0.638	0.676	0.761	0.718	0.654	0.648	0.733	0.757	0.771	0.762	0.722	0.943	0.853
400.0	190.2	151.9	121.3	100.7	79.29	57.19	46.86	36.55	33.19	38.24	41.59	44.62	44.54	41.06	39.23	36.68	36.53	35.60	32.97	30.33	26.04	22.90	18.48	16.38	17.09	38.41	86.68	44.92	7.639	3.553	3.823	5.227	12.66	30.05	84.71	407.8	640.7	35.93	3.076	1.096	1.004	0.982	0.829	0.803	0.699	0.707	0.811	0.710	0.695	0.642	0.568	0.772	0.693	0.666	0.630	0.631	0.650	0.687	0.592	0.621	0.543	0.660	0.596	0.634	0.630	0.743	0.646	0.645	0.709	0.682	0.757	0.745	0.730	0.678	0.761	0.817	0.986
405.0	174.7	144.2	122.1	98.73	73.27	56.48	44.01	36.73	31.84	33.88	39.98	42.77	40.85	40.56	37.47	36.21	34.43	33.37	32.62	29.92	25.97	21.77	18.32	14.77	12.38	18.08	56.03	76.47	23.61	4.184	3.189	3.435	5.145	8.944	21.59	108.9	472.1	513.3	30.06	1.486	1.039	0.957	0.890	0.887	0.724	0.854	0.727	0.801	0.735	0.652	0.551	0.668	0.698	0.614	0.638	0.547	0.633	0.598	0.569	0.591	0.613	0.629	0.582	0.681	0.574	0.678	0.604	0.630	0.712	0.757	0.691	0.709	0.700	0.709	0.742	0.813	0.826
410.0	171.4	141.7	113.8	92.12	69.93	49.91	41.05	32.61	30.26	32.26	35.49	38.66	37.84	38.23	35.79	34.65	33.85	33.00	31.12	28.49	25.05	20.69	17.59	13.79	11.19	10.83	22.14	55.01	57.96	20.49	3.997	2.935	3.402	4.229	6.768	26.42	124.4	352.7	363.3	121.2	6.932	1.056	0.865	0.818	0.743	0.817	0.718	0.774	0.696	0.608	0.580	0.661	0.650	0.652	0.630	0.594	0.598	0.623	0.584	0.590	0.607	0.630	0.603	0.594	0.585	0.651	0.617	0.648	0.730	0.691	0.667	0.747	0.709	0.730	0.754	0.743	0.775
