Sample:	'1
File name:	W112808’≈πŸ«≈.FD3
Run date:	'13:12:32, 11/29/2024
Operator:	Administrator
Comment:	'

Instrument
Model:	F-2700 FL Spectrophotometer
Serial number:	23B8-004
ROM Version:	4J14000 07

Instrument parameters
Measurement type:	3-D scan
Data mode:	Fluorescence
EX  Start WL:	220.0 nm
EX  End WL:	600.0 nm
EX Sampling interval:	5.0 nm
EM  Start WL:	230.0 nm
EM  End WL:	650.0 nm
EM Sampling interval:	5.0 nm
Scan speed:	12000 nm/min
EX Slit:	5.0 nm
EM Slit:	5.0 nm
PMT Voltage:	700 V
Response:	Auto 
Corrected spectra:	Off
Contour interval:	50.000

Peak integration
Integration method:	Rectangular
Sensitivity:	1
Threshold:	1.000

Peaks
No.	ApexEX/EM(nm)	Height(Data)
1	230.0/345.0	2157
2	230.0/585.0	97.99
3	235.0/260.0	313.4
4	240.0/265.0	363.1
5	245.0/270.0	366.2
6	250.0/275.0	488.4
7	250.0/550.0	194.1
8	255.0/285.0	576.7
9	255.0/560.0	161.9
10	260.0/575.0	136.9
11	265.0/590.0	135.4
12	270.0/600.0	144.2
13	275.0/310.0	1926
14	275.0/415.0	1937
15	275.0/435.0	1808
16	275.0/615.0	133.3
17	280.0/315.0	1730
18	280.0/625.0	110.1
19	340.0/415.0	1190
20	475.0/350.0	5.219
21	505.0/275.0	2.411
22	510.0/280.0	3.423
23	515.0/285.0	3.361
24	545.0/300.0	7.497
25	550.0/305.0	8.741
26	560.0/310.0	8.345
27	570.0/315.0	7.623
28	580.0/320.0	7.159

Data points
	220.0	225.0	230.0	235.0	240.0	245.0	250.0	255.0	260.0	265.0	270.0	275.0	280.0	285.0	290.0	295.0	300.0	305.0	310.0	315.0	320.0	325.0	330.0	335.0	340.0	345.0	350.0	355.0	360.0	365.0	370.0	375.0	380.0	385.0	390.0	395.0	400.0	405.0	410.0	415.0	420.0	425.0	430.0	435.0	440.0	445.0	450.0	455.0	460.0	465.0	470.0	475.0	480.0	485.0	490.0	495.0	500.0	505.0	510.0	515.0	520.0	525.0	530.0	535.0	540.0	545.0	550.0	555.0	560.0	565.0	570.0	575.0	580.0	585.0	590.0	595.0	600.0
230.0	42.09	629.8	1231	288.4	11.13	4.512	4.530	3.489	3.168	2.812	2.933	2.609	2.437	1.904	1.776	1.355	1.338	1.175	1.027	0.897	0.893	0.855	0.849	0.841	0.766	0.808	0.743	0.693	0.675	0.572	0.552	0.429	0.457	0.427	0.372	0.373	0.324	0.345	0.283	0.269	0.255	0.297	0.276	0.227	0.220	0.249	0.802	2.556	3.849	2.491	0.771	0.244	0.172	0.208	0.185	0.186	0.191	0.193	0.192	0.167	0.168	0.183	0.170	0.162	0.171	0.151	0.165	0.150	0.178	0.165	0.160	0.161	0.169	0.177	0.157	0.175	0.174
235.0	51.19	196.1	1078	1544	383.3	15.17	4.492	3.994	3.486	3.271	3.236	2.653	2.111	2.029	1.758	1.426	1.316	1.081	1.023	0.986	0.984	0.907	0.802	0.841	0.659	0.834	0.746	0.624	0.706	0.596	0.538	0.584	0.425	0.388	0.362	0.345	0.338	0.300	0.292	0.223	0.289	0.295	0.269	0.324	0.333	0.262	0.347	0.863	1.861	3.609	5.081	4.678	1.973	0.383	0.176	0.153	0.181	0.243	0.176	0.167	0.175	0.193	0.163	0.179	0.154	0.179	0.144	0.155	0.200	0.179	0.196	0.157	0.183	0.187	0.143	0.194	0.167
240.0	99.57	102.3	390.5	1714	1772	289.5	9.255	5.219	4.149	3.680	3.515	2.695	2.627	2.421	1.904	1.588	1.377	1.039	1.258	1.013	0.858	0.972	0.898	0.801	0.854	0.854	0.802	0.719	0.876	0.559	0.553	0.525	0.464	0.485	0.378	0.346	0.307	0.333	0.309	0.261	0.322	0.280	0.265	0.331	0.430	0.363	0.308	0.389	0.621	1.397	3.651	7.649	8.275	4.769	1.364	0.255	0.213	0.217	0.181	0.177	0.182	0.175	0.174	0.191	0.159	0.210	0.146	0.149	0.210	0.206	0.189	0.148	0.164	0.203	0.145	0.179	0.225
245.0	99.41	154.1	133.1	716.2	2425	1671	174.6	7.157	3.695	3.882	3.765	2.833	2.844	2.507	1.944	1.881	1.322	1.248	1.149	1.088	0.926	0.875	0.884	0.838	0.798	0.821	0.867	0.723	0.766	0.581	0.460	0.562	0.453	0.518	0.425	0.358	0.338	0.317	0.304	0.341	0.282	0.276	0.237	0.298	0.324	0.462	0.480	0.476	0.376	0.479	1.043	3.206	7.566	11.65	9.230	3.814	0.900	0.197	0.244	0.156	0.178	0.164	0.183	0.167	0.166	0.160	0.160	0.145	0.177	0.167	0.153	0.172	0.189	0.159	0.156	0.169	0.170
250.0	48.10	138.4	209.2	228.8	898.4	2261	2314	227.6	22.76	5.053	4.047	3.660	3.086	2.864	2.054	1.846	1.438	1.247	1.204	1.084	1.044	0.924	0.955	0.904	0.917	0.789	0.791	0.778	0.741	0.592	0.597	0.548	0.419	0.445	0.385	0.384	0.340	0.323	0.315	0.292	0.246	0.258	0.273	0.262	0.284	0.344	0.411	0.642	0.652	0.570	0.501	0.963	2.079	4.247	7.411	10.65	12.86	10.25	4.730	1.059	0.259	0.211	0.161	0.173	0.190	0.277	0.175	0.160	0.182	0.185	0.182	0.182	0.184	0.165	0.171	0.156	0.171
255.0	23.17	50.16	184.3	293.7	264.7	640.6	2550	2854	291.0	18.56	5.688	4.699	3.869	3.071	2.483	1.655	1.657	1.496	1.526	1.226	1.073	1.045	0.994	0.920	0.980	0.918	0.707	0.865	0.739	0.711	0.570	0.515	0.445	0.411	0.453	0.369	0.396	0.354	0.289	0.261	0.333	0.236	0.265	0.280	0.224	0.272	0.264	0.316	0.473	0.761	1.064	1.008	0.840	1.169	1.841	2.822	6.251	14.38	21.40	17.05	6.130	0.942	0.219	0.193	0.182	0.207	0.274	0.167	0.226	0.178	0.166	0.216	0.179	0.168	0.185	0.201	0.169
260.0	22.01	27.44	81.27	313.4	259.5	183.1	904.1	3707	2408	218.1	11.38	5.203	5.026	3.658	2.647	2.226	1.824	1.634	1.395	1.219	1.212	1.010	1.084	0.960	0.993	0.907	0.785	0.788	0.750	0.652	0.601	0.543	0.507	0.490	0.446	0.403	0.415	0.308	0.291	0.267	0.263	0.277	0.232	0.287	0.255	0.237	0.228	0.295	0.279	0.416	0.852	1.536	1.316	0.864	0.645	0.928	1.668	4.333	11.11	21.90	25.40	16.16	4.496	0.578	0.232	0.193	0.203	0.155	0.225	0.169	0.189	0.184	0.238	0.208	0.178	0.206	0.162
265.0	22.31	24.89	31.11	166.4	363.1	178.8	238.5	1517	4750	2030	149.1	8.421	5.834	4.458	2.743	2.296	2.329	1.583	1.609	1.420	1.105	1.027	1.053	0.956	0.993	0.835	0.882	0.807	0.741	0.681	0.629	0.677	0.559	0.450	0.411	0.387	0.375	0.370	0.350	0.306	0.300	0.298	0.310	0.251	0.269	0.314	0.213	0.264	0.241	0.290	0.393	0.829	1.558	1.729	1.014	0.574	0.608	1.199	2.961	7.417	17.50	28.27	26.67	13.56	2.517	0.340	0.208	0.171	0.222	0.192	0.199	0.161	0.204	0.199	0.211	0.211	0.208
270.0	36.59	40.58	32.71	63.94	204.0	366.2	234.7	390.6	1790	4293	3962	649.1	27.23	5.646	3.970	3.066	2.567	1.807	1.743	1.486	1.284	1.228	1.171	1.090	1.023	0.976	0.892	0.849	0.756	0.752	0.660	0.611	0.564	0.523	0.469	0.455	0.422	0.339	0.340	0.339	0.302	0.312	0.334	0.297	0.315	0.347	0.279	0.301	0.275	0.261	0.267	0.396	0.688	1.156	1.616	1.772	1.424	0.852	0.955	1.969	4.412	8.893	15.99	24.41	27.03	19.83	11.10	2.708	0.402	0.242	0.235	0.196	0.218	0.193	0.210	0.198	0.196
275.0	114.0	125.1	114.9	80.50	85.98	211.8	488.4	278.0	458.8	1207	4455	6509	849.9	21.59	6.202	3.803	2.978	2.284	2.102	1.634	1.521	1.389	1.293	1.182	1.073	1.121	0.843	0.874	0.756	0.715	0.640	0.554	0.635	0.509	0.495	0.501	0.455	0.391	0.323	0.346	0.252	0.387	0.337	0.353	0.409	0.436	0.440	0.448	0.415	0.386	0.323	0.356	0.419	0.525	0.660	1.092	2.111	2.411	1.748	0.958	1.356	2.325	3.954	6.070	9.390	20.25	38.43	29.95	16.43	2.799	0.349	0.223	0.266	0.223	0.183	0.240	0.266
280.0	205.6	272.4	237.0	156.6	98.37	116.8	382.0	425.4	251.0	376.4	1511	6530	5764	140.6	11.83	5.315	3.545	3.209	2.311	1.603	1.682	1.447	1.219	1.277	1.270	1.058	1.046	0.900	0.900	0.858	0.765	0.626	0.711	0.597	0.692	0.578	0.474	0.463	0.444	0.424	0.333	0.390	0.448	0.466	0.480	0.674	0.708	0.743	0.762	0.628	0.555	0.604	0.521	0.431	0.545	0.649	1.061	1.912	3.423	2.593	1.441	1.015	1.497	1.925	2.757	5.723	14.90	30.93	45.58	28.14	12.03	1.461	0.287	0.259	0.286	0.247	0.280
285.0	315.3	429.2	406.1	272.4	145.8	114.4	216.2	576.7	357.1	280.5	543.0	2438	7534	4525	100.1	8.234	4.753	3.643	2.547	2.100	1.970	1.479	1.316	1.281	1.322	1.206	0.933	0.963	0.941	0.946	0.807	0.775	0.664	0.695	0.743	0.686	0.618	0.607	0.547	0.499	0.452	0.439	0.510	0.598	0.632	0.947	0.989	1.063	1.111	1.003	1.003	0.807	0.722	0.545	0.568	0.547	0.776	0.985	1.969	3.361	3.095	2.058	1.323	1.281	1.520	2.243	4.332	9.106	21.85	39.31	47.61	24.07	6.723	0.713	0.299	0.274	0.282
290.0	464.3	677.0	675.9	459.4	247.0	169.9	199.0	381.6	708.4	749.9	590.9	983.8	2698	5631	5074	420.2	21.17	4.767	3.832	2.697	2.232	1.883	1.696	1.678	1.474	1.258	1.026	0.983	1.000	0.948	0.967	0.735	0.829	0.806	0.812	0.822	0.802	0.685	0.619	0.535	0.532	0.490	0.654	0.775	0.938	1.144	1.364	1.688	1.631	1.521	1.390	1.320	1.017	0.867	0.787	0.701	0.949	0.910	1.296	1.940	2.574	3.589	3.747	3.469	2.469	2.427	2.663	4.054	6.637	11.58	20.71	29.77	30.64	33.67	16.58	6.767	0.926
295.0	599.2	881.7	911.1	613.0	352.5	235.2	260.4	359.6	595.1	1135	1171	950.1	1150	1638	4182	6182	592.7	17.70	5.312	3.504	2.568	2.139	1.926	1.752	1.432	1.462	1.190	1.141	1.018	1.107	0.915	0.883	0.859	0.860	0.974	0.968	0.964	0.845	0.761	0.615	0.679	0.719	0.735	0.859	1.087	1.425	1.708	2.316	2.144	1.937	1.700	1.739	1.287	1.155	1.020	0.996	1.114	1.277	1.213	1.822	1.992	2.605	3.472	5.304	5.955	4.659	3.606	3.722	4.345	5.012	6.682	8.084	9.142	19.03	38.71	50.32	26.06
300.0	674.8	1005	1008	714.7	407.0	300.0	325.0	423.9	637.2	1059	1663	1305	986.3	749.9	1323	5412	5266	84.81	9.982	5.008	3.538	2.608	2.060	1.939	1.698	1.833	1.317	1.296	1.198	1.024	1.054	0.993	0.845	1.021	0.976	1.043	0.944	0.936	0.775	0.697	0.670	0.692	0.917	0.920	1.180	1.472	1.877	2.502	2.443	2.275	1.995	1.896	1.500	1.407	1.146	1.138	1.304	1.341	1.623	2.062	2.397	2.779	3.277	4.428	6.249	7.497	6.633	5.018	4.815	4.368	3.934	3.668	3.362	5.514	12.30	29.81	49.19
305.0	669.9	1036	1054	737.7	461.4	367.2	414.2	549.8	769.0	1116	1710	1828	1212	708.7	578.7	1815	6196	4229	66.60	7.493	4.664	3.113	2.607	2.227	1.801	1.845	1.378	1.381	1.079	1.159	1.051	0.917	0.757	0.970	1.003	1.059	0.914	0.869	0.827	0.682	0.720	0.721	0.903	0.968	1.233	1.601	1.918	2.277	2.714	2.297	2.127	2.096	1.670	1.449	1.360	1.477	1.629	1.811	2.046	2.455	2.883	3.412	3.788	4.363	5.713	6.973	8.741	8.362	6.355	5.207	4.292	3.417	2.835	3.054	4.080	8.099	17.77
310.0	676.6	1023	1072	755.0	504.8	428.0	496.3	638.7	872.4	1200	1596	1926	1681	915.6	521.2	639.2	1997	4509	4497	292.3	17.54	4.355	3.238	2.845	2.358	1.942	1.826	1.475	1.406	1.250	1.058	1.101	0.927	0.995	1.114	1.077	1.014	0.910	0.830	0.761	0.783	0.736	0.854	1.040	1.298	1.691	2.135	2.603	2.642	2.329	2.096	2.156	1.831	1.644	1.634	1.561	1.918	2.158	2.410	2.732	3.275	3.735	4.420	5.057	5.778	6.271	7.465	8.007	8.345	7.635	6.046	4.339	3.365	2.880	2.671	3.240	5.206
315.0	654.0	1043	1058	783.9	538.2	476.3	553.9	694.0	924.2	1238	1552	1720	1730	1301	659.2	446.6	675.6	1182	3099	5642	455.1	15.96	4.714	3.720	2.615	2.288	1.918	1.759	1.534	1.363	1.364	1.116	1.012	1.031	1.088	1.088	1.000	0.856	0.752	0.834	0.779	0.805	0.867	1.054	1.274	1.705	2.174	2.743	2.671	2.365	2.054	2.181	1.900	1.650	1.853	1.814	2.080	2.395	2.719	3.056	3.600	3.865	4.529	4.936	6.068	6.256	6.723	6.941	6.960	7.408	7.623	6.868	5.030	3.407	2.753	2.554	2.743
320.0	729.3	1175	1189	809.4	580.4	530.7	585.6	737.7	967.4	1263	1566	1697	1606	1450	967.0	498.7	439.4	428.3	881.8	4121	3998	353.0	8.739	4.582	3.332	2.477	2.203	1.904	1.710	1.520	1.149	1.368	1.179	1.181	1.134	1.221	1.000	0.889	0.822	0.874	0.885	0.777	0.965	1.061	1.359	1.833	2.394	3.041	3.000	2.593	2.274	2.396	2.002	1.848	1.859	1.863	2.228	2.574	2.839	3.092	3.752	3.818	4.499	5.156	5.930	6.315	6.573	6.851	6.730	6.932	6.691	6.755	7.159	5.351	3.758	2.908	2.396
325.0	825.4	1402	1429	989.7	661.1	578.1	637.7	777.0	994.9	1284	1574	1692	1573	1345	1204	673.9	433.7	295.6	303.7	1237	4537	3451	54.57	6.448	4.127	3.309	2.454	2.131	1.793	1.517	1.462	1.322	1.168	1.233	1.106	1.205	0.973	0.783	0.769	0.863	0.837	0.838	0.909	1.089	1.534	2.056	2.738	3.630	3.731	3.220	2.840	2.955	2.380	2.067	2.045	2.045	2.433	2.654	3.087	3.034	3.862	4.072	4.644	5.218	6.018	6.543	7.038	6.846	7.345	6.751	6.444	6.300	6.335	6.707	5.591	3.774	2.842
330.0	932.8	1573	1796	1380	878.3	681.0	676.2	805.0	1005	1282	1557	1687	1576	1308	1114	927.7	596.0	329.5	227.0	386.5	1356	3425	3703	966.4	17.36	4.465	3.234	2.454	2.060	1.646	1.429	1.399	1.200	1.179	1.066	1.064	1.047	0.923	0.915	0.817	0.836	0.872	1.067	1.205	1.783	2.268	3.030	4.112	4.242	4.056	3.488	3.705	3.157	2.788	2.558	2.368	2.739	2.858	3.053	3.286	3.760	4.370	4.696	5.278	5.801	6.433	6.649	6.941	7.131	6.661	6.517	5.945	5.681	5.595	5.893	5.506	4.681
335.0	1017	1695	2003	1671	1138	830.9	754.8	838.2	1025	1271	1538	1648	1579	1348	1079	899.4	848.4	486.9	278.2	252.6	421.7	878.6	2482	4885	394.6	17.55	4.507	3.108	2.580	2.015	1.783	1.557	1.403	1.420	1.061	1.061	1.068	0.908	0.846	0.825	0.997	0.913	1.009	1.344	1.862	2.796	3.060	4.437	4.872	4.539	4.258	4.617	3.979	3.644	3.157	2.879	3.065	3.181	3.037	3.572	3.786	4.095	4.750	5.432	5.691	6.363	6.763	7.099	6.733	6.887	6.713	6.105	5.858	5.567	5.159	4.905	5.100
340.0	1023	1749	2133	1782	1266	925.2	794.3	872.3	1033	1262	1493	1617	1558	1350	1103	864.8	824.2	674.2	359.9	260.4	245.9	307.5	714.8	3463	3326	320.8	8.858	3.769	2.992	2.329	1.827	1.736	1.530	1.353	1.110	1.054	0.989	0.819	0.923	0.815	0.813	0.903	0.994	1.336	1.870	2.545	3.301	4.657	4.900	4.864	4.659	5.101	4.471	3.927	3.419	3.070	2.921	3.430	3.121	3.558	3.905	4.263	4.667	5.215	5.582	6.260	6.393	6.402	6.656	7.027	6.730	6.597	6.046	5.723	5.092	4.720	4.705
345.0	964.8	1651	2157	1832	1305	973.4	838.2	877.7	1029	1239	1434	1551	1489	1323	1100	859.2	740.6	726.8	510.8	306.8	238.3	211.0	264.9	1038	3721	2939	48.95	5.465	3.434	2.498	2.075	1.828	1.426	1.334	1.202	1.158	0.917	0.902	0.943	0.840	0.835	0.872	0.965	1.236	1.699	2.437	3.295	4.507	4.813	4.955	4.647	4.964	4.672	4.158	3.625	3.142	3.185	3.120	3.447	3.768	3.988	4.223	4.431	5.148	5.344	5.937	6.215	6.150	6.348	6.519	6.530	6.327	6.203	5.751	5.466	4.913	4.719
350.0	854.2	1524	1981	1788	1355	1034	881.2	913.3	1035	1199	1365	1446	1406	1277	1086	882.5	737.4	658.6	629.6	473.6	310.3	241.2	210.4	335.9	1101	2789	3033	821.0	16.08	3.585	2.367	1.804	1.421	1.370	1.259	1.114	1.005	0.911	0.966	0.882	0.798	0.852	0.881	1.201	1.683	2.239	2.855	3.906	4.627	4.614	4.542	5.219	4.806	4.295	3.809	3.321	3.324	3.461	3.575	3.722	4.006	4.374	4.532	5.219	5.505	5.613	5.690	5.877	6.191	6.218	6.221	5.818	6.020	5.532	5.249	4.871	4.715
355.0	801.6	1388	1794	1675	1357	1080	923.4	936.8	1046	1179	1304	1371	1337	1234	1080	903.5	778.3	669.8	602.6	615.2	467.2	315.5	249.9	224.9	342.9	702.3	1942	3842	368.6	17.33	3.449	2.115	1.737	1.484	1.201	1.169	1.164	0.890	0.956	0.884	0.759	0.773	0.947	1.147	1.622	2.038	2.810	3.570	4.109	4.166	3.984	5.147	4.519	4.218	3.859	3.428	3.489	3.565	3.681	3.753	4.194	4.289	4.692	4.756	5.180	5.428	5.698	5.524	5.946	6.116	5.819	5.780	5.693	5.572	5.360	4.934	4.990
360.0	709.2	1272	1662	1654	1344	1101	963.5	970.4	1043	1164	1255	1304	1283	1194	1068	912.6	807.8	710.3	622.1	618.4	604.2	411.8	300.8	235.0	206.8	241.7	540.8	2687	3042	304.8	8.360	2.978	2.208	1.761	1.341	1.201	1.075	0.979	0.902	0.887	0.801	0.711	0.951	1.089	1.484	1.772	2.559	3.305	3.681	3.980	3.993	5.002	4.464	4.434	3.865	3.672	3.729	3.777	3.629	3.890	4.115	4.216	4.402	4.900	5.038	5.051	5.256	5.541	5.529	5.826	5.787	5.485	5.467	5.358	5.255	4.815	5.002
365.0	664.6	1192	1567	1560	1357	1111	980.2	996.5	1059	1154	1235	1258	1248	1168	1050	932.5	832.1	744.0	668.4	619.9	638.7	545.9	370.0	280.6	211.0	166.9	195.1	793.4	3143	2700	46.55	5.199	3.016	2.099	1.536	1.299	1.125	1.031	0.836	0.878	0.782	0.905	0.903	1.073	1.303	1.713	2.383	3.291	3.600	3.765	3.930	4.582	4.306	4.143	3.850	3.647	3.655	3.832	3.726	3.772	4.087	4.531	4.609	4.907	5.055	4.973	5.085	5.350	5.405	5.344	5.268	5.444	5.764	5.295	5.406	4.884	5.095
370.0	645.5	1088	1455	1480	1334	1140	1030	1020	1072	1152	1202	1218	1204	1135	1042	941.6	866.1	794.8	730.0	672.5	635.3	629.2	526.2	367.7	269.7	201.5	157.4	255.0	927.3	2452	2686	721.5	14.97	3.196	2.052	1.559	1.270	1.076	0.933	0.898	0.823	0.778	0.911	1.012	1.287	1.606	2.167	2.978	3.358	3.438	3.674	4.382	4.356	4.306	4.009	3.757	4.020	3.977	3.955	4.028	4.332	4.331	4.438	4.831	5.157	4.917	4.911	5.082	5.210	5.366	5.172	5.048	5.252	5.218	5.218	4.986	5.085
375.0	596.3	1012	1329	1389	1302	1153	1042	1035	1080	1142	1185	1184	1167	1105	1024	946.1	891.4	833.2	783.7	731.9	678.0	633.0	623.1	502.8	356.0	267.2	201.7	176.8	292.5	622.5	1748	3262	319.3	14.92	3.210	2.092	1.580	1.230	1.047	0.928	0.933	0.714	0.905	0.937	1.171	1.457	2.117	2.811	3.094	3.218	3.328	4.488	4.197	4.134	4.165	4.100	4.005	4.136	4.212	4.097	4.433	4.318	4.828	4.531	4.797	4.753	4.809	4.871	4.860	5.258	5.188	5.108	5.135	5.290	5.181	4.904	5.131
380.0	559.0	931.2	1237	1341	1278	1147	1062	1053	1082	1122	1161	1162	1141	1088	1010	942.1	893.6	857.0	812.8	766.8	712.4	661.0	629.6	605.3	449.9	324.4	252.3	195.6	181.0	220.5	501.9	2349	2564	249.1	7.492	2.928	1.949	1.387	1.034	0.890	0.910	0.814	0.929	0.897	1.167	1.501	1.924	2.359	2.800	3.066	3.355	3.969	4.008	4.268	3.953	4.109	3.970	4.144	4.012	4.195	4.425	4.353	4.746	4.787	4.317	4.578	4.673	5.014	4.631	4.982	4.933	5.165	5.194	5.205	5.328	5.051	5.558
385.0	535.4	877.4	1185	1312	1257	1152	1070	1063	1073	1097	1147	1141	1128	1075	1006	935.8	896.0	868.2	829.8	795.5	747.3	697.7	643.7	631.4	567.7	400.2	309.5	242.3	194.7	160.9	194.0	712.0	2541	2138	37.80	5.285	2.806	1.842	1.351	1.075	0.832	0.903	0.965	0.991	1.056	1.449	1.790	2.481	2.631	2.961	3.344	3.922	4.189	4.008	3.856	3.760	4.153	4.085	4.195	4.274	4.342	4.485	4.658	4.659	4.485	4.662	4.485	4.777	5.011	4.836	5.006	5.015	4.998	5.296	5.124	5.084	5.107
390.0	537.4	848.4	1149	1276	1251	1158	1093	1084	1095	1128	1162	1147	1137	1086	1025	951.9	901.9	875.9	852.6	826.8	794.2	750.3	702.6	660.9	639.7	555.7	416.2	339.5	276.0	217.1	176.1	250.4	770.2	1908	1912	497.2	13.46	3.762	2.243	1.310	1.063	0.974	0.976	1.044	1.160	1.489	1.792	2.348	2.703	2.715	3.188	4.045	4.095	4.131	4.044	3.924	4.131	4.384	4.299	4.276	4.330	4.566	4.457	4.456	4.432	4.586	4.690	4.749	4.864	4.844	4.953	4.933	4.955	5.010	5.282	5.224	5.229
395.0	501.6	812.6	1139	1251	1266	1175	1154	1152	1158	1202	1254	1249	1236	1181	1093	1002	936.0	895.6	872.7	865.6	845.0	829.1	797.6	760.0	720.9	700.9	625.3	496.3	411.1	336.4	263.3	218.9	278.4	512.2	1332	2253	257.1	15.07	4.433	2.098	1.331	1.227	1.163	1.104	1.246	1.546	1.915	2.342	2.714	2.828	2.962	3.949	4.246	4.278	4.207	4.254	4.248	4.326	4.256	4.540	4.561	4.613	4.817	4.766	4.680	4.794	4.576	4.739	4.827	5.319	4.936	5.053	5.088	5.187	5.234	5.347	5.212
400.0	510.5	816.2	1089	1231	1269	1217	1202	1203	1236	1318	1396	1416	1414	1332	1224	1087	984.2	924.6	906.2	899.3	901.2	907.0	893.9	878.4	848.7	819.7	805.8	686.8	566.7	446.5	378.7	289.2	226.2	227.4	428.1	1739	1967	199.6	9.755	3.201	1.816	1.470	1.325	1.213	1.340	1.625	1.870	2.344	2.757	2.779	3.081	4.076	4.341	4.462	4.156	4.315	4.565	4.440	4.392	4.668	4.973	4.696	5.047	4.931	4.859	5.019	5.110	5.118	5.035	5.236	5.454	5.541	5.739	5.385	5.369	5.434	5.344
405.0	552.1	808.3	1089	1247	1292	1255	1263	1296	1372	1492	1605	1649	1639	1533	1393	1199	1047	957.7	943.4	943.2	964.9	988.3	1005	1009	1001	975.5	966.1	909.5	756.0	631.1	517.2	392.3	286.5	217.8	218.0	583.3	1939	1532	34.30	5.732	2.302	1.578	1.363	1.370	1.408	1.838	1.949	2.366	2.790	2.886	3.185	4.211	4.510	4.372	4.517	4.552	5.025	4.882	4.930	4.943	5.016	5.443	5.443	5.384	5.768	5.081	5.500	5.570	5.580	5.860	6.105	6.047	6.060	5.887	6.002	5.924	5.882
410.0	511.3	802.8	1063	1239	1304	1303	1335	1392	1493	1678	1838	1904	1877	1751	1556	1312	1102	987.8	969.2	978.5	1013	1064	1108	1146	1159	1140	1120	1083	978.6	826.1	674.3	521.5	383.3	279.5	220.9	259.4	635.3	1409	1403	143.0	10.05	2.298	1.733	1.548	1.465	1.781	1.972	2.549	2.887	2.913	3.144	4.428	4.599	4.889	4.759	4.734	5.224	5.240	5.355	5.240	5.238	5.409	5.611	5.640	5.902	5.587	5.819	5.928	6.087	6.652	6.478	6.609	6.399	6.620	6.242	6.318	6.025
415.0	488.9	781.9	1055	1191	1259	1308	1337	1416	1525	1701	1876	1937	1908	1789	1572	1312	1085	968.8	938.3	960.7	990.7	1052	1117	1168	1190	1186	1164	1113	1039	934.0	749.8	580.0	432.7	316.5	241.6	204.6	241.7	385.8	966.3	1598	218.1	8.174	2.229	1.669	1.709	1.864	1.896	2.456	2.752	2.780	3.324	4.378	4.479	4.820	4.867	4.724	5.542	5.326	5.411	5.354	5.500	5.517	5.586	5.781	6.058	5.822	5.601	5.781	5.853	6.444	6.442	6.659	6.448	6.302	5.926	6.248	5.970
420.0	470.9	744.3	1025	1139	1238	1286	1333	1385	1476	1643	1810	1867	1832	1701	1504	1254	1042	924.1	902.7	921.2	956.8	1020	1079	1132	1163	1159	1144	1084	1009	945.0	774.1	586.6	439.1	325.9	249.0	192.0	155.7	146.5	282.2	1225	1412	34.49	3.834	2.101	1.968	1.842	2.018	2.537	2.777	2.674	3.245	4.292	4.439	4.537	5.046	4.683	5.293	5.178	5.294	5.291	5.302	5.373	5.350	5.469	5.702	5.704	5.989	5.637	5.954	6.283	6.185	6.234	6.166	6.111	6.053	6.137	5.844
