Sample:	'1
File name:	G2025062507¿˚√Ò’¢.FD3
Run date:	'10:07:46, 06/26/2025
Operator:	Administrator
Comment:	'

Instrument
Model:	F-2700 FL Spectrophotometer
Serial number:	23B8-004
ROM Version:	4J14000 07

Instrument parameters
Measurement type:	3-D scan
Data mode:	Fluorescence
EX  Start WL:	220.0 nm
EX  End WL:	600.0 nm
EX Sampling interval:	5.0 nm
EM  Start WL:	230.0 nm
EM  End WL:	650.0 nm
EM Sampling interval:	5.0 nm
Scan speed:	12000 nm/min
EX Slit:	5.0 nm
EM Slit:	5.0 nm
PMT Voltage:	700 V
Response:	Auto 
Corrected spectra:	Off
Contour interval:	50.000

Peak integration
Integration method:	Rectangular
Sensitivity:	1
Threshold:	1.000

Peaks
No.	ApexEX/EM(nm)	Height(Data)
1	225.0/620.0	53.48
2	230.0/345.0	2335
3	240.0/265.0	379.6
4	245.0/270.0	399.6
5	250.0/275.0	523.7
6	255.0/285.0	572.4
7	255.0/560.0	179.2
8	260.0/290.0	572.2
9	260.0/575.0	141.5
10	265.0/295.0	772.8
11	265.0/585.0	116.2
12	270.0/300.0	1095
13	270.0/375.0	1235
14	270.0/600.0	109.9
15	275.0/305.0	1247
16	275.0/415.0	3123
17	275.0/435.0	2982
18	275.0/610.0	97.70
19	280.0/315.0	1210
20	280.0/340.0	1359
21	280.0/625.0	85.64
22	285.0/320.0	1217
23	285.0/635.0	63.38
24	340.0/415.0	1647
25	345.0/430.0	1583
26	465.0/345.0	6.255
27	475.0/355.0	6.534
28	505.0/275.0	3.006
29	510.0/280.0	3.654
30	515.0/285.0	3.399
31	530.0/290.0	3.580
32	540.0/295.0	5.097
33	545.0/300.0	5.862
34	545.0/425.0	9.500
35	550.0/305.0	6.625
36	560.0/310.0	6.578
37	560.0/340.0	6.764
38	560.0/410.0	10.19
39	570.0/315.0	6.585
40	570.0/345.0	6.934
41	575.0/415.0	10.07

Data points
	220.0	225.0	230.0	235.0	240.0	245.0	250.0	255.0	260.0	265.0	270.0	275.0	280.0	285.0	290.0	295.0	300.0	305.0	310.0	315.0	320.0	325.0	330.0	335.0	340.0	345.0	350.0	355.0	360.0	365.0	370.0	375.0	380.0	385.0	390.0	395.0	400.0	405.0	410.0	415.0	420.0	425.0	430.0	435.0	440.0	445.0	450.0	455.0	460.0	465.0	470.0	475.0	480.0	485.0	490.0	495.0	500.0	505.0	510.0	515.0	520.0	525.0	530.0	535.0	540.0	545.0	550.0	555.0	560.0	565.0	570.0	575.0	580.0	585.0	590.0	595.0	600.0
230.0	73.49	1196	1951	443.8	19.12	6.210	6.388	4.800	4.283	3.875	3.650	3.750	3.236	2.674	2.172	2.104	1.712	1.481	1.372	1.331	1.154	1.212	1.208	1.052	1.046	0.977	1.002	0.836	0.818	0.785	0.730	0.735	0.667	0.562	0.543	0.493	0.501	0.468	0.413	0.379	0.461	0.546	0.530	0.389	0.334	0.404	1.445	4.843	6.738	4.419	1.468	0.419	0.275	0.298	0.250	0.272	0.275	0.251	0.311	0.243	0.249	0.265	0.272	0.259	0.254	0.247	0.253	0.259	0.262	0.256	0.267	0.260	0.262	0.248	0.259	0.244	0.288
235.0	90.64	360.2	1630	2146	470.1	25.75	6.328	4.833	5.009	4.900	4.486	3.798	3.305	3.012	2.276	2.201	1.636	1.548	1.427	1.489	1.109	1.017	1.121	1.013	1.078	0.936	0.945	0.898	0.887	0.756	0.732	0.704	0.702	0.554	0.529	0.513	0.460	0.426	0.414	0.454	0.425	0.466	0.479	0.585	0.440	0.404	0.577	1.548	3.122	5.711	8.065	7.360	3.025	0.699	0.278	0.259	0.237	0.278	0.266	0.320	0.244	0.231	0.289	0.276	0.233	0.257	0.283	0.213	0.232	0.247	0.288	0.285	0.355	0.212	0.259	0.254	0.283
240.0	164.6	149.8	564.8	2371	2296	347.7	14.98	5.166	6.044	5.090	4.789	4.107	3.537	3.019	2.403	2.357	1.763	1.736	1.373	1.235	1.103	1.137	0.988	1.030	1.068	1.135	1.004	0.784	0.822	0.834	0.720	0.763	0.656	0.617	0.584	0.447	0.452	0.429	0.429	0.437	0.411	0.406	0.487	0.486	0.582	0.605	0.538	0.614	1.020	1.945	5.049	11.41	12.33	7.425	2.360	0.455	0.219	0.256	0.249	0.276	0.204	0.237	0.338	0.229	0.260	0.275	0.282	0.244	0.236	0.357	0.263	0.322	0.279	0.280	0.303	0.302	0.295
245.0	155.1	191.8	176.7	957.7	3152	2243	248.4	8.367	6.238	4.984	4.366	4.040	4.100	3.494	2.982	2.414	1.649	1.719	1.665	1.325	1.282	1.109	1.139	1.198	0.979	0.950	0.966	0.824	0.886	0.855	0.785	0.709	0.665	0.633	0.682	0.593	0.483	0.472	0.484	0.468	0.434	0.458	0.376	0.358	0.511	0.717	0.740	0.644	0.537	0.644	1.430	4.357	10.37	15.50	13.40	6.200	1.505	0.355	0.250	0.302	0.225	0.268	0.390	0.269	0.242	0.287	0.255	0.272	0.262	0.313	0.254	0.305	0.256	0.275	0.254	0.306	0.272
250.0	66.18	171.6	227.4	289.7	1160	2934	3140	889.7	41.99	6.526	5.617	5.178	4.328	3.837	3.148	2.455	1.862	1.762	1.692	1.610	1.181	1.181	1.154	1.109	1.097	1.122	0.983	0.897	0.924	0.935	0.873	0.758	0.660	0.613	0.622	0.536	0.546	0.456	0.506	0.455	0.417	0.415	0.401	0.345	0.382	0.471	0.602	0.874	1.015	0.753	0.735	1.240	2.764	5.576	9.679	14.13	16.97	14.41	7.048	1.763	0.310	0.271	0.323	0.294	0.273	0.289	0.282	0.225	0.263	0.310	0.243	0.308	0.275	0.232	0.282	0.347	0.248
255.0	39.36	63.88	206.6	308.9	326.8	820.5	3235	4874	304.2	33.87	7.890	6.491	5.064	4.393	3.565	2.485	2.310	1.705	1.702	1.585	1.437	1.278	1.172	1.233	1.189	1.113	0.961	1.078	1.002	0.948	0.935	0.818	0.660	0.699	0.656	0.589	0.480	0.444	0.444	0.489	0.444	0.367	0.393	0.404	0.403	0.416	0.368	0.460	0.685	1.057	1.227	1.080	1.034	1.529	2.488	3.741	7.738	18.18	29.52	24.11	10.36	1.629	0.402	0.345	0.321	0.332	0.307	0.264	0.278	0.347	0.309	0.330	0.296	0.254	0.301	0.322	0.260
260.0	37.52	34.05	92.73	304.8	282.8	236.1	1110	4962	4930	250.1	19.31	7.482	6.570	5.151	4.059	2.909	2.412	2.148	2.038	1.520	1.438	1.469	1.371	1.201	1.179	1.175	1.176	0.967	0.967	0.921	0.918	0.799	0.681	0.700	0.577	0.561	0.629	0.437	0.441	0.431	0.432	0.419	0.380	0.445	0.338	0.364	0.374	0.393	0.398	0.551	1.015	1.521	1.587	1.065	0.886	1.201	2.108	5.445	14.74	29.37	32.28	22.39	7.170	0.861	0.324	0.387	0.355	0.313	0.286	0.286	0.280	0.298	0.332	0.354	0.277	0.302	0.296
265.0	36.92	31.94	40.89	165.5	379.6	214.6	301.4	1932	6684	4756	186.8	13.07	7.801	5.871	4.572	3.180	2.922	2.170	2.128	1.587	1.656	1.445	1.192	1.335	1.172	1.195	1.220	0.952	1.056	0.998	0.927	0.746	0.720	0.754	0.549	0.659	0.496	0.497	0.444	0.502	0.389	0.398	0.394	0.472	0.441	0.387	0.333	0.412	0.352	0.433	0.469	1.006	1.859	1.988	1.277	0.789	0.855	1.599	3.836	9.556	22.71	40.18	31.35	17.80	3.708	0.460	0.377	0.300	0.375	0.326	0.399	0.335	0.289	0.289	0.280	0.304	0.324
270.0	46.42	42.98	34.64	70.70	228.0	399.6	277.2	498.8	2374	6202	5423	766.3	38.56	7.980	5.404	4.060	3.123	2.730	2.318	1.861	1.935	1.666	1.364	1.414	1.387	1.145	1.172	1.208	1.087	0.955	0.937	0.892	0.794	0.814	0.663	0.651	0.603	0.521	0.432	0.470	0.437	0.386	0.467	0.465	0.455	0.414	0.414	0.372	0.431	0.430	0.342	0.521	0.911	1.390	1.989	2.003	1.597	1.199	1.315	2.553	5.773	12.65	21.17	34.84	35.08	33.15	13.09	3.716	0.551	0.339	0.419	0.354	0.298	0.286	0.311	0.343	0.354
275.0	94.31	88.29	69.45	63.84	111.8	259.3	523.7	316.3	585.0	1646	5908	9743	1031	33.20	7.862	5.994	4.114	3.208	2.686	2.440	2.309	1.738	1.841	1.403	1.230	1.375	1.162	1.320	1.136	1.007	0.928	0.921	1.121	0.890	0.692	0.715	0.558	0.587	0.491	0.577	0.465	0.530	0.502	0.449	0.495	0.555	0.543	0.550	0.508	0.418	0.389	0.507	0.630	0.718	0.975	1.407	2.454	3.006	2.195	1.234	1.757	3.257	5.148	8.483	12.82	32.27	57.46	32.54	20.01	3.357	0.453	0.440	0.408	0.337	0.408	0.387	0.361
280.0	166.2	157.9	121.5	88.58	91.60	151.8	412.2	542.3	264.9	441.7	1855	9106	8665	147.3	16.24	7.255	5.409	4.129	3.263	2.637	2.219	1.870	1.784	1.573	1.517	1.524	1.366	1.251	1.153	1.059	0.984	0.917	0.936	1.020	0.874	0.745	0.676	0.684	0.600	0.537	0.578	0.537	0.563	0.608	0.658	0.667	0.732	0.713	0.622	0.573	0.463	0.507	0.575	0.596	0.749	0.828	1.291	2.413	3.654	2.475	1.452	1.268	1.680	2.484	3.469	8.749	22.94	44.49	66.68	30.84	14.52	1.752	0.482	0.432	0.401	0.400	0.363
285.0	233.0	251.0	198.9	130.7	99.72	122.3	224.6	572.4	344.2	228.5	537.4	3073	9999.9	6583	108.6	12.12	6.929	4.757	3.768	3.001	2.579	1.968	1.957	1.721	1.637	1.512	1.509	1.429	1.175	1.125	1.188	0.986	1.070	1.080	1.040	1.010	0.879	0.875	0.777	0.722	0.686	0.623	0.671	0.704	0.749	0.967	0.864	0.905	0.905	0.647	0.667	0.552	0.618	0.688	0.700	0.715	0.886	1.261	2.305	3.399	3.293	1.727	1.144	1.281	1.578	2.868	6.045	12.72	32.21	56.80	69.07	26.84	8.590	0.739	0.439	0.389	0.425
290.0	340.7	371.8	304.9	192.0	133.4	135.6	171.7	307.4	572.2	508.7	369.3	907.2	3273	7926	7494	440.9	27.27	6.671	4.885	3.550	2.927	2.454	2.113	1.879	1.905	1.717	1.611	1.359	1.328	1.288	1.224	1.129	1.059	1.174	1.095	1.151	0.951	1.013	0.892	0.787	0.765	0.752	0.854	0.881	1.038	1.240	1.200	1.238	1.156	1.014	0.808	0.700	0.760	0.791	0.774	0.821	0.896	1.030	1.330	1.763	2.583	3.330	3.580	2.748	1.875	1.895	2.549	3.952	8.430	16.05	30.47	42.15	54.15	45.78	17.96	7.900	1.063
295.0	449.9	494.7	424.2	278.6	180.3	171.4	192.9	238.9	373.2	772.8	744.9	555.5	1003	2058	5906	9605	645.0	24.90	7.142	4.841	3.712	3.007	2.688	2.138	2.036	1.840	1.711	1.446	1.502	1.362	1.285	1.172	1.049	1.121	1.203	1.169	1.180	1.102	1.041	0.953	0.834	0.905	0.900	1.094	1.194	1.402	1.561	1.605	1.453	1.218	1.057	0.937	0.860	0.999	0.858	0.917	1.067	1.030	1.210	1.353	1.713	1.981	2.910	4.425	5.097	3.477	2.229	2.604	3.625	4.919	8.168	10.63	15.13	27.68	56.87	70.63	29.49
300.0	505.2	600.1	510.1	337.0	227.3	225.0	247.7	281.3	363.0	645.1	1095	757.9	609.5	719.8	1735	7883	5871	473.3	14.20	6.484	4.461	3.423	2.870	2.551	2.262	2.090	1.650	1.691	1.417	1.508	1.341	1.220	1.237	1.112	1.320	1.195	1.346	1.166	1.201	0.995	1.046	1.033	1.052	1.173	1.355	1.591	1.665	1.857	1.712	1.482	1.254	1.176	1.030	1.080	1.016	1.022	1.211	1.271	1.479	1.612	1.897	2.050	2.430	3.153	4.944	5.862	4.866	3.457	3.289	3.168	3.602	3.978	4.614	7.447	18.05	42.88	71.42
305.0	597.6	658.9	574.8	396.6	289.9	281.0	323.0	379.7	468.0	644.3	1047	1247	735.4	542.2	634.7	2471	8502	4901	73.07	9.679	5.708	4.445	3.468	3.022	2.274	2.308	1.833	1.881	1.503	1.565	1.363	1.223	1.328	1.191	1.327	1.223	1.324	1.295	1.221	1.208	1.036	1.112	1.100	1.295	1.412	1.628	1.823	1.917	1.813	1.634	1.451	1.480	1.272	1.391	1.288	1.361	1.554	1.775	1.930	2.118	2.257	2.495	2.853	3.157	3.795	5.124	6.625	6.183	4.349	3.462	3.216	2.923	2.934	3.264	5.339	11.27	26.07
310.0	618.8	723.0	632.2	449.1	334.1	341.2	386.7	463.1	560.3	711.7	930.0	1245	1191	712.5	493.7	763.9	2610	6157	6074	1358	22.55	5.941	4.798	3.567	2.880	2.546	2.328	1.986	1.656	1.570	1.594	1.432	1.167	1.345	1.363	1.333	1.409	1.337	1.174	1.118	1.057	1.181	1.189	1.373	1.387	1.767	1.892	2.112	2.107	1.667	1.547	1.687	1.493	1.414	1.508	1.608	1.741	1.875	2.309	2.385	2.580	2.915	3.134	3.619	3.776	4.370	5.066	6.084	6.578	6.190	4.851	3.581	3.126	2.794	3.005	4.018	7.246
315.0	689.3	808.7	720.6	506.0	404.0	394.7	441.0	524.3	635.0	784.9	943.6	1090	1210	1126	607.5	452.0	782.4	1544	4310	8183	503.8	23.31	6.486	4.603	3.620	3.177	2.358	2.320	1.849	1.808	1.981	1.541	1.142	1.443	1.362	1.382	1.348	1.387	1.179	1.199	1.096	1.102	1.239	1.330	1.608	1.788	2.219	2.206	2.331	1.804	1.668	1.905	1.767	1.631	1.667	1.756	2.050	2.265	2.566	2.756	2.889	3.206	3.485	4.051	4.048	4.460	4.480	5.121	5.549	5.718	6.585	5.887	4.650	3.472	3.058	2.781	3.188
320.0	791.1	957.0	844.2	586.5	459.7	435.0	491.4	573.6	690.6	850.8	993.4	1105	1128	1217	902.8	469.9	439.4	506.0	1187	5900	7056	402.3	13.15	5.919	4.180	3.678	2.858	2.658	2.359	1.905	1.932	1.639	1.361	1.471	1.286	1.352	1.414	1.373	1.338	1.181	1.297	1.251	1.373	1.482	1.834	2.028	2.434	2.686	2.601	2.084	1.845	2.171	1.997	1.953	1.865	1.951	2.369	2.597	2.738	2.671	2.936	3.481	3.479	4.207	4.260	4.600	4.807	5.404	5.303	5.432	5.678	6.237	6.493	5.342	3.584	3.004	2.619
325.0	914.3	1239	1177	804.7	566.4	498.6	538.9	617.2	733.2	891.8	1060	1160	1147	1119	1122	654.0	416.5	315.8	383.5	1720	6800	3924	60.52	9.245	5.274	4.164	3.143	2.835	2.381	1.908	1.856	1.637	1.619	1.453	1.409	1.359	1.436	1.296	1.352	1.101	1.381	1.290	1.514	1.568	2.110	2.622	2.921	3.434	3.493	2.958	2.548	2.572	2.261	2.194	2.033	2.119	2.479	2.613	2.835	2.724	3.207	3.677	3.676	4.569	4.679	4.799	5.145	5.664	5.499	5.812	5.411	5.673	6.366	7.000	5.732	4.073	2.976
330.0	1135	1617	1683	1259	820.4	632.9	612.6	687.8	804.4	965.7	1144	1249	1244	1133	1060	927.8	610.7	354.9	267.1	511.8	1976	4711	5050	1257	21.25	5.733	4.196	3.309	2.666	2.481	2.005	1.776	1.789	1.408	1.502	1.316	1.498	1.336	1.336	1.269	1.440	1.540	1.664	1.917	2.566	3.126	3.534	4.487	4.540	4.467	3.869	3.877	3.496	2.877	2.618	2.603	2.764	2.851	3.115	3.209	3.450	3.687	4.091	4.667	5.069	5.315	5.676	5.843	5.980	6.464	6.028	5.968	5.643	6.032	5.709	5.807	5.266
335.0	1335	1900	2074	1645	1143	806.2	715.6	753.5	870.7	1034	1202	1334	1333	1226	1076	927.3	881.3	541.8	326.2	313.3	580.5	1187	3458	7166	434.5	22.91	6.020	4.337	3.160	2.896	2.288	2.122	1.863	1.464	1.485	1.477	1.649	1.237	1.519	1.479	1.401	1.517	1.846	2.250	2.715	3.326	4.110	5.338	5.527	5.459	4.916	5.135	4.459	3.974	3.436	2.897	3.222	3.264	3.497	3.719	3.840	4.095	4.333	4.938	5.430	5.373	5.668	6.119	6.099	6.439	6.414	6.419	6.483	6.181	5.750	6.019	5.778
340.0	1411	2047	2238	1855	1281	928.0	781.9	795.8	913.1	1071	1240	1354	1359	1280	1111	922.3	873.5	739.4	418.6	314.3	305.1	395.2	979.4	5020	6227	368.2	13.72	5.401	4.118	3.272	2.758	2.395	1.945	1.629	1.626	1.581	1.656	1.433	1.453	1.520	1.450	1.573	1.880	2.349	3.059	3.652	4.450	5.777	6.188	5.922	5.563	5.745	5.246	4.449	3.713	3.430	3.464	3.459	3.595	3.710	3.967	4.380	4.779	5.031	5.399	5.695	6.083	6.227	6.764	6.543	6.650	6.591	6.705	6.250	5.849	5.698	5.521
345.0	1430	2007	2335	1969	1382	973.6	816.1	831.5	944.2	1083	1237	1332	1358	1289	1135	939.2	813.1	792.5	570.8	352.9	276.0	250.3	346.7	1472	5832	3386	54.30	8.214	4.893	3.818	2.947	2.374	2.043	1.770	1.659	1.505	1.467	1.522	1.557	1.474	1.475	1.677	1.933	2.363	2.996	3.732	4.543	5.982	6.253	6.255	5.688	6.165	5.361	4.710	4.096	3.554	3.660	3.555	3.628	3.655	4.306	4.613	4.758	5.249	5.132	5.535	5.995	6.219	6.590	6.497	6.934	6.842	6.808	6.439	5.908	5.808	5.209
350.0	1347	1928	2256	1997	1466	1056	880.6	876.2	962.1	1088	1220	1312	1340	1278	1143	967.8	822.4	732.7	684.3	522.0	344.7	273.6	249.2	450.1	1691	3977	4294	1142	19.21	5.024	3.608	2.894	2.111	1.949	1.676	1.449	1.416	1.471	1.552	1.516	1.433	1.795	2.016	2.352	2.920	3.563	4.372	5.434	6.247	5.888	5.868	6.199	5.680	5.017	4.401	3.905	3.866	3.758	3.963	3.812	4.331	4.321	4.854	5.153	5.180	5.450	5.967	6.213	6.484	6.279	6.715	6.711	6.337	6.420	6.076	5.882	5.601
355.0	1271	1805	2105	1927	1503	1128	959.3	942.4	998.9	1105	1211	1285	1308	1256	1150	1003	868.1	747.3	661.8	667.2	501.3	344.6	280.2	268.0	491.0	987.3	2890	5998	399.4	21.57	5.111	3.664	2.656	2.141	1.984	1.701	1.676	1.619	1.652	1.448	1.620	1.556	1.940	2.204	2.701	3.262	4.138	5.024	5.632	5.313	5.712	6.534	5.464	5.189	4.326	4.226	4.168	3.995	4.431	4.076	4.460	4.408	4.841	5.025	5.382	5.511	5.864	5.812	6.214	6.285	6.639	6.205	6.326	6.486	5.930	5.652	6.012
360.0	1219	1704	1982	1866	1485	1174	1013	1003	1053	1121	1218	1262	1280	1236	1153	1021	900.2	784.1	682.7	663.7	639.7	438.9	330.5	266.5	259.2	318.9	791.5	4233	5487	346.7	12.04	4.867	3.461	2.495	2.040	1.919	1.759	1.617	1.444	1.262	1.501	1.570	1.951	2.093	2.629	3.281	3.745	4.929	5.487	5.081	5.277	6.323	5.750	5.198	4.527	4.159	4.509	4.213	4.291	4.472	4.555	4.758	5.061	5.195	5.416	5.757	5.588	5.799	5.913	6.051	6.563	6.409	6.223	6.318	6.059	5.811	5.739
365.0	1160	1629	1884	1791	1478	1201	1060	1042	1087	1153	1209	1251	1261	1215	1141	1025	914.9	820.3	727.1	668.0	669.9	573.1	402.5	309.7	246.3	201.4	264.0	1244	5244	3151	50.32	7.672	4.385	3.100	2.251	2.044	1.739	1.607	1.496	1.330	1.603	1.559	1.888	2.084	2.614	3.358	3.676	4.444	4.825	5.004	5.229	5.771	5.602	5.358	4.842	4.480	4.415	4.470	4.238	4.618	4.735	5.175	5.269	5.386	5.309	5.547	5.719	5.755	5.891	6.014	6.087	6.513	6.187	6.839	5.963	6.005	6.135
370.0	1108	1534	1776	1709	1476	1243	1101	1098	1133	1178	1226	1231	1245	1199	1128	1040	951.0	868.6	787.4	718.5	670.8	660.3	563.5	404.9	308.3	234.4	193.3	371.5	1526	3767	4060	1031	17.58	4.566	3.233	2.323	1.944	1.821	1.604	1.510	1.586	1.529	1.799	1.943	2.599	3.199	3.341	4.395	4.775	4.732	4.849	5.578	5.472	4.935	4.849	4.747	4.721	4.834	4.725	4.921	5.034	5.070	5.347	5.363	5.615	5.410	5.535	5.731	5.956	5.900	5.872	6.139	6.255	6.591	5.989	6.087	6.202
375.0	1021	1444	1635	1624	1447	1280	1174	1129	1165	1196	1235	1232	1223	1183	1123	1034	976.1	905.9	845.9	779.1	718.9	675.9	667.3	563.4	400.9	309.5	240.3	227.6	443.7	944.1	2840	5432	344.9	19.58	5.073	3.367	2.559	2.076	1.870	1.540	1.513	1.752	1.933	1.980	2.579	3.270	3.202	4.087	4.470	4.417	4.751	5.505	5.221	5.281	4.718	4.891	4.873	4.794	4.848	4.901	4.967	5.400	5.447	5.489	5.689	5.416	5.340	5.425	5.739	6.033	6.136	5.723	5.802	6.363	6.120	5.985	6.389
380.0	1025	1359	1591	1591	1437	1286	1194	1163	1196	1226	1229	1232	1210	1178	1117	1034	988.1	920.0	873.3	819.4	760.6	708.6	681.3	661.5	498.6	378.2	299.4	238.0	238.7	310.7	800.8	3983	4613	287.6	11.08	4.904	3.348	2.567	1.897	1.710	1.709	1.915	1.835	2.050	2.362	3.047	3.234	4.002	4.318	4.375	4.689	5.346	5.211	5.215	5.043	4.968	4.981	4.964	5.008	4.929	5.110	5.360	5.408	5.662	6.001	5.717	5.264	5.506	5.471	5.906	6.063	5.761	5.985	6.138	5.882	6.248	6.396
385.0	985.6	1326	1551	1572	1446	1307	1216	1206	1215	1251	1254	1236	1216	1180	1117	1034	986.1	935.3	896.0	852.8	797.0	752.3	702.3	692.6	624.5	464.5	367.3	295.9	238.8	211.5	278.6	1196	4456	2635	41.35	9.193	5.436	3.320	2.220	1.851	1.839	1.962	2.051	2.180	2.355	3.013	2.974	3.950	4.027	4.191	4.251	5.282	5.062	5.128	5.112	4.896	4.858	5.317	5.028	5.436	5.281	5.507	5.612	5.607	5.539	5.719	5.373	5.703	5.520	5.772	5.955	5.727	6.230	6.033	5.819	6.296	6.264
390.0	982.8	1307	1491	1535	1446	1347	1277	1267	1286	1328	1334	1344	1310	1266	1180	1077	1013	960.1	928.0	894.9	860.5	828.7	785.4	754.0	732.9	647.6	512.7	411.7	347.7	286.0	241.1	393.7	1342	3097	3110	786.2	19.96	7.842	3.612	2.300	2.039	2.121	2.132	2.055	2.423	2.975	3.016	3.915	4.088	4.019	4.270	5.304	5.175	5.427	5.377	5.082	5.164	5.389	5.346	5.502	5.499	5.573	5.836	5.611	5.802	5.949	5.702	6.033	5.686	6.224	6.123	6.250	6.391	6.256	6.172	6.390	6.310
395.0	971.7	1257	1475	1512	1471	1429	1364	1404	1433	1547	1610	1627	1556	1513	1376	1215	1088	1021	975.6	967.4	958.5	954.1	939.0	915.2	888.2	867.1	790.3	646.1	558.5	442.8	386.5	344.2	481.3	851.4	2335	4086	287.1	25.92	8.553	4.039	2.444	2.375	2.356	2.298	2.574	2.779	3.059	3.986	4.305	4.208	4.435	5.619	5.415	5.635	5.616	5.283	5.626	6.102	5.997	5.878	6.022	6.164	6.433	6.307	6.771	6.556	6.276	6.666	6.682	6.869	6.511	6.567	6.951	6.846	6.516	6.709	6.925
400.0	950.0	1256	1483	1532	1538	1507	1487	1561	1662	1839	1977	2060	1979	1876	1642	1404	1196	1090	1051	1053	1072	1099	1116	1125	1105	1084	1063	937.8	813.2	701.9	598.2	434.7	403.7	415.8	789.4	3179	3428	240.9	18.26	6.204	3.466	2.665	2.491	2.572	2.680	2.997	3.431	4.118	4.492	4.266	4.699	5.613	5.763	6.024	5.914	6.089	6.304	6.662	6.482	6.449	6.699	6.865	7.015	7.146	7.489	7.335	7.569	7.746	7.722	7.716	7.250	7.324	7.383	7.520	7.293	7.424	7.144
405.0	970.6	1279	1478	1564	1610	1612	1625	1730	1942	2222	2476	2566	2489	2308	1999	1649	1336	1182	1141	1148	1200	1255	1318	1354	1359	1344	1331	1267	1110	985.0	855.0	681.9	535.6	413.6	444.3	1113	3479	2201	176.1	9.996	4.630	3.259	2.701	2.615	3.080	3.273	3.581	4.258	4.616	4.535	4.620	6.045	6.167	6.611	6.348	6.784	6.643	6.819	6.950	6.922	7.251	7.581	7.924	8.427	8.381	8.447	8.344	8.719	8.888	9.233	8.591	8.819	8.812	8.255	8.183	7.729	7.450
410.0	998.1	1299	1485	1610	1644	1700	1762	1917	2193	2572	2929	3057	2955	2714	2324	1869	1469	1255	1205	1234	1306	1394	1494	1570	1602	1596	1570	1534	1431	1266	1107	910.0	708.0	546.9	458.7	526.8	1172	2461	2483	635.2	13.59	4.246	3.437	3.035	3.402	3.605	3.785	4.302	4.902	4.665	4.912	6.356	6.352	6.726	6.890	6.894	7.353	7.356	7.823	7.646	7.987	8.273	8.569	9.308	9.551	9.336	9.508	10.06	10.19	9.826	9.869	9.669	9.353	9.046	8.745	8.406	8.177
415.0	1007	1209	1456	1589	1659	1719	1788	1944	2212	2635	2989	3123	3023	2769	2353	1877	1464	1240	1185	1230	1300	1405	1519	1603	1647	1643	1620	1563	1498	1383	1191	980.4	764.8	594.0	474.0	406.7	454.9	676.0	1776	2995	255.7	12.87	4.370	3.291	3.673	3.682	3.874	4.235	4.794	4.872	4.958	6.113	6.383	6.589	6.818	7.048	7.394	7.591	7.800	7.808	8.307	8.692	8.523	8.891	9.648	9.391	9.923	10.00	9.636	9.841	9.768	10.07	9.474	9.198	8.701	8.344	7.544
420.0	954.3	1202	1410	1546	1608	1692	1789	1925	2161	2550	2883	3009	2894	2647	2266	1795	1409	1194	1146	1178	1253	1348	1463	1551	1600	1607	1576	1525	1447	1372	1201	970.6	754.8	588.1	468.5	368.6	287.4	250.0	511.2	2254	2136	210.4	7.141	4.020	3.749	3.633	3.770	4.488	4.602	4.612	4.661	6.058	6.206	6.143	6.927	6.745	7.158	8.076	7.518	7.637	7.827	8.252	8.485	8.920	9.060	9.110	9.336	9.555	9.525	9.407	9.698	9.348	9.018	8.783	8.169	7.907	7.522
