Sample:	'1
File name:	Default_20230428_140247.FD3
Run date:	'13:56:26, 04/28/2023
Operator:	user
Comment:	'

Instrument
Model:	F-2700 FL Spectrophotometer
Serial number:	2190-003
ROM Version:	4J14000 07

Instrument parameters
Measurement type:	3-D scan
Data mode:	Fluorescence
EX  Start WL:	220.0 nm
EX  End WL:	600.0 nm
EX Sampling interval:	5.0 nm
EM  Start WL:	230.0 nm
EM  End WL:	650.0 nm
EM Sampling interval:	5.0 nm
Scan speed:	12000 nm/min
EX Slit:	5.0 nm
EM Slit:	5.0 nm
PMT Voltage:	700 V
Response:	Auto 
Corrected spectra:	Off
Contour interval:	50.000

Peak integration
Integration method:	Rectangular
Sensitivity:	1
Threshold:	1.000

Peaks
No.	ApexEX/EM(nm)	Height(Data)
1	225.0/580.0	50.56
2	225.0/590.0	48.69
3	230.0/340.0	253.5
4	230.0/540.0	58.68
5	230.0/555.0	44.01
6	230.0/625.0	40.52
7	235.0/370.0	211.5
8	235.0/505.0	119.1
9	235.0/570.0	42.93
10	235.0/595.0	37.13
11	235.0/620.0	46.39
12	240.0/355.0	206.3
13	240.0/520.0	124.9
14	240.0/585.0	37.72
15	245.0/530.0	122.5
16	245.0/640.0	28.93
17	250.0/540.0	123.8
18	255.0/555.0	104.4
19	255.0/640.0	21.98
20	260.0/285.0	464.0
21	260.0/565.0	102.6
22	265.0/290.0	478.7
23	265.0/435.0	331.5
24	265.0/450.0	327.6
25	265.0/580.0	92.20
26	270.0/295.0	670.0
27	270.0/400.0	347.3
28	270.0/415.0	342.0
29	270.0/425.0	335.7
30	270.0/445.0	333.4
31	270.0/590.0	88.63
32	275.0/305.0	817.6
33	275.0/600.0	83.81
34	280.0/310.0	835.5
35	280.0/330.0	532.6
36	280.0/340.0	532.3
37	280.0/395.0	362.0
38	280.0/615.0	71.71
39	285.0/315.0	848.6
40	285.0/625.0	64.60
41	290.0/320.0	807.3
42	290.0/640.0	52.67
43	300.0/335.0	453.6
44	305.0/340.0	462.3
45	310.0/345.0	416.0
46	315.0/350.0	331.4
47	320.0/360.0	338.2
48	325.0/365.0	340.7
49	325.0/415.0	266.7
50	330.0/370.0	299.8
51	335.0/380.0	302.0
52	340.0/385.0	309.8
53	345.0/390.0	267.3
54	350.0/395.0	268.2
55	355.0/405.0	263.7
56	360.0/410.0	236.9
57	365.0/415.0	226.6
58	370.0/425.0	212.9
59	370.0/640.0	4.458
60	375.0/430.0	182.4
61	380.0/435.0	165.0
62	385.0/445.0	150.9
63	390.0/450.0	129.1
64	400.0/465.0	100.0
65	405.0/470.0	80.29
66	410.0/475.0	69.97
67	415.0/485.0	59.69
68	420.0/490.0	50.19
69	425.0/495.0	44.36
70	430.0/505.0	36.38
71	435.0/510.0	30.70
72	440.0/515.0	26.64
73	445.0/525.0	23.37
74	450.0/530.0	19.76
75	455.0/540.0	16.39
76	460.0/545.0	13.75
77	465.0/550.0	11.24
78	505.0/275.0	2.807
79	510.0/280.0	2.884
80	515.0/285.0	2.562
81	530.0/290.0	2.986
82	540.0/295.0	3.886
83	545.0/300.0	4.338
84	550.0/305.0	4.119
85	560.0/310.0	4.005
86	570.0/315.0	3.742
87	580.0/325.0	3.912

Data points
	220.0	225.0	230.0	235.0	240.0	245.0	250.0	255.0	260.0	265.0	270.0	275.0	280.0	285.0	290.0	295.0	300.0	305.0	310.0	315.0	320.0	325.0	330.0	335.0	340.0	345.0	350.0	355.0	360.0	365.0	370.0	375.0	380.0	385.0	390.0	395.0	400.0	405.0	410.0	415.0	420.0	425.0	430.0	435.0	440.0	445.0	450.0	455.0	460.0	465.0	470.0	475.0	480.0	485.0	490.0	495.0	500.0	505.0	510.0	515.0	520.0	525.0	530.0	535.0	540.0	545.0	550.0	555.0	560.0	565.0	570.0	575.0	580.0	585.0	590.0	595.0	600.0
230.0	40.67	166.7	 1490	 1258	94.27	18.66	18.53	13.07	13.65	11.57	10.46	10.88	9.206	6.961	6.856	6.462	5.246	4.375	4.387	3.913	3.679	3.262	2.950	2.143	2.911	2.475	2.429	2.566	2.078	2.182	1.802	2.019	2.079	1.879	1.940	1.977	1.683	1.760	1.679	1.543	1.705	1.461	1.524	1.324	1.302	1.164	1.328	3.062	6.050	5.984	3.052	1.133	1.016	1.004	0.919	1.006	1.109	1.103	0.933	1.050	0.962	0.955	0.921	0.850	0.837	0.980	0.932	0.943	0.891	0.999	0.864	0.894	0.867	0.822	0.826	0.894	0.883
235.0	54.40	64.53	554.7	 1845	 1355	142.3	14.40	11.96	14.87	10.59	9.940	9.463	9.729	7.102	5.461	7.410	5.275	4.190	3.718	4.235	2.439	2.779	3.137	2.429	2.269	2.524	2.832	1.881	2.700	2.245	2.078	1.780	2.235	1.977	1.721	2.011	1.650	1.945	1.379	1.547	1.312	1.513	1.537	1.351	1.848	1.071	1.092	1.447	2.751	4.667	7.159	8.241	4.350	1.550	0.990	1.060	0.981	1.037	1.196	1.268	0.962	1.117	1.203	0.921	0.967	0.976	0.905	0.896	0.858	0.778	0.949	0.786	1.068	1.010	1.092	1.149	0.938
240.0	60.71	58.83	160.6	894.8	 2519	 1285	92.85	17.67	15.67	11.16	12.33	10.88	8.255	7.512	7.109	6.768	5.450	4.444	4.139	3.926	3.942	2.641	3.339	2.825	2.683	3.164	2.494	2.160	2.533	2.208	2.196	1.996	1.884	2.319	1.343	1.702	1.814	1.839	1.416	1.093	1.450	1.624	1.551	0.869	1.788	1.235	1.083	1.301	1.560	1.754	4.098	8.979	11.62	8.693	3.222	1.142	0.809	1.061	1.231	1.009	0.968	0.878	1.009	0.994	0.850	1.048	0.900	0.796	0.794	0.789	0.967	0.933	1.276	0.882	0.923	1.098	0.932
245.0	46.22	56.10	86.07	253.7	 1508	 3224	 1114	47.13	15.32	12.78	14.86	10.65	7.991	7.342	6.951	5.471	5.900	4.747	4.956	3.905	3.724	2.857	2.374	2.575	2.621	2.616	2.719	2.544	2.192	1.835	1.914	2.464	1.470	1.671	1.760	1.666	1.707	1.608	1.829	1.402	1.337	1.725	1.626	1.021	1.128	1.079	1.120	1.200	1.385	0.974	1.818	3.516	7.521	13.39	12.97	7.937	2.327	1.077	1.254	0.926	0.876	1.261	1.042	0.982	1.017	0.995	1.005	1.034	0.849	1.162	1.093	0.641	0.931	0.845	1.071	1.120	0.914
250.0	39.46	43.36	98.08	134.5	399.7	 1694	 3609	 2692	367.3	16.63	15.41	11.20	9.873	7.878	6.733	7.530	5.148	5.720	4.586	3.815	3.112	3.347	2.927	2.633	3.139	2.492	2.732	2.155	2.123	2.033	1.952	2.458	1.763	1.695	1.764	1.844	1.431	1.880	1.588	1.489	1.406	1.706	1.624	1.459	1.275	1.323	1.279	1.179	1.159	1.206	1.270	1.492	2.524	4.958	8.283	12.65	17.28	14.03	7.870	2.407	1.040	1.068	0.941	1.026	0.852	1.021	0.967	1.111	0.908	1.038	0.956	0.796	0.998	0.879	0.986	0.945	0.946
255.0	38.04	38.40	60.19	140.7	180.7	407.4	 1344	 5421	 4887	448.2	20.06	11.20	11.02	8.333	7.968	7.088	7.038	4.710	4.400	4.302	4.384	3.906	2.830	2.843	3.091	2.109	2.632	2.229	2.672	1.982	2.584	2.284	1.798	1.631	1.897	1.501	1.332	1.374	1.560	1.366	1.854	1.783	1.702	1.237	1.218	1.768	1.240	1.348	1.178	1.097	1.370	1.701	1.503	2.063	2.808	3.843	7.313	14.49	26.88	23.84	10.65	2.000	0.745	0.852	1.121	0.910	0.664	1.053	1.169	1.080	0.959	0.929	1.054	0.838	1.040	0.750	1.035
260.0	42.28	40.55	40.44	81.57	193.1	169.7	331.9	 2430	 7582	 4549	250.8	16.44	13.76	12.76	7.937	8.811	6.649	6.428	5.369	4.728	3.599	3.744	2.868	2.873	3.195	2.818	2.963	3.348	2.594	1.981	2.386	2.232	1.935	1.959	1.655	1.693	1.191	1.358	1.623	1.724	1.627	1.794	1.350	1.378	1.372	1.526	1.228	1.383	1.042	1.165	1.026	1.534	1.816	1.730	1.543	1.775	2.399	4.733	12.80	26.13	34.02	21.91	6.608	1.271	0.993	0.994	0.748	0.977	0.998	1.026	0.943	1.170	0.912	0.715	1.294	1.109	0.868
265.0	44.48	35.89	41.46	47.91	138.0	215.0	129.2	617.6	 3816	 9215	 1106	115.6	16.29	11.56	7.580	7.008	7.798	5.737	5.399	4.516	4.070	3.118	3.560	3.351	2.681	2.713	2.489	2.838	2.458	2.777	2.233	2.133	1.907	2.014	1.712	1.934	1.688	1.449	1.882	1.713	1.712	1.396	1.212	1.510	1.904	1.459	1.553	1.518	1.214	1.091	0.923	1.125	1.448	2.023	1.721	1.674	1.427	1.975	3.892	8.821	20.37	37.41	36.90	16.28	3.213	1.146	0.824	0.873	0.925	0.853	1.109	0.899	1.040	0.971	1.234	0.954	0.962
270.0	45.06	32.22	38.50	39.03	58.40	168.9	237.4	209.9	941.0	 4083	 7404	 4155	369.2	16.78	12.42	8.992	8.532	7.197	5.458	4.918	4.248	3.945	3.114	3.128	2.806	2.565	3.217	2.652	2.728	2.920	2.398	2.309	2.181	2.105	1.593	1.479	1.281	1.708	1.700	1.523	1.425	1.313	1.719	1.581	1.547	1.673	1.425	1.255	1.131	1.117	0.993	1.121	1.261	1.569	1.853	2.309	2.071	1.589	1.718	2.718	5.542	12.09	21.82	31.56	34.63	28.46	11.83	2.291	0.937	1.050	0.994	1.029	0.857	0.825	0.871	0.946	1.001
275.0	36.03	49.85	35.79	39.04	32.98	64.40	199.4	339.8	284.5	948.0	 2445	 9706	 6477	466.2	18.15	12.56	8.871	6.907	6.505	5.382	4.482	4.041	4.147	3.466	3.368	2.800	2.860	2.638	2.624	3.050	2.678	2.119	2.147	1.935	1.884	1.854	1.381	1.574	1.486	1.493	1.332	1.310	1.756	1.363	1.498	1.685	0.960	1.328	1.191	0.957	0.968	1.162	0.982	1.532	1.428	1.454	2.252	2.807	2.100	1.501	2.244	3.577	5.528	8.161	13.13	33.25	53.38	41.39	13.14	1.607	0.924	0.970	1.171	0.654	0.777	1.023	0.892
280.0	44.05	49.93	40.32	39.59	31.29	36.55	86.94	338.2	341.3	266.3	606.7	 3693	9999.9	 5343	292.9	18.25	10.17	8.461	6.253	6.198	5.086	4.063	4.310	3.968	3.393	3.122	3.176	2.302	2.672	2.528	2.148	1.933	2.498	1.720	2.014	1.619	1.667	1.385	1.632	1.381	1.593	1.504	1.318	1.702	1.490	1.317	1.153	1.615	1.277	0.950	1.051	1.077	0.949	1.138	1.069	1.364	1.544	2.044	2.884	2.211	1.409	1.697	2.327	2.523	3.849	9.312	24.11	50.49	58.03	30.75	5.361	1.210	0.863	1.004	1.051	1.272	0.771
285.0	60.57	50.35	66.75	39.35	41.02	35.05	53.08	171.8	464.0	251.5	201.2	933.7	 5120	9999.9	 4000	125.6	12.50	10.78	8.327	6.545	5.587	5.313	3.990	4.987	3.491	3.556	2.898	2.411	3.430	2.612	2.533	2.161	2.892	1.809	1.875	1.682	1.605	1.613	1.858	1.420	1.765	1.413	1.503	1.426	1.329	1.412	1.642	1.598	1.636	1.005	1.111	1.070	1.300	1.120	0.955	1.516	1.346	1.745	1.883	2.562	2.554	1.989	1.521	1.489	1.834	2.879	6.695	16.45	38.53	58.31	48.69	17.60	2.147	1.171	0.890	0.978	0.801
290.0	69.86	77.60	75.57	59.95	43.33	41.24	49.23	90.48	245.2	478.7	338.6	341.5	 1336	 4954	9999.9	 7827	235.1	16.97	11.38	7.422	6.216	5.812	4.746	4.209	4.192	3.463	3.515	3.127	2.900	2.747	2.937	2.760	2.032	1.916	1.979	1.971	1.801	1.743	1.619	1.497	1.706	1.234	1.544	1.476	1.548	1.436	1.607	1.684	1.523	1.059	1.107	1.241	1.197	1.256	1.162	1.259	1.388	1.322	1.165	1.610	2.478	2.876	2.986	2.138	1.993	1.934	2.801	4.767	10.20	19.81	33.10	42.39	43.27	30.65	11.89	2.526	0.944
295.0	73.25	111.0	117.1	82.21	60.29	53.35	63.69	77.50	124.0	298.7	670.0	450.5	502.6	 1261	 3074	9999.9	9999.9	314.6	15.66	10.68	7.071	6.824	5.613	4.238	4.275	3.571	2.959	3.569	2.738	2.307	2.969	2.493	1.854	2.005	2.005	2.038	1.903	1.814	1.809	1.284	1.831	1.646	1.493	1.422	1.373	1.439	1.346	1.507	1.403	1.264	1.331	1.325	1.218	1.352	1.283	1.279	1.266	1.493	1.459	1.486	1.528	1.784	2.336	3.316	3.886	2.443	1.845	2.604	3.454	5.674	8.696	11.06	18.25	40.25	61.30	44.89	13.11
300.0	77.07	119.0	133.9	95.50	72.01	64.11	74.97	83.96	116.6	208.1	548.9	776.6	429.2	485.9	833.2	 3907	9999.9	 3277	207.2	14.07	10.27	7.233	5.613	5.196	4.252	4.159	3.827	3.195	2.789	2.903	2.484	2.878	2.207	2.264	2.193	2.092	1.901	1.837	1.962	1.385	1.762	1.587	1.748	1.452	1.277	1.453	1.372	1.388	1.434	1.369	1.145	1.289	1.177	1.274	1.298	1.341	1.421	1.557	1.386	1.378	1.640	1.655	1.940	2.651	3.509	4.338	2.590	2.176	2.326	2.703	3.381	3.401	5.278	11.94	31.61	64.83	63.94
305.0	106.9	126.9	155.2	113.0	81.93	83.11	83.86	106.2	134.4	211.1	368.0	817.6	724.6	373.0	347.6	990.0	 5408	9999.9	 2729	107.3	12.47	8.462	7.123	5.710	5.158	4.033	3.777	3.866	3.242	3.123	3.038	2.567	2.333	2.242	2.670	1.880	1.801	2.230	2.078	1.799	1.844	1.460	1.326	1.307	1.611	1.534	1.453	1.795	1.477	1.751	1.489	1.449	1.310	1.335	1.303	1.299	1.437	1.536	1.271	1.451	1.511	1.462	1.858	2.308	2.576	4.071	4.119	3.254	2.738	1.822	2.194	2.116	2.327	3.620	8.122	23.20	45.64
310.0	94.32	132.8	163.6	145.0	90.81	84.40	95.91	119.7	155.0	222.6	335.9	547.9	835.5	654.0	316.1	339.1	 1331	 5101	9999.9	 6930	173.2	14.24	9.096	6.926	5.054	4.846	4.101	3.772	3.916	3.472	3.345	2.880	2.675	2.786	2.387	2.067	2.262	2.022	1.609	1.942	1.483	1.544	1.598	1.574	1.610	1.860	1.558	1.702	1.479	1.455	1.433	1.674	1.595	1.491	1.560	1.571	1.682	1.597	1.357	1.759	1.749	1.795	1.959	2.144	2.123	2.858	3.040	3.753	4.005	3.087	2.120	2.051	1.881	1.831	2.952	6.146	11.91
315.0	103.2	142.3	187.1	156.4	115.5	89.77	103.8	141.5	180.7	247.3	341.4	462.2	597.1	848.6	589.9	243.1	379.4	 1188	 3032	9999.9	 9658	237.3	13.34	8.685	7.118	5.255	5.085	4.693	3.559	3.605	3.581	3.313	2.907	2.807	2.146	1.871	2.005	1.945	1.877	1.499	2.078	1.867	1.580	1.745	1.756	1.554	1.662	1.624	1.131	1.464	1.499	1.663	1.669	1.545	1.525	1.552	1.839	1.885	1.581	1.506	1.987	1.714	1.967	2.240	2.003	2.543	2.471	2.499	2.781	3.724	3.742	3.125	1.964	1.620	1.978	2.491	3.794
320.0	100.3	149.7	193.1	173.4	117.6	94.66	107.6	147.1	196.7	274.2	372.4	448.3	528.6	637.1	807.3	350.0	182.5	320.4	726.6	 3950	9999.9	 7016	159.3	9.582	7.581	5.643	5.015	5.180	4.924	3.596	3.505	3.030	3.545	2.480	1.863	2.338	1.881	1.889	1.991	1.716	1.610	1.675	1.577	1.838	1.642	1.619	1.580	1.648	1.374	1.605	1.188	1.700	1.667	1.235	1.703	1.436	1.695	1.654	1.549	1.707	2.159	1.600	2.352	1.881	2.404	2.280	2.487	2.307	2.732	2.921	3.078	3.421	3.455	1.973	1.874	1.868	1.940
325.0	104.9	138.4	213.3	196.1	131.6	103.0	118.1	158.0	210.4	286.5	387.8	458.3	514.7	529.9	681.5	576.5	204.8	139.4	211.4	946.1	 5361	9999.9	 2043	89.03	9.434	7.552	5.385	5.215	5.349	3.447	3.240	3.129	3.195	3.033	2.371	2.533	2.427	1.803	2.034	1.957	1.771	1.649	1.662	1.811	1.485	1.584	1.811	1.499	1.391	1.480	1.313	1.590	1.613	1.087	1.645	1.571	1.663	1.495	1.908	1.909	1.811	1.781	2.283	2.276	2.083	2.095	2.460	2.689	2.566	2.608	2.783	3.022	3.912	3.025	2.669	1.446	1.524
330.0	127.8	170.0	228.1	197.2	157.2	123.3	135.6	168.0	223.4	307.5	398.0	473.8	532.6	507.4	504.9	543.4	444.0	170.9	105.5	255.3	 1291	 4956	 9954	 6051	136.0	12.34	7.689	6.522	5.688	4.162	3.640	3.220	3.304	2.828	2.555	2.524	2.440	2.011	2.005	2.017	1.708	1.924	1.820	1.625	1.627	1.898	1.563	1.577	1.497	1.675	1.379	1.665	1.649	1.282	1.576	1.576	1.492	1.713	1.804	1.932	1.779	1.945	2.248	2.310	2.224	2.795	2.537	2.881	2.427	2.769	2.547	2.551	2.690	2.713	3.026	3.044	2.153
335.0	117.6	163.7	242.8	229.0	143.8	126.0	143.9	195.1	234.9	303.2	408.2	474.9	527.4	523.9	442.8	372.8	453.6	395.2	130.4	112.4	329.9	 1140	 3084	9999.9	 8663	191.5	11.44	7.896	7.474	4.309	3.057	3.857	3.824	2.694	2.614	2.222	2.454	2.103	1.824	1.905	1.620	1.688	1.836	2.045	1.624	1.837	1.713	1.708	1.587	1.573	1.486	1.787	1.730	1.351	1.428	1.899	1.669	1.851	2.122	2.227	1.888	2.303	1.880	2.205	2.412	2.446	2.672	2.938	2.420	2.588	2.390	2.467	2.204	2.166	2.094	2.467	2.868
340.0	129.5	180.7	253.5	222.0	154.8	157.2	154.1	206.8	234.4	302.0	392.3	470.8	532.3	515.9	433.2	323.1	304.5	462.3	269.8	96.27	125.0	293.4	726.9	 4093	9999.9	 6432	138.8	9.376	7.292	5.657	4.400	4.595	3.976	2.924	3.150	2.323	2.268	1.957	1.565	1.727	1.735	1.683	1.987	1.743	1.688	1.917	1.827	2.208	1.948	1.582	1.679	2.079	1.578	1.527	1.361	1.578	1.666	1.854	2.066	2.132	1.923	2.447	2.529	2.172	2.820	2.595	2.280	2.543	2.218	2.834	2.401	2.662	2.563	2.193	2.099	1.937	2.587
345.0	123.8	185.8	231.1	226.7	173.2	156.5	172.5	211.1	253.9	324.0	390.6	460.7	521.8	503.3	437.0	328.5	251.0	332.2	416.0	169.7	87.09	112.7	201.0	983.5	 5566	9999.9	 1671	80.63	8.339	6.626	5.247	4.231	4.440	3.030	3.111	2.616	2.409	2.378	2.037	1.834	2.241	2.020	1.499	1.540	1.756	1.987	1.671	2.070	1.794	1.801	1.467	1.771	1.610	1.476	1.532	1.778	1.798	1.794	2.111	2.052	2.223	2.450	2.341	2.076	2.404	2.208	2.747	2.485	2.564	2.807	2.228	2.401	2.435	2.268	1.907	1.637	1.902
350.0	131.5	159.9	239.6	229.5	189.5	178.2	184.6	207.5	254.2	315.4	376.9	436.9	486.6	478.9	417.8	326.6	249.5	230.3	320.3	331.4	164.4	93.85	99.23	260.3	 1356	 5283	 9610	 5511	118.9	11.35	7.480	5.143	4.805	3.759	3.188	2.970	2.929	2.597	2.225	2.290	2.060	2.146	1.587	1.716	1.808	1.664	1.445	1.883	1.672	1.787	1.603	1.874	1.576	1.662	1.780	1.752	1.609	1.746	2.161	2.068	2.007	2.359	2.307	2.377	2.359	2.420	2.554	2.714	2.477	2.503	2.317	2.342	2.427	1.911	2.129	1.800	1.666
355.0	135.7	166.2	215.7	197.4	206.3	189.9	205.0	206.3	260.4	319.6	374.5	410.3	464.3	450.7	410.8	328.0	258.9	218.2	213.3	290.7	332.3	141.2	91.31	111.3	345.1	 1211	 3222	9999.9	 7882	159.1	9.974	7.283	4.850	4.255	3.158	2.991	2.709	2.608	2.476	1.833	2.180	2.164	1.923	1.836	2.283	1.818	1.833	1.687	1.803	1.777	1.778	1.697	1.640	1.582	1.791	2.020	1.842	1.691	1.850	1.949	2.223	2.625	2.127	2.219	2.437	2.482	2.275	2.557	2.453	2.516	2.509	2.132	2.220	1.831	1.919	1.886	1.836
360.0	118.7	172.2	198.5	192.2	200.3	196.8	207.6	227.1	258.0	331.2	369.0	396.5	442.7	424.0	399.9	332.3	258.1	229.0	207.8	216.5	338.2	260.7	109.7	92.24	130.1	307.7	765.1	 4384	9999.9	 5471	110.9	8.968	6.706	4.504	3.903	3.439	2.648	2.550	2.423	2.289	2.424	2.143	1.948	1.848	1.906	1.617	1.643	1.756	1.747	1.671	1.772	2.371	1.782	2.014	1.725	1.782	2.173	1.763	2.051	2.060	2.284	2.663	2.300	2.143	2.248	2.477	2.300	2.336	2.486	2.577	2.085	2.118	2.333	2.205	1.957	2.003	1.845
365.0	102.5	145.1	201.6	210.8	188.9	208.2	222.6	238.0	260.5	319.5	356.5	383.2	423.4	411.2	395.1	327.4	274.5	234.2	216.6	201.0	262.6	340.7	187.5	101.1	92.00	117.6	210.6	 1065	 5959	9999.9	 1477	57.45	8.390	6.082	4.191	3.561	2.736	2.521	2.779	2.202	2.119	2.296	2.020	1.892	1.889	1.975	1.718	1.815	1.657	1.576	1.544	2.033	1.575	1.925	1.900	1.633	2.215	2.308	2.209	2.054	2.365	2.387	2.162	2.701	2.489	2.744	2.045	2.237	2.577	2.363	2.005	2.199	1.752	2.301	2.603	1.695	2.062
370.0	107.8	134.7	196.9	211.5	206.0	211.6	233.5	252.8	274.9	302.8	350.5	371.9	399.1	394.7	384.0	326.7	288.6	261.7	237.0	219.2	220.3	273.5	299.8	183.7	106.8	92.95	97.70	277.4	 1459	 5477	 9658	 4941	91.92	8.763	5.911	4.008	3.119	3.304	2.801	2.501	2.191	2.716	1.873	2.030	1.789	1.924	1.818	1.950	1.738	1.491	1.661	1.707	1.828	2.128	1.924	1.926	2.259	1.947	1.972	2.126	2.015	2.190	2.253	2.628	2.546	2.375	2.272	2.292	2.302	2.158	2.285	2.048	1.800	2.162	2.113	1.918	1.816
375.0	90.25	140.5	189.0	206.9	227.8	221.7	237.4	253.2	278.8	307.2	333.2	361.9	392.7	392.1	386.7	331.8	303.8	278.7	253.4	240.9	222.0	221.8	269.4	296.1	167.3	103.6	89.34	111.0	364.6	 1256	 3483	9999.9	 6611	121.5	7.190	5.746	4.498	3.226	3.200	2.632	2.491	2.381	2.140	2.159	1.957	1.680	2.063	1.993	1.833	1.387	1.913	1.633	1.958	1.824	1.756	1.914	1.781	1.876	2.256	1.892	1.863	2.214	2.343	2.671	2.250	2.342	1.944	2.216	2.178	2.173	2.394	1.782	2.119	2.494	1.850	2.275	1.878
380.0	86.93	147.9	178.3	206.6	218.9	239.6	240.8	271.4	293.7	310.3	339.9	352.7	384.1	385.7	363.7	324.8	294.0	289.1	266.6	252.7	236.9	219.7	223.1	302.0	257.5	137.1	99.24	83.00	126.9	315.4	825.3	 4833	9999.9	 4366	76.01	7.001	5.113	4.084	3.150	2.834	2.117	2.199	2.284	2.396	2.341	1.749	2.031	2.044	2.018	1.621	1.839	2.212	1.535	1.989	2.058	1.899	2.004	2.339	2.647	2.116	1.982	2.201	2.151	2.475	2.637	2.234	2.139	2.342	2.340	2.139	2.233	2.016	2.317	2.108	2.218	2.023	2.189
385.0	109.1	124.5	196.5	211.5	216.9	250.6	263.4	271.9	308.2	321.8	330.8	354.7	370.7	384.2	366.9	329.4	298.3	293.7	283.2	262.5	246.3	231.6	212.1	242.8	309.8	203.1	114.7	91.46	80.45	111.8	216.4	 1195	 6604	9999.9	 1121	28.58	5.795	5.310	3.692	2.735	3.090	2.628	2.615	2.257	1.864	1.946	1.709	1.846	1.932	1.811	1.917	1.863	1.750	2.150	2.419	2.124	2.037	2.226	1.950	2.361	1.986	2.063	2.132	2.445	2.646	1.820	2.344	2.254	1.972	2.342	1.999	2.195	1.820	2.555	2.506	1.885	1.862
390.0	96.74	125.0	185.5	207.5	238.8	258.0	266.4	285.8	312.2	324.1	326.5	343.3	355.8	364.1	356.3	335.4	305.1	302.5	288.8	272.7	261.5	244.5	224.7	214.0	250.4	267.3	183.8	110.2	88.65	81.47	90.45	296.4	 1653	 5663	 8216	 3299	66.99	6.480	4.818	3.721	3.650	2.717	2.551	2.189	2.030	1.853	1.846	1.808	1.578	1.802	1.877	1.890	1.911	2.067	1.984	1.955	2.144	1.972	1.905	2.265	2.018	2.045	1.933	2.067	2.319	2.272	2.475	2.280	2.184	2.276	2.262	2.039	1.999	2.114	2.402	2.317	2.062
395.0	96.76	140.0	174.7	206.0	238.3	246.5	271.3	296.0	313.4	326.5	333.0	342.2	362.0	347.6	348.7	325.5	303.7	301.7	299.0	277.9	264.2	263.4	235.7	225.6	212.8	238.4	268.2	164.7	106.2	84.95	73.48	106.6	395.1	 1290	 3426	 9247	 4589	85.91	5.926	5.114	4.373	2.687	2.561	2.560	2.679	2.233	2.003	1.946	1.682	1.724	1.957	1.950	2.000	2.070	2.316	2.400	2.150	2.087	2.109	2.513	2.372	2.416	2.103	2.395	2.258	2.513	2.160	2.066	2.248	2.177	2.167	2.293	2.200	2.144	2.098	1.981	1.828
400.0	94.34	127.7	185.3	209.9	250.2	256.7	267.4	303.4	300.3	326.3	347.3	341.6	350.1	349.2	342.3	326.4	306.5	299.5	296.1	278.9	267.6	269.5	244.3	230.1	213.5	207.3	261.3	236.9	134.7	99.20	79.28	70.07	121.4	312.2	817.5	 4800	 9357	 1066	52.37	6.266	4.350	3.807	3.134	2.679	2.562	2.712	2.092	2.013	1.883	1.781	1.835	2.058	1.996	2.023	2.291	2.392	2.085	2.071	2.479	2.318	2.319	2.576	2.114	2.232	2.457	2.232	2.298	2.295	2.150	2.032	2.190	1.927	2.507	1.949	2.306	2.094	2.046
