Sample:	'1
File name:	G2025090907月六会二南路东雨水井 10倍.FD3
Run date:	'14:51:06, 09/10/2025
Operator:	Administrator
Comment:	'

Instrument
Model:	F-2700 FL Spectrophotometer
Serial number:	24D1-003
ROM Version:	4J14000 07

Instrument parameters
Measurement type:	3-D scan
Data mode:	Fluorescence
EX  Start WL:	220.0 nm
EX  End WL:	600.0 nm
EX Sampling interval:	5.0 nm
EM  Start WL:	230.0 nm
EM  End WL:	650.0 nm
EM Sampling interval:	5.0 nm
Scan speed:	12000 nm/min
EX Slit:	5.0 nm
EM Slit:	5.0 nm
PMT Voltage:	700 V
Response:	Auto 
Corrected spectra:	Off
Contour interval:	50.000

Peak integration
Integration method:	Rectangular
Sensitivity:	1
Threshold:	1.000

Peaks
No.	ApexEX/EM(nm)	Height(Data)
1	225.0/300.0	1536
2	225.0/570.0	148.2
3	225.0/585.0	150.8
4	230.0/505.0	202.8
5	235.0/515.0	171.6
6	240.0/525.0	160.4
7	245.0/540.0	144.3
8	250.0/550.0	141.3
9	255.0/280.0	720.7
10	255.0/565.0	138.2
11	260.0/575.0	140.3
12	265.0/585.0	156.5
13	270.0/300.0	2071
14	270.0/600.0	172.6
15	275.0/305.0	2437
16	275.0/335.0	1954
17	275.0/610.0	167.3
18	280.0/310.0	2221
19	280.0/620.0	135.7
20	285.0/635.0	96.58
21	315.0/355.0	340.5
22	320.0/360.0	361.9
23	325.0/365.0	332.0
24	330.0/370.0	290.5
25	335.0/380.0	311.5
26	340.0/385.0	301.7
27	345.0/390.0	261.5
28	350.0/400.0	259.3
29	355.0/405.0	264.6
30	360.0/410.0	240.6
31	365.0/420.0	230.4
32	370.0/425.0	217.0
33	385.0/445.0	139.5
34	395.0/300.0	4.361
35	400.0/465.0	85.73
36	415.0/485.0	52.39
37	425.0/500.0	39.10
38	430.0/505.0	35.55
39	440.0/520.0	27.33
40	450.0/305.0	4.704
41	455.0/295.0	4.638
42	455.0/540.0	16.85
43	505.0/275.0	3.586
44	515.0/280.0	3.725
45	520.0/285.0	4.791
46	540.0/295.0	8.082
47	545.0/300.0	9.536
48	555.0/305.0	10.33
49	560.0/310.0	9.497
50	570.0/315.0	8.409

Data points
	220.0	225.0	230.0	235.0	240.0	245.0	250.0	255.0	260.0	265.0	270.0	275.0	280.0	285.0	290.0	295.0	300.0	305.0	310.0	315.0	320.0	325.0	330.0	335.0	340.0	345.0	350.0	355.0	360.0	365.0	370.0	375.0	380.0	385.0	390.0	395.0	400.0	405.0	410.0	415.0	420.0	425.0	430.0	435.0	440.0	445.0	450.0	455.0	460.0	465.0	470.0	475.0	480.0	485.0	490.0	495.0	500.0	505.0	510.0	515.0	520.0	525.0	530.0	535.0	540.0	545.0	550.0	555.0	560.0	565.0	570.0	575.0	580.0	585.0	590.0	595.0	600.0
230.0	117.0	3228	6274	1343	38.27	12.50	9.897	7.810	7.575	6.904	5.825	5.624	5.752	4.675	3.769	3.351	3.024	2.492	2.392	2.213	2.026	1.832	1.739	1.624	1.498	1.482	1.331	1.195	1.201	1.151	1.062	1.055	1.089	1.038	0.981	0.779	0.780	0.772	0.715	0.720	0.818	1.194	1.091	0.712	0.637	0.728	3.030	13.02	22.17	15.43	5.164	1.054	0.506	0.467	0.539	0.532	0.496	0.498	0.544	0.508	0.489	0.495	0.484	0.469	0.472	0.465	0.504	0.409	0.484	0.467	0.514	0.426	0.446	0.490	0.465	0.544	0.490
235.0	151.0	852.8	3891	5311	514.9	67.83	10.59	8.958	7.397	6.986	7.123	6.151	5.865	4.631	3.399	3.674	2.899	2.599	2.459	2.243	1.984	1.971	1.765	1.517	1.555	1.577	1.157	1.211	1.296	1.161	1.134	1.072	1.199	1.107	0.916	0.916	0.783	0.810	0.780	0.816	0.725	0.828	0.959	1.000	0.998	0.849	1.170	3.540	7.904	14.01	19.71	20.14	11.36	2.582	0.525	0.477	0.522	0.528	0.554	0.460	0.538	0.478	0.486	0.503	0.440	0.533	0.505	0.473	0.496	0.473	0.509	0.444	0.558	0.484	0.460	0.506	0.505
240.0	232.1	281.1	1125	5237	6756	434.6	33.91	11.38	9.821	8.427	8.562	6.242	5.831	5.275	3.994	3.602	2.859	2.903	2.349	2.474	2.233	1.840	1.807	1.543	1.454	1.303	1.302	1.304	1.447	1.154	1.112	1.128	0.950	0.960	0.882	0.794	0.820	0.850	0.785	0.778	0.775	0.719	0.838	0.899	1.137	1.256	0.967	1.408	2.261	4.149	9.787	24.91	33.63	21.14	8.833	1.348	0.593	0.566	0.490	0.496	0.533	0.533	0.497	0.534	0.482	0.475	0.548	0.444	0.576	0.490	0.584	0.402	0.539	0.512	0.425	0.600	0.486
245.0	178.9	282.0	316.7	1733	7254	7294	349.5	17.95	11.78	11.47	8.535	6.593	6.054	5.657	4.682	3.267	3.063	3.248	2.441	2.657	2.036	1.949	1.751	1.588	1.701	1.687	1.301	1.419	1.407	1.236	1.059	1.288	1.001	0.980	0.865	0.749	0.798	0.718	0.767	0.708	0.828	0.628	0.681	0.817	0.702	1.184	1.300	1.219	1.114	1.341	2.725	7.876	19.41	33.98	29.01	19.31	5.995	0.885	0.602	0.666	0.471	0.490	0.549	0.547	0.581	0.479	0.536	0.450	0.512	0.509	0.587	0.534	0.531	0.539	0.531	0.434	0.471
250.0	78.08	201.8	293.8	481.4	2213	6874	8906	1380	95.58	13.81	10.36	7.907	7.095	5.833	5.297	4.103	3.260	3.224	2.616	2.739	2.361	1.989	1.701	1.760	1.723	1.738	1.301	1.464	1.412	1.264	1.218	1.122	1.216	1.134	0.915	0.853	0.855	0.792	0.736	0.683	0.732	0.770	0.710	0.712	0.671	0.746	0.803	1.112	1.410	1.284	1.326	2.255	4.992	9.895	17.40	29.96	32.96	35.90	14.78	6.182	1.107	0.540	0.621	0.576	0.593	0.540	0.552	0.494	0.542	0.491	0.518	0.537	0.586	0.537	0.536	0.574	0.497
255.0	48.94	74.08	191.5	388.8	584.2	1677	6046	9999.9	2106	118.6	16.80	11.54	9.300	6.885	5.652	4.571	3.673	3.445	2.699	2.619	2.537	2.195	1.793	1.644	1.889	1.871	1.401	1.583	1.498	1.343	1.145	1.127	1.156	1.209	0.829	0.840	0.914	0.880	0.875	0.691	0.703	0.684	0.731	0.748	0.651	0.755	0.585	0.661	0.859	1.138	1.774	1.827	2.036	2.663	4.377	7.354	11.57	29.14	55.37	62.29	22.99	7.389	0.742	0.615	0.510	0.573	0.654	0.548	0.478	0.512	0.548	0.493	0.473	0.520	0.467	0.583	0.577
260.0	39.68	43.02	83.09	316.7	402.6	434.3	1697	9186	9999.9	1696	67.49	14.74	11.50	8.803	6.826	5.080	4.339	3.567	3.269	2.797	2.693	2.314	1.937	1.759	1.905	1.880	1.586	1.541	1.669	1.396	1.221	1.243	1.224	1.198	1.047	0.875	0.872	0.882	0.812	0.778	0.784	0.693	0.794	0.889	0.739	0.577	0.558	0.560	0.560	0.643	1.106	1.980	2.317	1.670	1.573	2.171	3.108	7.801	22.29	53.81	77.35	31.18	17.44	2.986	0.665	0.559	0.717	0.649	0.485	0.429	0.563	0.536	0.500	0.439	0.462	0.566	0.630
265.0	49.31	46.59	44.34	146.4	413.7	313.1	423.4	2827	9999.9	9999.9	1361	31.10	15.07	10.70	8.448	5.542	5.328	3.759	3.608	2.904	2.717	2.289	2.166	1.938	1.951	1.806	1.488	1.653	1.509	1.500	1.383	1.418	1.215	1.017	1.080	0.857	0.965	0.873	0.841	0.710	0.798	0.629	0.727	0.764	0.658	0.663	0.729	0.606	0.624	0.595	0.622	1.164	1.890	2.543	2.100	1.173	1.287	2.332	5.574	15.01	37.18	67.12	90.34	28.54	12.00	1.170	0.697	0.626	0.548	0.504	0.551	0.486	0.546	0.505	0.508	0.521	0.600
270.0	179.3	179.4	130.8	87.57	190.2	411.8	344.5	712.8	3097	9999.9	9999.9	5416	89.50	17.07	10.67	7.511	6.039	4.539	4.222	3.293	3.024	2.640	2.421	2.234	2.125	1.873	1.747	1.673	1.696	1.508	1.397	1.398	1.249	1.222	1.382	1.212	1.168	1.092	1.039	1.028	0.893	0.940	0.935	0.935	1.021	1.006	0.920	0.962	0.948	0.761	0.618	0.742	0.963	1.335	2.039	2.299	2.394	1.758	1.999	4.037	9.166	18.88	39.37	57.20	79.41	64.97	18.21	9.362	1.334	0.585	0.615	0.598	0.541	0.606	0.611	0.603	0.565
275.0	524.1	539.7	374.7	153.5	86.26	192.6	532.1	452.5	815.6	2451	7568	9999.9	8704	112.9	17.15	10.67	8.154	5.827	4.926	3.751	3.774	2.896	2.798	2.540	2.011	1.887	1.720	1.730	1.740	1.516	1.498	1.454	1.519	1.555	1.960	1.886	1.599	1.540	1.238	1.306	1.262	1.337	1.429	1.673	1.596	1.889	1.645	1.783	1.628	1.351	0.909	0.766	0.849	0.776	1.004	1.233	2.320	3.586	3.195	2.152	2.902	5.042	9.675	13.89	22.71	45.64	93.48	118.3	28.36	11.16	0.962	0.739	0.611	0.667	0.582	0.580	0.747
280.0	818.2	830.5	602.6	228.8	79.91	108.4	343.3	720.7	431.8	723.0	2122	9999.9	9999.9	6054	77.50	15.26	9.941	7.361	5.691	4.673	3.764	3.193	2.844	2.464	2.104	2.079	1.869	1.666	1.981	1.741	1.697	1.519	1.686	1.947	2.312	2.359	2.158	1.765	1.636	1.713	1.425	1.760	1.930	2.202	2.338	2.632	2.244	2.393	2.340	1.805	1.136	0.984	0.892	0.702	0.804	0.840	1.350	2.384	3.676	3.725	2.730	2.174	3.190	4.485	6.266	11.85	31.53	80.49	123.5	113.9	22.34	4.255	0.820	0.865	0.519	0.748	0.640
285.0	1059	1122	823.4	299.5	96.33	98.80	200.6	604.7	804.5	406.1	778.1	3077	9999.9	9999.9	1009	49.16	14.16	9.452	6.484	5.501	4.264	3.854	3.035	2.655	2.604	2.390	1.797	1.964	1.905	1.849	1.468	1.585	1.591	2.375	3.207	2.907	2.361	2.092	1.837	2.047	1.867	2.137	2.274	2.259	2.786	3.136	2.982	3.319	3.014	2.307	1.613	1.100	0.952	0.883	0.781	0.994	1.141	1.390	2.240	3.604	4.791	3.653	2.424	2.459	2.864	4.171	8.600	21.27	48.94	108.5	139.4	32.57	14.78	1.468	0.776	0.818	0.621
290.0	1316	1393	1003	392.0	135.3	123.9	198.1	398.8	854.6	1092	923.1	1372	3220	9999.9	9999.9	9775	61.61	15.13	9.665	7.220	5.203	4.376	3.394	3.023	2.651	2.533	2.186	2.146	1.879	1.897	1.697	1.734	1.716	2.804	3.556	3.604	2.926	2.571	2.211	2.096	2.313	2.380	2.652	2.769	3.420	3.793	3.725	3.924	3.594	2.662	1.845	1.292	1.035	0.961	0.892	1.032	1.159	1.375	1.720	2.272	3.540	4.650	5.047	4.832	3.911	3.921	4.964	7.683	13.67	29.17	52.51	74.87	109.3	86.85	60.98	10.57	1.629
295.0	1441	1515	1072	456.9	165.9	156.3	232.4	392.0	694.6	1310	1780	1470	1654	2860	5156	9999.9	5981	74.91	15.89	10.58	6.607	5.186	4.685	3.573	3.256	2.613	2.502	2.124	1.923	1.959	1.788	1.858	1.832	3.276	4.020	4.268	3.439	2.739	2.535	2.236	2.491	2.585	2.840	3.462	3.899	4.282	4.345	4.638	4.003	2.964	1.997	1.554	1.064	1.181	1.135	0.988	1.227	1.525	1.780	2.384	2.969	3.664	4.567	6.641	8.082	6.902	6.243	6.385	7.513	10.39	14.92	19.45	29.58	55.02	122.3	155.2	32.59
300.0	1522	1536	1097	476.4	184.4	183.8	255.2	430.5	713.8	1195	2071	1873	1520	1372	1521	7628	9999.9	4582	55.45	13.72	8.967	6.367	5.119	4.405	3.568	3.058	2.554	2.757	2.286	1.962	1.768	1.897	2.007	3.219	4.085	4.361	3.618	2.999	2.598	2.501	2.575	2.839	2.987	3.639	4.101	4.256	4.689	4.474	4.104	2.983	1.979	1.556	1.321	1.259	1.192	1.094	1.436	1.550	1.917	2.467	2.991	3.784	4.420	5.689	7.753	9.536	9.466	7.607	6.787	6.709	7.355	7.510	8.405	14.26	38.14	99.31	155.1
305.0	1447	1500	1052	470.2	202.0	205.7	282.9	458.9	746.9	1165	1835	2437	1825	1145	692.4	2014	9999.9	9999.9	3439	37.84	12.20	8.317	5.511	4.807	4.368	3.800	2.707	2.492	2.607	2.293	2.176	1.855	2.103	3.057	3.869	4.112	3.506	3.003	2.706	2.436	2.616	2.846	2.989	3.375	3.832	4.168	4.704	4.578	3.850	2.947	2.068	1.678	1.367	1.123	1.369	1.219	1.601	1.796	2.112	2.585	3.120	3.829	4.352	5.365	6.882	8.178	9.975	10.33	8.140	6.654	5.853	4.786	3.751	4.581	9.691	25.05	58.43
310.0	1333	1409	966.2	448.8	231.0	232.2	317.8	504.7	800.5	1204	1700	2175	2221	1409	597.7	616.0	2530	9346	9999.9	8803	45.03	12.61	8.294	5.995	5.141	3.936	3.238	2.754	2.930	2.345	2.273	2.000	2.243	2.886	3.747	3.677	3.320	2.807	2.653	2.605	2.567	2.690	2.997	3.339	3.555	4.041	4.197	4.267	3.606	2.737	1.999	1.713	1.448	1.268	1.385	1.386	1.731	2.030	2.280	2.579	3.305	4.106	4.531	5.588	6.375	7.384	8.315	9.367	9.497	9.094	7.292	4.796	3.244	2.802	3.628	6.707	14.17
315.0	1270	1280	886.1	459.5	254.2	263.6	365.5	573.0	871.2	1258	1666	1936	1957	1814	860.9	368.8	681.4	2171	4467	9999.9	4314	57.50	12.62	7.984	6.186	4.545	3.773	3.017	3.104	2.409	2.346	2.189	2.154	2.808	3.399	3.206	2.983	2.900	2.577	2.454	2.527	2.783	3.008	3.140	3.365	3.586	3.977	3.747	3.402	2.541	1.979	1.693	1.520	1.440	1.474	1.477	1.792	2.115	2.565	3.006	3.536	4.148	4.953	5.453	6.523	7.095	7.489	7.920	7.710	8.337	8.409	7.166	4.588	2.675	2.554	2.836	4.497
320.0	1238	1239	842.4	464.2	285.9	303.8	420.7	625.3	931.9	1303	1699	1891	1831	1688	1195	435.0	301.2	577.1	1109	6695	9999.9	3600	44.49	10.92	7.648	5.700	4.148	3.669	3.151	2.659	2.258	2.361	2.469	2.610	2.983	2.926	2.870	2.915	2.538	2.291	2.586	2.717	2.836	3.216	3.294	3.919	3.729	3.774	3.328	2.403	1.921	1.712	1.576	1.549	1.592	1.713	2.049	2.305	2.673	3.380	3.722	4.117	5.338	5.738	6.470	6.977	7.374	8.144	7.583	7.543	7.143	7.429	6.786	4.012	2.564	2.199	2.324
325.0	1254	1264	869.5	490.9	318.1	346.7	467.1	677.9	990.1	1369	1714	1912	1803	1516	1287	716.8	271.3	245.9	328.9	1687	9519	9999.9	2833	30.13	10.01	6.934	5.250	4.029	3.296	2.883	2.632	2.295	2.479	2.444	2.904	2.806	2.685	2.628	2.427	2.549	2.550	2.643	2.742	3.048	3.351	3.973	3.620	3.802	3.176	2.597	1.960	1.916	1.748	1.575	1.727	1.920	2.219	2.426	3.045	3.311	4.039	4.493	5.347	5.789	6.613	7.211	7.251	8.083	7.664	7.175	6.694	6.426	6.500	6.026	4.415	2.589	2.230
330.0	1332	1299	921.5	562.5	368.9	394.4	532.3	760.3	1080	1456	1791	1949	1847	1516	1126	856.0	525.9	229.0	175.7	450.4	2357	8249	9999.9	7344	37.16	10.41	7.274	5.250	3.925	3.359	2.906	2.451	2.564	2.412	2.757	2.839	2.510	2.505	2.370	2.521	2.632	2.672	3.095	3.226	3.391	4.076	3.896	3.782	3.593	2.698	2.111	2.126	2.054	1.770	1.874	2.063	2.420	2.678	3.189	3.651	4.387	4.941	5.485	6.261	6.951	7.306	7.577	7.908	7.637	7.235	6.685	6.381	5.613	5.145	4.879	4.345	3.816
335.0	1385	1300	945.2	601.2	394.6	426.5	582.1	824.2	1147	1497	1810	1954	1869	1551	1099	694.1	650.1	429.9	172.5	185.8	582.7	1893	4276	9999.9	9999.9	48.70	9.950	7.400	5.017	3.846	3.379	2.771	2.500	2.570	2.674	2.865	2.506	2.286	2.380	2.561	2.611	2.885	3.185	3.051	3.696	3.967	4.076	4.003	3.483	2.806	2.221	2.260	2.093	1.861	2.102	2.082	2.503	2.779	3.435	3.657	4.262	5.185	5.587	6.585	6.926	7.158	7.605	7.332	7.677	7.223	6.494	6.445	5.164	4.772	3.901	3.419	4.183
340.0	1353	1292	952.0	602.0	420.5	441.7	594.7	836.5	1157	1493	1781	1920	1851	1549	1106	640.2	513.3	566.2	269.4	138.5	195.5	472.3	1032	6441	9999.9	3087	38.27	9.159	6.833	4.597	3.917	2.956	2.491	2.774	2.844	2.665	2.479	2.382	2.284	2.517	2.539	2.786	3.210	3.212	3.839	4.130	4.043	3.848	3.538	2.750	2.097	2.310	2.261	1.998	2.051	2.126	2.667	2.786	3.640	3.932	4.425	5.411	5.778	6.414	7.029	7.014	7.385	7.629	7.632	7.310	6.567	6.390	5.614	4.619	3.875	3.014	3.373
345.0	1340	1281	933.1	599.4	426.2	455.6	592.1	838.7	1144	1465	1744	1866	1801	1518	1100	627.9	416.2	476.8	431.5	171.5	118.8	160.9	275.3	1618	9033	9999.9	2452	27.44	8.531	5.648	4.239	3.401	3.203	2.866	2.557	2.767	2.628	2.452	2.449	2.386	2.417	2.716	3.073	3.237	3.709	3.976	3.835	3.716	3.494	2.722	2.443	2.471	2.122	2.211	2.208	2.142	2.570	2.886	3.463	3.958	4.535	5.147	5.722	6.213	6.876	6.868	7.167	7.528	7.197	7.324	6.333	6.451	5.614	4.673	3.648	3.056	2.675
350.0	1248	1220	870.4	570.3	428.6	445.6	577.0	794.1	1081	1374	1617	1734	1677	1430	1047	606.3	383.5	327.6	393.4	335.1	151.1	106.7	117.2	404.8	2250	7593	9999.9	5988	33.16	8.673	5.945	4.184	3.426	3.178	2.641	2.596	2.577	2.427	2.409	2.535	2.279	2.653	3.061	3.195	3.467	3.841	3.592	3.630	3.352	2.702	2.294	2.189	2.022	1.955	2.201	2.236	2.491	2.746	3.216	3.724	4.139	4.840	5.418	5.952	6.106	6.479	6.456	6.957	6.649	6.865	6.036	6.289	5.311	4.291	3.462	2.986	2.695
355.0	1212	1116	795.4	540.3	419.7	427.2	540.5	741.4	989.3	1262	1474	1572	1518	1309	970.3	573.5	368.6	277.1	264.2	340.5	305.4	131.2	95.61	146.2	543.6	1736	4127	9999.9	8490	40.69	8.149	5.262	4.066	3.413	3.047	2.563	2.679	2.378	2.488	2.489	2.346	2.490	2.700	2.953	3.352	3.660	3.414	3.376	3.180	2.400	2.115	2.075	2.013	1.763	2.169	2.291	2.395	2.679	3.258	3.633	3.869	4.348	5.005	5.511	5.964	6.212	5.908	6.000	6.190	6.428	5.436	5.817	5.022	3.791	3.591	2.959	2.618
360.0	1127	1027	736.9	516.6	399.0	419.0	522.6	699.1	914.8	1160	1362	1439	1396	1198	905.9	541.1	357.8	266.1	228.2	251.7	361.9	227.3	111.6	98.42	173.8	426.5	988.6	5815	9999.9	2635	30.97	7.159	5.255	4.048	3.206	2.900	2.733	2.513	2.402	2.442	2.184	2.438	2.795	2.912	3.007	3.511	3.135	3.250	2.667	2.277	1.993	2.199	1.940	1.766	1.977	1.963	2.296	2.812	3.375	3.353	3.778	4.017	4.507	5.223	5.379	5.499	5.575	5.760	5.945	5.722	5.308	5.392	4.529	3.727	3.069	2.873	2.549
365.0	1062	927.9	694.2	466.4	386.7	406.9	489.8	650.5	854.7	1081	1254	1318	1289	1104	845.7	512.3	349.4	266.8	222.3	214.7	287.7	332.0	167.4	102.2	102.1	142.6	257.6	1455	7971	9999.9	2132	16.65	6.476	4.878	3.668	3.044	2.783	2.730	2.441	2.243	2.284	2.436	2.659	2.708	3.146	3.336	3.162	3.246	2.619	2.240	1.879	2.060	1.842	1.657	2.046	2.017	2.387	2.430	3.004	3.043	3.395	3.832	4.201	4.591	4.926	5.049	5.061	4.936	5.250	5.233	4.629	4.893	4.520	3.631	3.166	2.860	2.397
370.0	912.5	857.5	626.7	445.4	371.6	379.0	449.5	593.4	765.7	944.1	1094	1164	1127	978.6	759.8	477.6	330.2	262.6	232.6	212.0	220.3	287.8	290.5	163.7	104.0	94.02	105.0	361.3	1987	7774	9999.9	4190	24.85	6.518	4.514	3.641	2.916	2.664	2.606	2.374	2.359	2.444	2.413	2.732	2.904	3.100	2.902	2.870	2.384	2.120	1.776	1.920	1.853	1.800	1.954	1.958	2.216	2.289	2.670	2.902	3.174	3.569	4.021	4.103	4.134	4.413	4.718	4.560	4.857	4.645	4.331	4.423	3.940	3.274	2.972	2.633	2.346
375.0	795.8	773.7	552.9	403.3	354.2	363.1	415.9	529.8	673.5	828.7	950.3	1003	970.4	854.0	665.9	432.9	313.6	263.4	239.7	220.5	213.2	221.1	278.8	290.5	151.5	101.5	84.39	126.3	477.1	1775	4356	9999.9	2567	31.36	6.438	4.555	3.437	2.854	2.602	2.473	2.277	2.423	2.264	2.669	2.807	2.787	2.606	2.623	2.138	2.033	1.634	1.883	1.795	1.674	1.799	1.892	2.175	2.033	2.394	2.617	2.839	3.049	3.690	3.754	3.799	3.801	3.939	3.969	4.110	4.088	4.078	3.935	3.502	2.928	2.542	2.496	2.330
380.0	738.7	703.6	519.8	381.3	334.4	351.0	395.5	496.1	611.6	740.6	845.8	899.8	866.2	761.7	609.2	408.2	304.3	262.8	243.0	229.0	220.5	212.6	227.7	311.5	236.6	122.6	90.45	83.26	149.9	427.7	1047	6897	9999.9	2049	22.08	5.834	4.147	3.397	2.791	2.499	2.294	2.140	2.423	2.502	2.455	2.803	2.428	2.445	2.021	1.833	1.651	1.708	1.817	1.761	1.812	1.802	2.036	2.081	2.252	2.368	2.604	2.976	3.033	3.290	3.407	3.669	3.620	3.589	3.693	3.547	3.647	3.493	3.165	2.980	2.302	2.223	2.195
385.0	670.3	669.0	466.2	363.8	322.3	331.7	371.9	457.5	546.6	680.5	763.3	803.5	773.4	687.9	560.2	386.4	294.6	260.7	243.6	232.9	225.7	216.0	211.7	258.0	301.7	176.9	105.0	83.83	84.97	135.6	266.2	1831	8529	9999.9	300.6	13.80	5.118	3.905	3.072	2.829	2.214	2.399	2.377	2.506	2.305	2.513	2.406	2.497	2.103	1.621	1.579	1.702	1.826	1.709	1.700	1.612	2.071	2.076	2.153	2.128	2.258	2.546	2.948	3.106	3.242	3.158	3.373	3.253	3.505	3.441	3.385	3.213	2.834	2.722	2.375	2.162	2.141
390.0	597.3	568.8	440.5	346.8	316.2	323.7	350.5	413.9	494.0	605.1	676.9	710.8	682.0	611.9	505.3	364.1	289.9	259.6	248.7	241.4	234.2	227.7	218.3	220.8	256.1	261.5	165.6	105.6	88.40	85.57	102.6	442.5	2227	6780	8768	3148	20.44	5.203	3.880	3.238	2.533	2.421	2.317	2.181	2.386	2.448	2.223	2.329	1.909	1.640	1.532	1.659	1.690	1.648	1.816	1.535	1.863	1.995	2.134	2.120	2.315	2.435	2.708	2.827	2.875	2.927	3.062	2.996	3.129	3.117	2.945	2.942	2.789	2.495	2.360	2.211	2.148
395.0	535.1	519.8	417.1	339.6	316.5	312.8	333.0	383.4	462.7	541.1	599.5	622.2	602.2	544.3	455.0	344.1	288.0	265.0	251.7	248.5	239.4	235.8	228.8	218.4	217.9	240.9	254.9	155.6	108.3	90.43	80.05	141.2	529.7	1554	3962	9999.9	2118	26.62	5.230	3.685	2.813	2.478	2.457	2.310	2.308	2.391	2.059	2.198	1.845	1.615	1.473	1.700	1.723	1.649	1.774	1.685	1.722	1.791	2.106	2.094	2.221	2.375	2.398	2.465	2.637	2.502	2.550	2.780	2.885	2.716	2.561	2.716	2.682	2.589	2.209	2.226	2.181
400.0	483.2	473.9	374.2	331.3	309.9	308.7	327.0	364.2	431.5	504.8	563.0	573.6	548.3	493.0	425.6	326.2	282.6	258.9	250.2	247.0	242.2	240.1	234.8	226.7	213.0	213.2	259.3	223.6	134.7	102.4	85.00	83.17	157.5	376.8	964.4	5395	9426	1691	19.01	4.568	3.328	2.728	2.545	2.012	2.060	2.540	2.025	2.077	1.773	1.680	1.582	1.653	1.631	1.716	1.899	1.675	1.842	1.733	2.021	1.990	2.081	2.122	2.301	2.235	2.538	2.475	2.422	2.497	2.766	2.513	2.419	2.466	2.437	2.292	2.281	2.331	2.268
405.0	443.5	437.1	369.3	319.2	305.4	298.6	323.1	358.3	409.6	471.6	524.6	535.7	513.5	459.8	395.1	315.1	281.5	256.3	246.0	244.4	243.3	242.2	238.4	231.6	220.5	208.4	222.7	264.6	184.9	118.2	95.55	77.76	81.16	118.9	242.0	1390	6404	8171	267.1	11.92	4.317	3.329	2.749	2.206	1.962	2.423	2.183	2.035	1.649	1.530	1.454	1.446	1.793	1.601	1.867	1.646	1.937	1.639	1.880	2.002	2.142	2.017	2.256	2.383	2.347	2.385	2.483	2.298	2.480	2.102	2.116	2.434	2.230	2.397	2.070	2.214	2.249
410.0	420.3	402.3	353.9	309.2	306.9	295.8	314.9	348.4	389.8	454.3	491.7	501.7	470.3	416.7	368.2	301.7	267.9	250.3	243.2	239.7	239.2	240.9	239.4	237.7	226.0	213.1	204.8	227.1	240.6	165.6	115.7	89.01	74.78	69.73	86.10	333.7	1638	5033	6435	1158	17.96	4.063	3.095	2.526	2.381	2.169	2.078	1.954	1.845	1.615	1.459	1.592	1.881	1.703	1.623	1.574	1.800	1.738	1.926	1.825	2.170	2.015	2.151	2.277	2.174	2.238	2.293	2.301	2.416	2.087	2.239	2.231	2.150	2.162	1.957	2.140	2.083
415.0	362.6	356.6	330.5	312.5	305.7	290.8	302.6	333.5	372.6	431.0	450.0	464.6	424.7	374.7	334.4	282.8	259.5	242.5	234.9	230.4	230.4	235.2	236.8	231.6	227.6	215.8	204.1	199.7	217.2	228.1	153.5	103.6	82.86	66.38	57.30	102.3	385.4	1149	2838	6951	1841	23.37	4.157	2.914	2.659	2.297	1.979	1.873	1.822	1.509	1.434	1.536	1.743	1.605	1.647	1.620	1.650	1.876	1.885	1.791	2.216	1.969	2.004	2.323	2.145	1.996	2.188	2.160	2.276	2.109	1.956	2.187	2.064	1.931	1.785	2.057	2.037
