Sample:	'1
File name:	t2025042103¸ßÍÝ´å¶«ÇÅ.FD3
Run date:	'10:16:36, 04/22/2025
Operator:	Administrator
Comment:	'

Instrument
Model:	F-2700 FL Spectrophotometer
Serial number:	23B8-004
ROM Version:	4J14000 07

Instrument parameters
Measurement type:	3-D scan
Data mode:	Fluorescence
EX  Start WL:	220.0 nm
EX  End WL:	600.0 nm
EX Sampling interval:	5.0 nm
EM  Start WL:	230.0 nm
EM  End WL:	650.0 nm
EM Sampling interval:	5.0 nm
Scan speed:	12000 nm/min
EX Slit:	5.0 nm
EM Slit:	5.0 nm
PMT Voltage:	700 V
Response:	Auto 
Corrected spectra:	Off
Contour interval:	50.000

Peak integration
Integration method:	Rectangular
Sensitivity:	1
Threshold:	1.000

Peaks
No.	ApexEX/EM(nm)	Height(Data)
1	225.0/560.0	50.36
2	225.0/590.0	33.52
3	225.0/625.0	27.22
4	225.0/640.0	28.15
5	230.0/340.0	711.3
6	230.0/390.0	482.4
7	235.0/405.0	473.3
8	235.0/510.0	232.7
9	240.0/525.0	207.0
10	245.0/410.0	446.7
11	245.0/535.0	182.5
12	245.0/635.0	12.59
13	250.0/545.0	155.3
14	255.0/280.0	650.8
15	255.0/560.0	137.2
16	260.0/285.0	658.7
17	260.0/570.0	110.2
18	265.0/290.0	623.4
19	265.0/585.0	100.5
20	270.0/300.0	814.0
21	270.0/380.0	378.6
22	270.0/595.0	85.63
23	275.0/305.0	957.6
24	275.0/335.0	498.3
25	275.0/610.0	71.54
26	280.0/310.0	831.2
27	280.0/620.0	61.27
28	285.0/315.0	811.9
29	285.0/635.0	49.48
30	290.0/325.0	734.0
31	295.0/330.0	545.7
32	300.0/335.0	461.1
33	305.0/340.0	399.7
34	310.0/350.0	313.0
35	315.0/355.0	290.4
36	320.0/360.0	290.2
37	325.0/370.0	249.9
38	330.0/375.0	240.9
39	335.0/380.0	249.5
40	340.0/385.0	228.5
41	345.0/395.0	196.5
42	350.0/400.0	204.4
43	355.0/405.0	189.5
44	365.0/420.0	158.9
45	370.0/425.0	147.0
46	380.0/440.0	108.7
47	385.0/445.0	99.23
48	400.0/465.0	62.40
49	410.0/475.0	43.87
50	415.0/485.0	37.91
51	420.0/490.0	32.46
52	425.0/495.0	28.21
53	430.0/505.0	25.49
54	435.0/510.0	21.52
55	440.0/515.0	18.60
56	460.0/545.0	9.378
57	515.0/280.0	4.431
58	520.0/285.0	4.567
59	530.0/290.0	4.399
60	540.0/295.0	5.310
61	545.0/300.0	5.524
62	555.0/305.0	5.652
63	560.0/310.0	4.927
64	570.0/315.0	5.154
65	580.0/320.0	5.403
66	585.0/325.0	4.907

Data points
	220.0	225.0	230.0	235.0	240.0	245.0	250.0	255.0	260.0	265.0	270.0	275.0	280.0	285.0	290.0	295.0	300.0	305.0	310.0	315.0	320.0	325.0	330.0	335.0	340.0	345.0	350.0	355.0	360.0	365.0	370.0	375.0	380.0	385.0	390.0	395.0	400.0	405.0	410.0	415.0	420.0	425.0	430.0	435.0	440.0	445.0	450.0	455.0	460.0	465.0	470.0	475.0	480.0	485.0	490.0	495.0	500.0	505.0	510.0	515.0	520.0	525.0	530.0	535.0	540.0	545.0	550.0	555.0	560.0	565.0	570.0	575.0	580.0	585.0	590.0	595.0	600.0
230.0	59.05	2008	8712	4285	204.9	11.95	10.28	8.547	7.116	7.311	7.296	6.942	6.891	6.448	5.190	4.679	4.151	4.052	4.011	3.482	3.306	3.020	2.628	2.609	2.671	2.374	2.350	2.233	2.041	1.916	1.860	1.876	1.669	1.608	1.437	1.412	1.213	1.115	1.081	0.989	1.024	1.070	1.102	0.950	0.837	0.845	1.747	10.53	26.54	26.49	12.80	3.092	0.797	0.555	0.517	0.468	0.506	0.405	0.397	0.426	0.363	0.336	0.320	0.281	0.316	0.335	0.285	0.249	0.231	0.184	0.193	0.200	0.188	0.145	0.149	0.136	0.146
235.0	156.3	537.1	4283	9999.9	4266	311.2	14.71	11.54	8.933	8.901	8.494	7.766	6.903	6.648	5.425	5.312	4.496	4.090	4.566	4.137	3.338	3.257	3.190	2.691	2.840	2.325	2.323	2.029	2.165	1.974	1.740	1.957	1.632	1.513	1.404	1.384	1.237	1.142	1.154	0.967	0.963	0.962	1.041	1.122	1.075	1.013	1.125	2.973	8.151	16.80	30.24	26.08	20.70	6.598	0.988	0.466	0.511	0.426	0.451	0.414	0.359	0.339	0.371	0.394	0.311	0.304	0.308	0.235	0.233	0.224	0.227	0.202	0.185	0.172	0.171	0.141	0.126
240.0	186.9	264.3	1144	6675	9999.9	3519	198.0	18.56	11.17	12.30	9.757	9.239	7.993	7.234	5.890	5.558	4.757	4.153	4.782	4.027	3.739	3.004	2.789	3.073	2.743	2.619	2.396	2.179	2.059	2.059	1.889	1.947	1.624	1.537	1.418	1.525	1.444	1.174	1.068	1.025	1.083	0.975	1.012	0.961	1.111	1.252	1.306	1.329	2.489	4.579	12.25	32.25	58.05	27.71	18.56	4.318	0.707	0.439	0.531	0.446	0.531	0.355	0.347	0.378	0.356	0.338	0.319	0.262	0.222	0.258	0.200	0.187	0.161	0.191	0.204	0.141	0.143
245.0	135.1	276.7	371.7	1925	9985	9999.9	2697	106.2	17.62	15.20	13.27	10.38	8.908	8.211	6.813	6.419	5.102	4.661	4.534	3.972	3.720	3.077	3.003	3.144	3.186	2.904	2.488	2.516	2.116	1.990	1.848	1.997	1.792	1.564	1.528	1.545	1.483	1.305	1.128	1.180	1.179	0.918	0.948	0.890	0.963	1.011	1.370	1.401	1.305	1.726	3.322	9.467	29.32	55.14	77.53	26.65	15.18	2.242	0.746	0.428	0.485	0.361	0.407	0.398	0.367	0.326	0.313	0.301	0.218	0.197	0.293	0.176	0.141	0.191	0.209	0.231	0.176
250.0	70.96	166.8	337.5	579.5	2834	9556	9999.9	8658	172.5	26.83	18.66	14.54	12.69	10.12	8.080	7.402	6.370	5.347	4.846	4.468	3.980	3.647	3.373	3.335	3.340	3.021	2.703	2.716	2.321	2.420	1.888	1.869	1.693	1.610	1.596	1.621	1.457	1.444	1.179	1.100	1.199	0.962	1.068	1.006	0.893	0.946	1.063	1.376	1.529	1.534	1.671	2.837	7.243	15.50	34.97	51.28	82.41	73.65	57.48	11.42	2.570	0.592	0.589	0.495	0.457	0.336	0.325	0.352	0.289	0.330	0.259	0.247	0.208	0.187	0.223	0.220	0.185
255.0	58.37	77.87	191.7	454.5	802.5	2267	7928	9999.9	9999.9	228.7	32.59	22.74	16.62	14.21	10.56	8.438	7.692	6.231	5.630	5.274	4.090	4.041	3.652	3.493	3.511	3.086	3.053	2.929	2.455	2.376	2.426	1.877	1.745	1.797	1.710	1.480	1.399	1.281	1.216	1.271	1.085	1.152	1.109	0.953	1.044	0.954	1.064	1.002	1.016	1.373	1.783	2.288	2.805	4.193	8.366	12.18	23.46	53.26	126.4	153.0	30.08	16.99	1.819	0.734	0.584	0.525	0.420	0.385	0.343	0.341	0.296	0.287	0.249	0.249	0.247	0.261	0.176
260.0	64.24	58.95	87.50	303.5	521.4	619.6	2147	9999.9	9999.9	9999.9	164.9	33.76	24.38	17.25	12.95	10.95	8.498	7.267	6.463	5.428	5.080	4.596	3.936	3.948	3.846	3.761	3.281	3.290	2.779	2.670	2.598	2.184	1.894	1.880	1.850	1.569	1.567	1.394	1.528	1.324	1.274	1.231	1.060	1.162	0.998	1.024	1.093	0.983	0.852	1.000	1.158	2.129	2.620	2.338	2.687	3.328	5.881	13.52	42.87	106.9	174.8	179.6	27.47	11.39	0.987	0.729	0.684	0.512	0.425	0.538	0.418	0.313	0.369	0.267	0.267	0.223	0.280
265.0	67.65	56.50	56.10	142.4	431.8	429.8	565.5	3291	9999.9	9999.9	1809	108.7	34.97	24.23	16.93	12.99	9.678	8.209	7.005	5.990	5.914	4.574	4.565	4.060	3.977	3.671	3.554	3.584	2.944	2.727	2.787	2.227	2.173	2.081	1.919	1.687	1.658	1.482	1.481	1.435	1.320	1.334	1.266	1.225	1.084	1.034	0.962	1.034	0.897	0.806	0.873	1.262	2.051	2.682	2.540	1.791	2.006	3.827	10.54	27.85	75.29	173.0	231.9	172.1	21.81	4.866	0.975	0.636	0.570	0.538	0.436	0.346	0.402	0.364	0.326	0.291	0.274
270.0	86.22	77.14	60.50	73.95	189.8	432.0	437.5	843.0	3667	9999.9	9999.9	9999.9	122.6	42.04	26.43	17.92	13.80	11.18	8.915	7.572	6.427	5.430	5.106	4.692	4.314	4.036	3.657	3.816	3.366	3.152	2.883	2.740	2.462	2.350	2.130	1.876	1.734	1.652	1.618	1.466	1.363	1.430	1.377	1.365	1.212	1.184	1.140	1.112	1.003	0.943	0.871	1.000	1.232	1.583	2.294	2.638	2.771	2.409	3.322	7.026	17.89	44.50	92.85	163.3	194.9	171.5	119.7	14.72	5.362	0.978	0.688	0.627	0.490	0.527	0.427	0.438	0.371
275.0	121.2	104.9	92.23	73.61	88.83	179.7	508.2	515.7	917.3	2483	9999.9	9999.9	9999.9	146.9	46.03	28.63	20.26	15.33	12.19	9.651	8.297	7.017	6.022	5.035	5.174	4.673	4.347	4.152	3.866	3.455	3.474	3.022	3.136	2.589	2.207	2.232	1.900	1.847	1.807	1.560	1.543	1.493	1.489	1.489	1.357	1.420	1.329	1.287	1.089	1.081	0.923	1.011	1.130	1.102	1.302	1.432	2.573	3.605	3.692	3.062	4.861	10.75	21.63	37.53	50.29	99.62	257.0	374.9	199.9	23.71	4.571	1.143	0.760	0.729	0.626	0.583	0.537
280.0	151.9	136.3	105.6	79.16	65.88	91.70	275.5	650.8	444.3	655.3	2779	9999.9	9999.9	7934	114.2	42.27	28.94	20.28	16.12	11.60	9.750	8.325	7.076	5.661	5.659	5.190	5.035	4.528	4.122	3.656	3.685	3.366	3.206	2.773	2.616	2.707	2.133	1.800	1.918	1.589	1.667	1.972	1.534	1.492	1.516	1.516	1.383	1.366	1.242	1.095	1.039	1.060	1.179	1.002	1.091	1.126	1.378	2.363	3.919	4.431	3.176	3.401	5.668	9.398	12.36	24.05	73.42	201.3	359.6	260.5	33.59	17.80	1.914	1.138	0.912	0.785	0.701
285.0	196.0	173.6	137.8	88.97	72.45	72.02	125.9	446.6	658.7	315.3	743.0	3514	9999.9	9999.9	5368	84.48	40.52	26.89	19.19	13.93	11.58	9.768	8.381	7.115	6.727	5.651	5.416	4.916	4.314	3.850	4.010	3.734	3.286	2.921	2.819	2.580	2.652	2.085	1.895	1.733	1.695	1.806	1.734	1.609	1.517	1.716	1.670	1.305	1.309	1.228	1.144	1.115	1.247	0.983	1.097	1.033	1.189	1.333	1.990	3.627	4.567	3.416	2.632	3.069	3.766	6.445	17.63	48.31	117.1	245.0	398.9	245.8	29.03	11.88	1.496	0.998	0.858
290.0	226.8	227.6	178.1	124.7	85.48	76.15	88.12	189.2	508.3	623.4	354.1	940.2	3795	9999.9	9999.9	9999.9	302.8	45.20	29.02	19.78	15.70	12.10	10.11	8.431	7.791	6.822	5.975	5.661	4.932	4.383	4.137	3.874	3.677	3.359	3.139	2.906	2.785	2.508	2.232	2.133	1.957	1.824	1.761	1.704	1.734	1.759	1.683	1.625	1.604	1.439	1.312	1.239	1.296	1.089	1.190	1.110	1.132	1.283	1.411	1.751	2.656	3.693	4.399	3.827	2.705	2.759	5.188	12.06	27.44	59.05	127.8	213.6	293.1	304.4	233.4	19.73	9.855
295.0	291.5	290.9	226.9	166.5	105.8	86.86	93.91	124.5	222.5	530.4	758.5	403.0	1019	2525	9999.9	9999.9	9999.9	91.82	46.58	30.75	22.43	16.47	12.60	10.23	8.861	8.066	7.142	6.263	5.488	5.353	4.896	4.500	4.119	3.696	3.363	3.186	2.831	3.009	2.769	2.345	2.145	2.003	2.023	1.930	1.812	1.886	1.781	1.765	1.739	1.618	1.563	1.523	1.422	1.384	1.226	1.294	1.217	1.225	1.359	1.358	1.728	2.069	2.375	4.041	5.310	4.217	3.014	4.091	7.367	14.47	29.71	48.94	69.45	112.9	281.5	468.0	268.5
300.0	320.7	312.0	265.5	190.8	125.1	108.8	108.8	130.3	170.2	317.9	814.0	661.6	444.5	744.7	2790	9999.9	9999.9	4907	80.33	43.04	29.74	20.52	15.97	13.34	11.59	9.393	8.236	7.085	5.903	5.603	4.903	4.985	4.410	3.999	3.754	3.404	3.088	2.841	2.744	2.426	2.329	1.887	2.163	1.943	1.833	1.953	1.745	2.069	1.866	1.687	1.628	1.591	1.422	1.369	1.383	1.313	1.326	1.271	1.475	1.404	1.620	1.705	1.706	2.299	3.720	5.524	4.891	3.203	3.383	4.791	8.111	12.57	16.87	26.94	72.77	195.3	394.5
305.0	341.9	335.5	300.4	212.5	145.2	132.7	135.3	157.5	191.7	268.1	558.1	957.6	517.0	380.7	813.1	3559	9999.9	9999.9	3653	67.74	39.55	26.82	20.13	15.07	13.00	10.80	9.507	7.944	6.762	6.611	5.392	4.995	4.603	4.399	3.990	3.316	3.442	2.994	3.001	2.598	2.549	2.297	2.224	2.074	2.182	1.991	1.921	2.169	2.105	1.852	1.659	1.571	1.539	1.552	1.463	1.380	1.589	1.538	1.607	1.543	1.826	1.765	1.863	2.132	2.552	3.547	5.225	5.652	4.089	3.209	3.504	4.554	5.396	7.662	17.80	46.12	113.4
310.0	360.1	374.5	356.9	239.6	168.4	145.9	160.3	183.8	218.8	284.9	411.5	683.9	831.2	498.1	397.1	958.9	4069	9999.9	9999.9	9999.9	214.7	40.42	27.55	20.67	16.93	13.32	11.58	9.227	7.674	7.380	6.381	5.786	5.200	4.661	4.280	3.705	3.574	3.210	3.052	2.788	2.781	2.367	2.589	2.357	2.263	2.277	2.203	2.297	2.147	2.034	1.720	1.770	1.862	1.745	1.630	1.581	1.814	1.671	1.805	1.710	1.834	1.969	2.027	2.285	2.373	2.737	3.303	4.354	4.927	4.874	4.181	3.381	3.037	3.291	5.554	11.77	26.73
315.0	373.0	439.7	381.9	273.8	187.9	162.5	184.8	219.7	241.3	308.8	404.4	494.4	633.5	811.9	433.6	379.5	1035	2522	9999.9	9999.9	9999.9	70.45	42.68	28.62	22.36	16.90	14.08	10.91	9.066	8.452	7.241	6.028	6.112	4.930	4.728	4.308	3.771	3.350	3.210	2.978	3.014	2.736	2.862	2.567	2.551	2.625	2.609	2.538	2.470	2.233	1.871	1.885	1.987	1.869	1.780	1.711	1.831	1.779	1.935	2.010	2.016	2.081	2.298	2.423	2.473	2.735	3.053	3.287	3.171	3.627	5.154	5.045	3.691	2.773	2.986	4.077	7.299
320.0	423.2	503.5	456.2	314.1	204.3	178.5	198.5	227.6	265.0	333.2	417.3	480.6	504.2	718.8	673.4	300.6	361.7	678.9	2922	9999.9	9999.9	3654	65.31	40.28	28.94	19.90	16.63	12.74	10.56	9.509	7.666	7.091	6.215	5.321	4.609	4.425	4.127	3.589	3.293	3.399	3.215	2.861	2.898	2.621	2.857	2.783	2.641	2.674	2.503	2.371	2.158	2.225	1.949	1.857	1.906	1.858	1.930	2.116	1.971	2.134	2.169	2.125	2.417	2.468	2.663	2.795	2.828	3.198	2.817	2.988	3.720	4.662	5.403	4.012	3.113	2.611	2.965
325.0	470.8	602.3	546.7	371.1	232.1	195.2	208.9	240.7	282.7	353.4	431.9	487.2	475.0	542.2	734.0	435.4	220.6	258.3	751.6	4083	9999.9	9999.9	2768	58.47	38.80	25.78	19.70	14.96	12.20	10.77	8.745	7.661	7.030	6.008	5.360	4.522	4.304	4.022	3.569	3.402	3.227	3.131	3.112	2.798	3.000	3.139	2.854	2.763	2.855	2.574	2.321	2.205	2.223	2.051	2.106	1.872	2.028	2.122	2.128	2.144	2.199	2.401	2.413	2.615	2.710	2.784	2.839	3.111	2.701	3.034	3.168	3.474	4.157	4.907	4.148	3.164	2.184
330.0	499.1	648.4	609.9	443.4	282.8	217.6	216.2	254.0	281.3	356.2	444.3	491.1	477.1	474.9	522.6	545.7	331.6	176.6	253.3	1004	4703	9999.9	9999.9	9999.9	175.7	39.23	27.67	19.74	15.29	12.59	9.973	8.845	7.699	6.444	5.911	5.168	4.469	4.115	4.003	3.530	3.185	3.215	3.036	2.947	3.019	3.189	3.105	3.171	3.101	2.793	2.469	2.424	2.259	2.202	2.113	1.986	2.092	2.161	2.145	2.142	2.290	2.485	2.568	2.603	2.738	2.908	3.020	3.158	2.843	3.055	2.926	2.997	2.979	3.521	3.725	3.920	3.624
335.0	565.7	691.4	685.8	493.7	333.8	244.3	236.4	258.6	295.0	365.8	447.0	498.3	483.8	465.6	427.7	398.3	461.1	272.9	150.8	301.7	1123	2561	9999.9	9999.9	9999.9	61.04	40.66	27.90	19.90	16.05	12.44	10.32	8.705	7.337	6.587	5.626	4.980	4.283	4.181	3.905	3.466	3.397	3.350	3.100	3.385	3.335	3.552	3.522	3.354	2.984	2.632	2.772	2.531	2.228	2.326	2.120	2.318	2.362	2.219	2.405	2.332	2.407	2.485	2.754	2.609	2.951	3.152	3.124	2.914	2.933	2.950	2.863	2.907	2.941	2.871	3.011	3.368
340.0	516.8	694.6	711.3	563.2	348.9	269.9	249.0	265.7	294.7	366.1	432.8	491.9	478.0	462.0	404.6	326.7	362.2	399.7	173.8	147.2	322.9	645.8	3126	9999.9	9999.9	3154	58.03	36.46	25.40	18.66	14.48	12.50	10.08	8.243	6.817	5.850	5.388	4.938	4.373	3.958	3.759	3.656	3.315	3.353	3.347	3.450	3.493	3.528	3.530	3.091	2.821	2.768	2.694	2.326	2.385	2.223	2.373	2.212	2.228	2.323	2.350	2.447	2.514	2.551	2.678	2.959	2.998	3.282	3.060	2.985	3.055	2.818	2.692	2.826	2.568	2.404	2.483
345.0	496.8	663.2	694.1	553.5	372.9	280.6	249.6	273.3	288.4	344.9	418.1	469.6	461.0	447.0	391.5	307.6	262.8	376.6	282.6	127.9	143.3	212.6	778.1	4633	9999.9	9999.9	2478	52.09	32.09	23.08	16.88	13.67	11.40	8.895	7.587	6.356	5.610	5.140	4.432	4.112	3.860	3.589	3.658	3.372	3.238	3.517	3.371	3.531	3.514	3.132	2.675	2.797	2.710	2.303	2.429	2.350	2.372	2.315	2.324	2.277	2.269	2.376	2.377	2.741	2.707	2.905	2.879	3.239	2.868	2.780	2.961	2.660	2.735	2.525	2.452	2.282	2.102
350.0	474.6	624.5	632.2	543.7	382.6	305.4	273.8	283.6	294.2	337.8	400.2	443.6	433.1	425.2	377.2	299.6	232.3	252.1	313.0	233.3	125.8	118.1	240.5	1112	5434	9999.9	9999.9	9999.9	155.1	33.47	22.40	16.85	13.11	10.07	8.311	6.797	6.077	5.374	4.814	4.114	3.780	3.458	3.482	3.326	3.164	3.432	3.177	3.490	3.368	3.060	2.614	2.775	2.755	2.363	2.308	2.181	2.374	2.197	2.339	2.321	2.324	2.351	2.337	2.607	2.526	2.818	2.702	2.922	2.683	2.799	2.724	2.607	2.739	2.492	2.367	2.334	2.196
355.0	451.7	564.7	604.2	520.2	392.3	323.0	294.6	297.9	301.4	334.5	383.4	421.4	412.2	399.4	358.2	294.5	230.0	211.4	218.4	290.4	216.1	113.3	123.3	311.8	1275	2612	9999.9	9999.9	9999.9	55.60	33.52	22.83	16.66	12.33	9.549	8.129	6.514	5.713	5.231	4.434	3.871	3.639	3.646	3.171	3.173	3.434	3.031	3.438	3.400	3.089	2.654	2.902	2.770	2.336	2.399	2.429	2.410	2.416	2.204	2.225	2.283	2.360	2.428	2.558	2.388	2.588	2.659	2.795	2.571	2.639	2.772	2.568	2.726	2.283	2.353	2.319	2.273
360.0	436.6	537.0	571.6	513.9	394.3	347.4	309.3	310.6	320.2	333.1	375.9	404.4	397.5	381.4	346.6	293.8	235.9	207.9	188.7	230.2	290.2	161.3	104.3	136.9	349.0	647.1	3255	9999.9	9999.9	2963	51.33	29.72	21.41	14.68	11.11	8.917	7.236	6.383	5.588	4.869	4.351	3.893	3.796	3.318	3.141	3.320	3.237	3.295	3.212	2.931	2.839	2.867	2.719	2.349	2.457	2.314	2.447	2.476	2.392	2.263	2.293	2.281	2.423	2.477	2.530	2.462	2.550	2.557	2.424	2.688	2.531	2.462	2.314	2.239	2.233	2.275	2.170
365.0	425.9	520.3	563.7	504.3	410.4	354.3	320.4	326.0	324.8	338.6	371.3	393.2	379.5	372.3	342.8	293.2	243.4	215.0	192.1	188.6	259.8	248.6	123.9	103.1	145.5	204.5	800.3	4806	9999.9	9999.9	2312	46.09	26.72	18.61	13.83	9.981	8.222	7.352	5.867	5.092	4.546	4.058	3.882	3.449	3.205	3.430	3.352	3.350	3.215	2.912	2.707	2.912	2.809	2.536	2.683	2.454	2.624	2.483	2.464	2.309	2.393	2.522	2.443	2.569	2.426	2.464	2.496	2.520	2.568	2.535	2.417	2.234	2.409	2.389	2.135	2.192	2.267
370.0	390.5	489.7	531.5	503.4	421.9	379.4	349.8	340.7	334.8	353.3	370.5	382.5	364.0	362.3	335.6	291.2	252.0	230.8	205.2	187.2	198.9	249.9	216.7	124.4	107.1	109.4	238.8	1147	5282	9999.9	9999.9	9758	141.2	28.50	18.70	13.06	10.22	8.620	7.045	5.684	5.150	4.620	4.103	3.795	3.734	3.394	3.198	3.296	3.156	2.816	2.660	2.944	2.876	2.649	2.772	2.503	2.557	2.530	2.493	2.407	2.552	2.625	2.513	2.570	2.576	2.366	2.460	2.339	2.453	2.385	2.416	2.269	2.228	2.310	2.153	2.285	2.352
375.0	393.4	465.6	501.0	492.0	440.0	390.9	377.0	362.3	343.8	357.4	367.9	369.9	360.4	353.6	323.6	291.2	260.4	240.5	217.7	199.6	186.7	191.6	240.9	207.2	117.1	95.27	116.2	312.2	1234	2648	9999.9	9999.9	9999.9	47.30	27.82	18.17	13.15	9.984	7.907	6.659	5.762	5.258	4.702	3.884	3.932	3.772	3.167	3.407	3.432	2.696	2.741	3.015	3.057	2.795	2.681	2.573	2.667	2.562	2.557	2.431	2.531	2.645	2.484	2.629	2.360	2.364	2.429	2.307	2.496	2.313	2.262	2.303	2.468	2.254	2.252	2.188	2.207
380.0	391.9	470.5	499.2	469.8	448.1	402.9	388.7	377.1	357.9	362.6	378.6	364.6	355.3	337.0	319.0	286.6	264.1	246.1	226.3	209.7	191.0	180.8	198.8	249.5	165.6	101.7	92.66	127.8	329.5	649.9	3327	9999.9	9999.9	2499	42.26	23.38	16.93	12.54	9.605	7.833	6.380	5.368	4.679	4.334	3.948	3.831	3.525	3.556	3.526	2.906	2.733	3.125	2.859	2.735	2.882	2.472	2.611	2.589	2.484	2.554	2.593	2.607	2.703	2.490	2.499	2.509	2.445	2.458	2.526	2.407	2.509	2.159	2.374	2.227	2.268	2.275	2.391
385.0	365.6	442.2	472.7	477.2	457.6	417.1	400.2	378.3	369.1	369.2	370.8	361.2	351.2	338.3	315.1	283.5	263.7	248.0	233.3	216.2	199.1	183.0	177.5	220.1	228.5	126.2	92.31	90.23	129.2	197.2	806.1	4704	9999.9	9999.9	1933	36.25	20.94	14.84	10.83	8.825	6.625	6.289	5.461	4.553	4.186	4.248	3.752	3.547	3.353	3.019	2.854	3.268	3.198	2.937	2.892	2.582	2.664	2.841	2.590	2.708	2.800	2.584	2.671	2.398	2.627	2.243	2.501	2.369	2.338	2.346	2.534	2.356	2.268	2.226	2.246	2.212	2.145
390.0	365.9	432.6	482.4	478.0	449.1	434.8	411.5	392.4	388.1	375.5	367.5	360.6	349.5	332.1	309.9	285.4	267.0	253.7	241.6	226.3	207.2	192.0	178.3	181.8	213.0	194.3	122.2	91.00	89.12	97.22	228.6	1111	4789	9999.9	9999.9	8042	125.3	22.17	15.02	10.94	8.247	6.919	5.802	5.138	4.683	4.326	3.795	3.683	3.590	2.968	2.980	3.246	3.177	3.028	2.920	2.830	3.011	2.852	2.947	2.816	2.749	2.560	2.592	2.552	2.526	2.402	2.512	2.411	2.322	2.239	2.336	2.231	2.278	2.307	2.252	2.222	2.301
395.0	364.3	432.8	471.0	462.8	458.2	436.6	428.6	410.6	398.8	379.3	376.2	358.2	341.8	328.0	309.2	287.8	268.0	255.6	244.7	230.9	213.8	200.4	184.9	171.7	175.3	196.5	186.0	111.6	85.90	80.09	100.7	291.7	1110	2528	9999.9	9999.9	9999.9	40.14	21.96	14.95	11.14	8.542	6.780	5.922	5.066	4.839	4.040	3.874	3.974	3.312	2.854	3.322	3.164	3.307	3.022	2.831	3.146	2.977	2.920	2.887	2.813	2.700	2.523	2.571	2.580	2.516	2.528	2.372	2.314	2.407	2.122	2.235	2.206	2.280	2.204	2.499	2.342
400.0	348.0	418.3	458.4	460.9	454.1	442.2	431.3	419.9	401.8	378.2	378.9	367.5	339.1	329.9	301.5	281.2	267.0	254.1	246.4	234.8	216.6	203.5	188.0	174.8	164.9	169.5	204.4	152.1	93.44	79.58	74.25	110.2	286.9	606.9	2936	9999.9	9999.9	2218	36.98	19.72	13.42	10.81	8.179	6.488	5.431	5.202	4.235	4.249	4.010	3.483	3.172	3.165	3.197	3.111	3.303	2.861	3.115	2.903	2.936	2.984	2.680	2.830	2.646	2.469	2.490	2.559	2.494	2.507	2.264	2.198	2.250	2.376	2.239	2.212	2.272	2.358	2.339
405.0	321.7	396.0	451.1	473.3	458.5	441.3	429.8	418.0	403.4	384.0	375.6	363.4	338.5	319.1	293.5	276.1	262.2	253.3	242.6	233.3	216.8	206.8	193.2	179.6	166.6	154.6	177.2	189.5	120.9	84.20	71.20	70.00	103.3	171.0	698.2	3678	9999.9	9999.9	1901	33.15	17.33	12.59	9.462	7.230	6.045	5.490	4.447	4.340	4.156	3.326	3.198	3.315	3.402	3.063	3.166	3.068	2.975	3.200	2.949	3.003	2.814	2.609	2.640	2.620	2.458	2.445	2.309	2.496	2.333	2.256	2.194	2.222	2.249	2.131	2.267	2.307	2.231
