Sample:	'1
File name:	w090301¶«Õ¢´åÇÅ.FD3
Run date:	'16:37:36, 09/03/2024
Operator:	horiz
Comment:	'

Instrument
Model:	F-2700 FL Spectrophotometer
Serial number:	23B8-004
ROM Version:	4J14000 07

Instrument parameters
Measurement type:	3-D scan
Data mode:	Fluorescence
EX  Start WL:	220.0 nm
EX  End WL:	600.0 nm
EX Sampling interval:	5.0 nm
EM  Start WL:	230.0 nm
EM  End WL:	650.0 nm
EM Sampling interval:	5.0 nm
Scan speed:	12000 nm/min
EX Slit:	5.0 nm
EM Slit:	5.0 nm
PMT Voltage:	700 V
Response:	Auto 
Corrected spectra:	Off
Contour interval:	50.000

Peak integration
Integration method:	Rectangular
Sensitivity:	1
Threshold:	1.000

Peaks
No.	ApexEX/EM(nm)	Height(Data)
1	230.0/345.0	895.1
2	230.0/500.0	260.5
3	235.0/515.0	223.5
4	240.0/525.0	200.8
5	245.0/535.0	171.1
6	250.0/550.0	144.0
7	255.0/280.0	575.4
8	255.0/560.0	120.0
9	260.0/285.0	502.5
10	260.0/575.0	103.8
11	265.0/585.0	91.68
12	270.0/300.0	778.0
13	270.0/600.0	79.56
14	275.0/305.0	836.3
15	275.0/340.0	507.3
16	275.0/610.0	65.57
17	280.0/310.0	730.2
18	280.0/625.0	59.14
19	285.0/315.0	705.9
20	285.0/635.0	44.69
21	290.0/325.0	644.8
22	295.0/330.0	498.7
23	300.0/335.0	457.3
24	305.0/345.0	392.2
25	310.0/350.0	333.0
26	315.0/355.0	321.6
27	320.0/360.0	310.1
28	325.0/370.0	287.8
29	330.0/375.0	283.2
30	335.0/380.0	281.5
31	340.0/390.0	245.9
32	345.0/395.0	234.4
33	350.0/400.0	232.3
34	360.0/415.0	188.4
35	365.0/420.0	182.6
36	395.0/460.0	78.04
37	415.0/485.0	41.36
38	430.0/505.0	27.07
39	440.0/520.0	20.06
40	445.0/525.0	17.31
41	455.0/540.0	12.17
42	520.0/285.0	5.049
43	530.0/290.0	5.084
44	540.0/295.0	5.953
45	545.0/300.0	6.538
46	555.0/305.0	6.722
47	565.0/310.0	5.878
48	575.0/315.0	6.338
49	580.0/320.0	6.147
50	585.0/325.0	6.418

Wavelength data
No.	EX/EM(nm)	Height(Data)	

Data points
	220.0	225.0	230.0	235.0	240.0	245.0	250.0	255.0	260.0	265.0	270.0	275.0	280.0	285.0	290.0	295.0	300.0	305.0	310.0	315.0	320.0	325.0	330.0	335.0	340.0	345.0	350.0	355.0	360.0	365.0	370.0	375.0	380.0	385.0	390.0	395.0	400.0	405.0	410.0	415.0	420.0	425.0	430.0	435.0	440.0	445.0	450.0	455.0	460.0	465.0	470.0	475.0	480.0	485.0	490.0	495.0	500.0	505.0	510.0	515.0	520.0	525.0	530.0	535.0	540.0	545.0	550.0	555.0	560.0	565.0	570.0	575.0	580.0	585.0	590.0	595.0	600.0
230.0	129.7	2649	5634	1689	66.77	18.30	16.09	13.25	11.46	10.36	9.987	9.499	8.381	7.533	6.360	5.736	5.181	5.242	4.894	4.539	4.362	3.887	3.557	3.720	3.392	3.399	3.025	3.013	2.763	2.690	2.618	2.594	2.549	2.392	2.275	2.056	2.051	1.998	1.732	1.721	1.653	1.820	1.708	1.512	1.549	1.553	4.087	15.05	26.46	18.50	6.992	1.969	1.199	1.158	1.117	1.168	1.135	1.094	1.115	1.098	1.042	1.072	1.079	0.974	1.078	1.037	1.018	0.980	0.975	0.951	0.942	0.969	0.939	0.963	0.941	0.947	0.984
235.0	148.2	749.4	4237	5389	2373	111.9	18.50	15.23	12.53	11.27	11.01	9.875	8.941	7.687	6.991	6.277	5.511	5.157	5.308	4.418	4.376	3.781	3.809	3.787	3.689	3.324	3.169	3.166	2.719	2.616	2.664	2.547	2.581	2.261	2.321	2.089	2.017	1.897	1.932	1.793	1.656	1.681	1.828	1.665	1.700	1.524	2.016	4.917	11.31	20.13	29.47	24.19	14.01	3.582	1.226	1.220	1.186	1.178	1.067	1.054	1.055	1.018	1.115	1.001	1.127	1.027	1.029	1.023	0.882	0.970	0.924	0.988	0.985	0.968	0.892	1.184	0.999
240.0	187.8	268.8	1359	6343	9329	1908	64.42	19.44	15.71	13.11	11.43	10.33	9.660	7.597	7.313	6.522	5.505	5.435	5.048	4.975	4.478	4.109	3.969	3.659	3.529	3.526	3.128	3.087	2.857	2.787	2.594	2.624	2.616	2.252	2.434	1.989	2.009	2.028	1.968	1.860	1.580	1.632	1.529	1.683	1.844	1.902	1.787	2.242	3.578	6.597	17.06	41.40	51.49	25.00	11.98	2.289	1.234	1.131	1.171	1.161	1.158	1.167	1.128	1.093	1.065	1.099	1.077	1.050	0.994	0.988	0.992	1.104	1.064	0.962	0.966	1.012	1.018
245.0	162.3	234.9	383.9	2375	9999.9	8817	351.6	37.78	19.82	15.44	13.79	12.31	10.64	9.094	7.822	6.793	5.830	5.672	5.139	5.065	4.332	4.239	4.185	4.166	3.626	3.646	3.311	3.312	3.060	2.881	2.619	2.658	2.457	2.414	2.459	1.987	2.117	2.145	1.885	1.897	1.589	1.671	1.586	1.651	1.585	2.004	1.910	1.939	1.984	2.484	4.957	14.96	37.13	60.91	60.81	22.46	9.245	1.630	1.321	1.117	1.190	1.114	1.121	1.092	1.010	1.111	1.049	0.983	0.993	1.074	1.032	1.069	1.006	0.877	0.973	1.011	0.964
250.0	101.2	183.1	300.7	637.4	3626	9617	9999.9	4494	109.0	22.13	18.44	15.29	13.18	10.42	8.799	7.661	6.739	6.224	5.806	5.342	4.651	4.280	4.267	4.377	4.129	3.606	3.710	3.466	3.306	3.311	2.817	2.702	2.582	2.507	2.311	2.190	2.197	2.123	2.042	1.894	1.771	1.761	1.695	1.563	1.616	1.658	1.738	2.036	2.096	2.040	2.233	4.433	9.709	20.47	37.40	55.63	76.42	64.64	17.58	8.788	1.897	1.261	1.151	1.147	1.124	1.120	1.027	1.001	0.978	1.083	1.071	1.000	0.945	1.059	1.039	1.023	0.997
255.0	88.96	98.69	203.6	405.0	907.4	2465	9999.9	9999.9	1960	131.0	26.04	21.29	17.56	12.68	10.21	8.622	7.924	6.633	6.790	5.704	4.907	5.066	4.457	4.325	3.926	4.111	3.817	3.784	3.689	3.084	3.176	2.803	2.649	2.381	2.253	2.275	2.258	2.146	2.114	1.862	1.854	1.758	1.772	1.665	1.686	1.478	1.542	1.544	1.695	2.086	2.446	3.021	3.517	5.573	9.455	14.18	27.87	68.15	127.4	123.8	27.63	11.61	1.599	1.288	1.188	1.239	1.083	1.132	1.121	1.114	1.111	1.046	1.020	1.098	1.129	1.170	0.998
260.0	90.40	78.77	107.0	313.8	449.8	624.5	3153	9999.9	9999.9	1626	97.52	28.88	20.15	16.91	12.37	9.765	8.173	8.071	6.998	6.150	5.464	5.070	4.697	4.472	4.000	4.236	3.978	3.755	3.324	3.534	3.217	2.994	2.663	2.553	2.375	2.284	2.262	2.306	2.004	1.943	2.021	1.913	1.769	1.672	1.782	1.703	1.548	1.503	1.513	1.562	1.937	3.110	3.094	2.972	3.280	4.252	7.610	18.56	54.98	116.8	166.8	135.4	23.96	6.765	1.405	1.313	1.067	1.131	1.134	1.210	1.058	1.139	1.126	1.009	1.054	1.044	1.066
265.0	96.48	73.36	67.66	165.3	413.6	338.8	777.2	4316	9999.9	9999.9	1292	58.84	29.01	21.52	14.96	11.52	10.12	8.535	7.638	6.730	6.089	5.427	4.998	4.746	4.668	4.247	3.854	4.318	3.254	3.451	3.574	3.222	2.983	2.600	2.557	2.380	2.257	2.245	2.080	2.017	2.040	1.979	1.820	1.879	1.829	1.736	1.541	1.636	1.444	1.306	1.390	2.180	2.786	3.340	2.929	2.369	2.875	5.463	13.81	33.90	90.49	175.0	204.2	32.73	18.36	3.345	1.327	1.270	1.358	1.187	1.255	1.145	1.126	1.068	1.209	1.134	1.128
270.0	107.7	85.66	63.43	82.89	214.2	391.1	397.3	1061	4522	9999.9	9999.9	5447	92.76	33.16	21.62	15.98	13.13	10.53	9.415	8.002	7.105	6.211	5.924	5.323	4.938	4.758	4.395	4.250	3.719	3.716	3.797	3.461	3.049	2.866	2.757	2.338	2.369	2.370	2.223	2.229	1.995	2.062	1.979	1.938	1.832	1.909	1.681	1.624	1.463	1.367	1.294	1.538	1.846	2.313	3.060	3.498	3.397	3.121	4.456	8.841	21.99	49.03	96.06	135.3	192.3	158.1	101.9	13.29	3.986	1.488	1.367	1.292	1.266	1.170	1.145	1.195	1.217
275.0	125.7	105.5	73.34	61.98	94.64	194.6	509.5	471.5	1083	2646	9999.9	9999.9	7726	110.8	36.29	24.16	16.86	13.55	11.51	9.996	8.366	7.067	6.758	5.994	5.482	5.169	4.483	4.464	4.253	3.963	3.953	3.634	3.577	3.173	3.104	2.658	2.609	2.328	2.250	2.303	2.182	2.170	1.984	2.125	1.852	1.791	1.878	1.854	1.631	1.542	1.324	1.442	1.653	1.691	2.008	2.199	3.437	4.541	4.334	3.652	6.084	12.28	22.80	32.03	54.49	116.4	251.6	251.9	168.7	19.62	3.096	1.607	1.400	1.382	1.332	1.399	1.397
280.0	138.8	129.0	91.65	68.28	69.35	96.16	322.1	575.4	404.2	676.7	3181	9999.9	9999.9	5623	83.54	33.75	22.16	18.01	13.70	11.82	9.140	8.116	7.452	6.643	6.007	5.665	4.765	4.978	4.468	4.347	4.194	3.763	3.589	3.411	3.205	2.710	2.850	2.420	2.367	2.504	2.374	2.382	2.106	2.068	2.105	1.919	1.981	1.892	1.786	1.479	1.461	1.494	1.575	1.696	1.649	1.803	2.128	3.282	4.842	4.623	3.530	4.301	6.397	8.622	13.63	29.09	81.66	192.2	336.4	247.0	31.41	14.39	2.040	1.791	1.468	1.515	1.372
285.0	174.7	146.4	112.2	81.54	71.42	79.01	150.5	478.3	502.5	270.9	820.1	4411	9999.9	9999.9	849.0	60.25	30.81	22.91	17.27	13.73	11.02	9.626	7.824	7.138	6.018	5.910	5.218	5.229	4.724	4.461	4.518	3.986	3.926	3.414	3.464	3.023	3.159	2.579	2.543	2.467	2.172	2.328	2.126	2.239	2.269	2.037	2.077	2.089	1.808	1.700	1.587	1.580	1.685	1.713	1.589	1.620	1.797	2.138	3.000	4.637	5.049	4.085	3.165	3.314	4.439	8.167	19.91	48.15	124.2	266.0	377.5	224.4	25.99	8.630	1.966	1.716	1.793
290.0	218.0	202.9	155.4	115.9	88.30	79.33	99.90	212.1	486.8	453.5	336.5	1132	4577	9999.9	9999.9	9999.9	69.26	36.12	24.76	18.12	13.73	11.13	9.583	8.225	7.217	6.895	6.197	5.826	5.272	4.781	4.806	4.486	3.950	3.790	3.739	3.445	3.261	2.954	2.682	2.616	2.462	2.300	2.377	2.278	2.297	2.252	2.293	2.290	2.054	1.876	1.771	1.853	1.785	1.695	1.714	1.657	1.867	1.786	2.203	2.648	3.500	4.481	5.084	4.383	3.323	3.564	6.122	12.41	29.60	66.36	133.4	214.1	279.4	291.9	141.8	18.34	8.584
295.0	250.8	243.7	213.8	148.1	108.8	96.77	99.93	133.8	226.4	533.7	627.9	419.9	1178	2573	9999.9	9999.9	5190	80.63	38.21	25.90	19.12	14.67	12.31	10.46	8.223	7.979	6.877	6.562	5.661	5.421	5.153	4.699	4.347	3.987	4.135	3.414	3.359	3.138	2.891	2.678	2.629	2.380	2.530	2.407	2.519	2.520	2.295	2.406	2.237	1.982	1.988	2.144	1.980	1.854	1.799	1.759	1.804	1.988	1.902	2.185	2.355	2.607	3.314	4.975	5.953	4.648	3.634	4.494	8.519	16.48	31.62	49.83	67.63	119.7	270.6	449.8	258.0
300.0	284.8	285.2	260.3	178.6	126.2	116.5	115.3	130.9	174.0	322.1	778.0	532.5	453.8	732.7	2931	9999.9	9999.9	4045	67.76	35.47	24.57	18.61	14.23	11.78	9.843	9.013	7.889	7.006	6.141	5.665	5.279	4.898	4.528	4.220	4.233	3.529	3.474	3.297	3.214	2.998	2.819	2.630	2.527	2.552	2.596	2.551	2.493	2.509	2.351	2.179	2.006	2.199	2.015	1.960	1.954	1.910	2.234	2.072	2.116	2.253	2.218	2.463	2.758	3.147	4.925	6.538	5.483	4.086	3.950	5.746	9.081	13.06	17.10	29.11	73.31	207.5	405.6
305.0	323.5	325.0	284.0	204.2	153.9	129.0	134.6	152.9	188.6	259.2	544.5	836.3	425.6	345.8	799.6	3829	9999.9	9999.9	567.5	57.46	32.28	23.46	17.31	14.87	11.70	10.76	8.570	7.892	6.620	6.015	5.753	5.219	5.022	4.266	4.325	3.698	3.746	3.338	3.290	3.344	3.097	2.640	2.692	2.596	2.537	2.810	2.576	2.518	2.595	2.317	2.130	2.296	2.198	2.056	1.968	1.962	2.363	2.277	2.212	2.447	2.552	2.621	2.706	2.688	3.591	4.665	6.148	6.722	4.597	3.758	4.231	5.279	5.870	8.608	18.31	49.61	121.2
310.0	334.7	352.8	327.4	232.9	171.4	153.5	158.3	184.6	214.6	267.9	388.2	647.9	730.2	401.4	343.0	984.5	4257	9999.9	9999.9	9999.9	179.8	34.42	24.78	18.98	14.17	12.71	10.24	9.057	7.699	7.078	6.529	5.686	5.702	4.698	4.695	3.941	3.966	3.718	3.541	3.307	3.219	3.036	2.953	2.899	2.715	2.976	2.714	2.752	2.754	2.469	2.298	2.524	2.364	2.307	2.145	2.179	2.430	2.476	2.489	2.592	2.682	2.779	2.922	2.896	3.215	3.605	4.083	5.142	5.626	5.878	4.741	3.965	3.693	4.028	6.188	13.00	28.98
315.0	372.0	396.7	367.5	251.8	184.4	173.6	182.6	208.6	239.2	292.5	370.6	460.7	607.8	705.9	334.6	350.2	1055	2519	9999.9	9999.9	3905	64.36	37.00	26.20	18.49	15.43	12.04	10.92	9.079	8.110	7.027	6.001	6.164	5.112	5.135	4.325	4.070	3.915	3.736	3.557	3.385	3.403	3.202	2.986	3.081	3.271	3.011	3.075	2.923	2.584	2.332	2.635	2.473	2.523	2.479	2.534	2.621	2.513	2.639	2.648	2.900	2.913	2.953	3.082	3.374	3.596	3.603	4.093	4.174	4.629	5.925	6.338	4.856	3.633	3.618	4.909	8.435
320.0	400.4	473.5	461.2	307.8	214.2	186.2	207.2	231.5	272.7	324.0	389.0	441.1	489.7	678.8	534.8	245.9	347.8	660.4	2932	9999.9	9999.9	3247	58.30	34.61	24.55	18.93	14.33	12.56	10.18	8.730	8.178	7.021	6.906	5.666	5.383	4.634	4.507	4.028	3.846	3.665	3.448	3.345	3.278	3.150	3.341	3.427	3.247	3.369	3.358	2.842	2.767	2.839	2.571	2.570	2.611	2.522	2.615	2.591	3.039	2.815	2.949	3.150	3.200	3.371	3.608	3.703	3.755	3.652	3.792	3.868	4.583	5.643	6.147	5.092	3.406	3.305	3.964
325.0	455.1	591.5	596.9	388.6	247.2	218.3	229.3	258.9	296.6	343.6	423.7	464.2	467.5	513.3	644.8	355.4	206.3	246.0	745.4	4082	9999.9	9999.9	447.7	52.08	31.18	24.00	17.05	13.97	11.43	10.16	8.767	7.832	6.885	6.039	5.518	5.112	4.866	4.352	4.061	3.963	3.502	3.451	3.533	3.441	3.582	3.506	3.607	3.985	3.808	3.451	3.191	3.072	2.682	2.692	2.707	2.639	2.771	2.948	3.183	3.038	3.077	3.363	3.523	3.514	3.483	3.678	3.770	3.682	3.990	3.820	4.131	4.391	5.150	6.418	5.271	3.859	3.170
330.0	519.7	696.6	741.2	508.0	330.5	272.1	270.7	289.1	327.4	375.7	448.8	486.2	481.3	449.2	482.2	498.7	299.5	170.7	254.2	998.3	4576	9999.9	9999.9	9999.9	150.1	34.49	23.22	18.23	14.28	11.95	10.18	9.038	7.840	6.759	6.027	5.505	4.982	4.635	4.321	4.071	3.795	3.511	3.469	3.469	3.752	3.867	3.882	4.438	4.436	3.851	3.496	3.363	3.264	3.195	2.966	2.837	3.068	3.136	3.154	3.238	3.336	3.561	3.732	3.726	3.800	3.878	3.950	3.899	3.959	4.071	3.978	4.012	4.180	4.460	4.844	5.043	4.698
335.0	554.5	787.5	828.9	606.9	424.2	336.5	319.9	331.0	362.7	409.0	471.0	499.8	497.2	450.2	397.9	380.9	457.3	252.3	156.9	305.0	1097	2534	9999.9	9999.9	3280	56.92	34.64	25.60	18.52	14.29	12.51	10.21	8.941	7.652	6.556	5.660	5.373	4.724	4.519	4.310	4.134	3.880	3.586	3.738	4.109	3.991	4.356	4.872	4.871	4.384	3.952	3.920	3.639	3.659	3.262	3.322	3.537	3.493	3.558	3.285	3.429	3.667	3.818	3.881	3.879	3.814	4.105	3.926	4.344	4.058	4.295	4.072	4.118	3.821	4.008	3.954	4.317
340.0	587.0	810.3	884.6	685.8	490.7	398.5	373.8	366.2	383.8	424.4	474.4	507.3	504.6	461.0	387.6	319.7	383.9	385.9	173.5	156.7	323.6	643.4	3137	9999.9	9999.9	2812	51.39	32.64	23.15	17.90	14.41	11.46	9.224	8.117	7.011	5.972	5.746	4.902	4.642	4.417	4.223	4.049	3.808	3.979	4.268	4.220	4.211	4.912	5.008	4.526	4.149	4.389	4.099	3.888	3.493	3.509	3.817	3.568	3.586	3.421	3.858	3.494	3.916	4.072	3.826	3.848	4.389	4.205	4.411	4.267	4.383	4.072	4.012	3.648	3.643	3.560	3.743
345.0	572.9	812.1	895.1	728.7	536.2	456.6	414.7	393.7	397.3	428.9	476.2	492.5	501.1	452.5	385.5	307.4	291.1	392.2	282.7	141.6	155.2	221.5	781.9	4581	9999.9	9999.9	388.4	45.74	28.82	21.70	16.49	12.91	10.22	8.451	7.285	6.392	5.714	5.519	4.786	4.531	4.348	4.052	3.771	3.969	4.012	4.178	4.351	4.835	5.185	4.511	4.253	4.589	4.017	3.965	3.815	3.591	3.769	3.648	3.719	3.649	3.695	3.735	3.929	4.018	3.930	4.005	4.022	4.053	4.268	4.279	4.368	3.990	3.902	3.770	3.630	3.526	3.533
350.0	558.1	770.2	874.6	744.1	593.5	513.8	462.4	435.4	424.1	442.3	464.9	479.5	482.3	444.0	382.9	311.2	268.4	283.2	333.0	243.9	143.8	134.8	252.0	1102	5139	9999.9	9999.9	8876	46.10	29.18	21.38	15.84	12.26	10.05	8.453	7.076	6.432	5.664	5.326	4.742	4.430	4.110	4.057	3.975	4.054	4.082	4.306	4.627	4.962	4.587	4.253	4.598	4.299	4.289	4.309	3.972	4.092	3.937	4.136	3.952	3.823	3.971	3.991	4.041	4.033	4.127	4.063	3.883	4.126	4.149	4.050	3.917	3.888	3.626	3.550	3.422	3.405
355.0	532.2	733.3	826.0	751.1	640.9	574.9	519.2	483.0	466.5	457.8	464.1	469.7	467.8	431.3	386.3	323.4	276.5	246.8	253.4	321.6	227.1	134.1	141.6	321.3	1210	2624	9999.9	9999.9	2989	50.41	29.11	20.27	15.99	12.13	9.881	7.701	7.029	6.047	5.661	4.999	4.601	4.181	4.189	4.031	4.219	4.262	3.982	4.503	4.999	4.349	4.271	4.764	4.582	4.581	4.320	4.379	4.356	4.334	4.140	4.216	3.947	4.237	4.363	4.006	4.170	3.774	4.207	3.812	4.211	4.090	4.007	4.162	3.888	3.762	3.571	3.524	3.423
360.0	523.4	712.9	771.1	741.0	666.5	603.4	549.3	517.2	484.4	476.2	468.9	466.1	458.6	430.0	385.6	329.4	285.0	253.0	232.8	274.8	310.1	176.5	126.6	152.5	338.9	653.8	3363	9999.9	9999.9	2477	45.49	27.45	20.03	14.17	10.83	8.448	7.641	6.511	5.946	5.039	4.841	4.393	4.195	4.152	4.186	4.257	4.033	4.756	4.980	4.401	4.225	4.766	4.914	4.621	4.269	4.342	4.564	4.727	4.310	4.147	4.274	4.367	4.302	4.050	4.202	3.929	3.779	3.879	4.024	3.817	3.921	3.688	4.046	3.778	3.615	3.593	3.725
365.0	499.6	686.6	753.3	722.6	675.8	620.1	581.1	539.5	496.9	489.7	466.8	459.2	447.8	420.8	383.0	337.8	292.4	264.0	237.1	233.0	306.5	261.2	146.5	122.5	149.3	214.2	822.0	5343	9999.9	9999.9	355.2	39.77	25.35	17.69	12.83	9.874	8.392	7.229	6.021	5.445	4.792	4.375	4.400	4.100	4.108	4.004	4.182	4.742	4.883	4.654	4.181	4.708	4.760	4.548	4.588	4.540	4.795	4.781	4.489	4.420	4.240	4.171	4.356	4.091	4.023	4.037	3.997	3.847	4.001	3.817	3.821	3.507	4.190	3.726	3.932	3.493	3.762
370.0	467.6	635.5	735.0	714.2	677.6	631.2	595.2	550.9	521.5	502.7	478.1	460.3	441.1	414.1	381.8	339.6	307.3	276.6	250.0	232.5	246.0	287.8	238.4	144.6	120.9	121.6	247.9	1268	6035	9999.9	9999.9	7867	40.67	25.25	17.40	12.27	10.06	8.352	7.005	6.246	5.349	4.748	4.515	4.326	4.245	4.185	4.269	4.713	4.741	4.335	4.088	4.851	4.679	4.712	4.764	4.602	4.848	4.630	4.524	4.489	4.415	4.401	4.289	4.252	4.104	4.052	4.028	3.607	3.771	3.885	3.973	3.630	3.871	3.884	3.799	3.709	3.636
375.0	471.6	586.2	700.2	696.2	665.1	646.6	605.3	555.5	528.4	512.8	486.6	457.3	437.1	407.6	380.2	344.0	317.1	292.5	266.9	247.8	233.1	239.2	283.2	224.8	136.1	112.9	125.7	342.9	1402	2758	9999.9	9999.9	2592	42.55	24.17	16.63	12.80	9.965	7.852	6.863	5.758	5.121	4.889	4.908	4.392	4.282	4.198	4.478	4.485	4.333	4.179	5.004	4.579	4.671	4.836	4.785	4.716	4.745	4.629	4.462	4.298	4.563	4.382	4.084	4.338	4.117	3.819	3.861	3.818	3.711	3.844	3.841	3.927	3.795	3.748	3.712	3.624
380.0	425.3	586.8	666.2	667.5	659.7	646.7	610.8	561.9	523.2	506.4	489.5	456.0	435.8	403.4	376.1	341.8	321.3	298.0	280.3	258.6	242.4	226.1	246.6	281.5	180.5	121.8	106.7	142.4	370.3	675.3	3679	9999.9	9999.9	2070	36.61	20.69	15.94	11.75	9.252	7.703	6.283	5.452	5.311	4.844	4.476	4.650	4.353	4.624	4.636	4.236	4.138	4.998	4.887	4.817	4.918	4.461	4.882	4.906	4.702	4.537	4.525	4.631	4.371	4.368	4.149	4.064	4.003	3.943	3.809	4.148	3.899	3.966	3.849	3.829	3.586	3.621	3.708
385.0	425.2	551.8	633.1	654.7	653.0	646.4	602.5	557.7	525.9	498.4	484.8	450.9	433.3	398.1	372.6	339.7	323.2	299.6	286.3	267.2	250.6	228.9	224.3	266.5	241.6	145.6	111.7	104.5	146.9	205.9	886.1	5642	9999.9	9999.9	289.3	29.51	19.37	13.81	11.16	8.537	7.351	6.070	5.666	5.070	4.683	4.569	4.306	4.795	4.551	4.144	4.086	4.655	4.965	4.648	4.648	4.589	4.651	4.715	4.559	4.640	4.390	4.478	4.395	4.322	4.251	4.205	4.062	3.816	3.735	3.947	3.704	3.632	3.607	3.711	3.392	3.500	3.727
390.0	417.6	521.4	606.2	630.6	641.1	635.1	591.1	551.2	519.0	495.8	470.8	449.0	419.2	390.0	364.3	337.5	319.6	304.0	290.2	273.8	256.3	236.6	223.7	224.3	245.9	214.0	137.7	106.4	102.3	106.5	250.2	1324	5859	9999.9	9999.9	6237	31.95	18.79	14.17	10.47	8.620	7.128	6.009	5.497	5.212	4.981	4.690	4.864	4.567	4.131	4.200	4.687	4.874	4.763	4.785	4.676	4.959	4.640	4.647	4.542	4.230	4.539	4.311	4.313	4.174	4.051	4.111	3.932	3.586	3.801	3.811	3.814	3.723	3.847	3.550	3.585	3.730
395.0	391.4	505.9	580.5	607.8	614.1	615.6	570.7	542.3	511.5	484.6	467.8	436.2	409.2	388.2	357.7	330.8	313.6	300.7	292.0	276.5	260.1	246.2	231.2	216.7	210.5	234.4	201.7	127.4	101.8	90.77	112.7	342.6	1350	2743	9999.9	9999.9	2164	34.79	20.19	14.22	10.29	8.411	7.041	6.171	5.958	5.290	4.770	5.040	4.441	4.325	4.113	4.732	4.827	4.709	4.623	4.490	4.897	4.674	4.703	4.578	4.152	4.572	4.225	4.041	3.915	3.897	3.971	3.763	3.746	3.716	3.654	3.720	3.578	3.745	3.685	3.465	3.745
400.0	401.3	491.4	564.9	590.1	598.3	590.9	558.4	526.5	503.8	474.1	451.4	427.4	397.6	373.8	351.1	327.1	308.8	299.6	286.9	273.7	260.2	249.1	235.0	218.0	201.1	211.1	232.3	163.5	112.0	93.36	85.83	126.4	343.6	657.5	3610	9999.9	9999.9	1740	30.52	17.39	12.18	9.346	7.807	6.344	6.164	5.316	4.935	4.924	4.868	4.317	4.075	4.597	4.766	4.768	4.575	4.671	4.746	4.757	4.601	4.455	3.993	4.176	4.330	4.170	3.802	3.931	3.905	3.817	3.818	3.667	3.855	3.775	3.569	3.527	3.617	3.660	3.654
405.0	391.5	484.8	544.0	577.5	577.7	583.7	557.2	517.7	494.5	465.3	441.1	418.5	394.2	364.8	342.0	320.6	305.9	295.5	284.0	270.9	257.7	249.3	236.3	220.7	202.4	194.6	213.7	206.1	134.5	99.76	83.79	80.37	120.7	185.4	852.6	5070	9999.9	9999.9	259.1	24.91	14.94	11.21	8.793	7.420	6.390	5.802	5.304	4.947	4.943	4.260	4.038	4.502	4.442	4.850	4.620	4.414	4.623	4.739	4.332	4.448	4.279	4.076	4.117	4.064	3.904	3.852	3.798	3.756	3.632	3.781	3.624	3.729	3.898	3.707	3.505	3.441	3.541
410.0	371.9	454.0	521.5	537.3	554.3	554.3	527.2	504.6	478.8	452.9	429.6	406.7	381.4	358.4	333.6	308.4	294.8	285.2	275.0	264.2	256.5	245.4	235.8	222.0	205.6	189.8	185.2	202.5	180.4	121.8	90.99	75.03	73.86	80.45	223.6	1179	5119	9999.9	9999.9	5735	27.28	14.71	11.21	8.437	7.541	6.441	5.511	5.274	5.026	4.486	4.134	4.547	4.513	4.583	4.592	4.472	4.596	4.731	4.378	4.217	4.218	4.210	4.188	4.010	3.821	3.851	3.781	3.629	3.534	3.638	3.385	3.449	3.646	3.446	3.411	3.411	3.401
