Sample:	'1
File name:	L2025090905ÀûºÓÂ·ÇÅ.FD3
Run date:	'17:46:07, 09/09/2025
Operator:	Administrator
Comment:	'

Instrument
Model:	F-2700 FL Spectrophotometer
Serial number:	3064-004
ROM Version:	4J14000 07

Instrument parameters
Measurement type:	3-D scan
Data mode:	Fluorescence
EX  Start WL:	220.0 nm
EX  End WL:	600.0 nm
EX Sampling interval:	5.0 nm
EM  Start WL:	230.0 nm
EM  End WL:	650.0 nm
EM Sampling interval:	5.0 nm
Scan speed:	12000 nm/min
EX Slit:	5.0 nm
EM Slit:	5.0 nm
PMT Voltage:	700 V
Response:	Auto 
Corrected spectra:	Off
Contour interval:	50.000

Peak integration
Integration method:	Rectangular
Sensitivity:	1
Threshold:	1.000

Peaks
No.	ApexEX/EM(nm)	Height(Data)
1	225.0/615.0	34.15
2	230.0/600.0	47.73
3	230.0/630.0	32.26
4	235.0/590.0	47.22
5	235.0/625.0	37.89
6	245.0/265.0	314.0
7	245.0/530.0	272.6
8	250.0/380.0	 1451
9	250.0/545.0	252.3
10	255.0/280.0	647.6
11	255.0/395.0	 1475
12	255.0/555.0	209.9
13	260.0/285.0	865.8
14	260.0/405.0	 1440
15	260.0/570.0	188.9
16	265.0/290.0	 1046
17	265.0/580.0	190.8
18	270.0/295.0	 1504
19	270.0/590.0	177.0
20	275.0/305.0	 1873
21	275.0/605.0	161.6
22	280.0/310.0	 1783
23	280.0/615.0	132.6
24	285.0/315.0	 1706
25	285.0/375.0	 1567
26	285.0/630.0	105.1
27	290.0/320.0	 1595
28	290.0/640.0	90.24
29	305.0/340.0	 1140
30	315.0/355.0	966.0
31	320.0/360.0	 1036
32	325.0/365.0	 1022
33	335.0/380.0	 1034
34	460.0/345.0	4.071
35	460.0/545.0	31.06
36	495.0/270.0	2.123
37	505.0/275.0	2.788
38	510.0/280.0	3.328
39	520.0/285.0	4.204
40	530.0/290.0	4.679
41	545.0/300.0	7.858
42	550.0/305.0	8.041
43	560.0/310.0	7.805
44	570.0/315.0	7.747
45	575.0/320.0	8.177
46	580.0/325.0	7.622
47	580.0/365.0	7.500
48	590.0/330.0	6.731

Data points
	220.0	225.0	230.0	235.0	240.0	245.0	250.0	255.0	260.0	265.0	270.0	275.0	280.0	285.0	290.0	295.0	300.0	305.0	310.0	315.0	320.0	325.0	330.0	335.0	340.0	345.0	350.0	355.0	360.0	365.0	370.0	375.0	380.0	385.0	390.0	395.0	400.0	405.0	410.0	415.0	420.0	425.0	430.0	435.0	440.0	445.0	450.0	455.0	460.0	465.0	470.0	475.0	480.0	485.0	490.0	495.0	500.0	505.0	510.0	515.0	520.0	525.0	530.0	535.0	540.0	545.0	550.0	555.0	560.0	565.0	570.0	575.0	580.0	585.0	590.0	595.0	600.0
230.0	16.96	383.7	 2650	 1234	103.5	7.697	6.747	5.506	4.451	4.909	4.038	3.997	4.070	4.352	3.809	2.508	2.599	2.147	1.901	2.029	1.691	1.587	1.437	1.143	0.945	1.022	0.829	1.109	0.910	0.953	0.846	0.730	0.691	0.802	0.668	0.763	0.634	0.682	0.635	0.372	0.548	0.651	0.546	0.537	0.520	0.464	1.315	4.807	7.862	5.668	2.151	0.523	0.374	0.311	0.278	0.262	0.361	0.185	0.265	0.188	0.245	0.199	0.180	0.275	0.260	0.139	0.207	0.136	0.122	0.118	0.096	0.119	0.122	0.125	0.176	0.193	0.143
235.0	32.22	105.1	 1213	 2569	 1123	181.4	8.905	9.150	4.838	5.755	3.797	4.770	3.698	3.598	2.484	2.639	2.621	1.909	1.999	2.990	1.887	1.422	1.367	1.272	1.652	0.774	1.235	0.996	0.875	0.845	0.696	0.607	0.639	0.837	0.822	1.040	0.581	0.712	0.689	0.609	0.534	0.525	0.416	0.691	0.629	0.500	0.664	1.374	2.991	5.765	7.787	6.677	3.475	0.995	0.226	0.260	0.328	0.358	0.349	0.128	0.374	0.272	0.096	0.075	0.283	0.163	0.069	0.108	0.108	0.154	0.092	0.011	0.132	0.123	0.143	0.102	0.167
240.0	51.92	69.91	316.2	 1507	 3931	972.6	55.78	6.895	8.722	4.418	6.186	6.043	3.785	3.001	2.810	2.951	2.554	2.734	2.332	2.367	1.898	2.037	1.692	1.925	1.520	1.237	1.081	1.050	1.059	0.900	0.614	1.096	0.605	0.627	0.877	0.787	0.529	0.523	0.746	0.659	0.801	0.496	0.417	0.497	0.934	0.840	0.871	0.556	0.951	1.841	4.669	9.201	11.20	7.012	2.154	0.619	0.345	0.219	0.389	0.203	0.247	0.168	0.264	0.140	0.075	0.142	0.326	0.103	0.135	0.129	0.298	0.294	-0.013	0.079	0.136	0.096	0.128
245.0	29.02	104.2	122.5	415.9	 2801	 4292	715.7	28.03	7.593	6.614	7.142	6.627	4.312	4.213	3.377	3.464	2.204	3.383	2.020	1.896	1.929	1.969	1.735	1.772	1.583	1.192	1.247	0.854	1.062	0.952	0.588	0.914	0.633	0.836	0.870	0.580	0.385	0.566	0.588	0.530	0.770	0.531	0.306	0.414	0.706	0.729	0.924	0.775	0.719	0.718	1.432	3.335	8.130	12.73	12.85	5.967	1.484	0.192	0.209	0.292	0.209	0.259	0.242	0.240	0.038	0.171	0.212	0.170	0.161	0.355	0.218	0.191	0.183	0.198	0.237	0.169	0.154
250.0	9.812	54.57	143.7	180.8	753.8	 2594	 3934	 2171	190.3	9.252	8.414	7.690	5.009	4.328	4.328	3.705	2.758	2.794	2.290	2.133	1.637	1.971	1.793	1.338	1.405	1.252	1.048	1.218	0.970	0.995	0.896	1.060	0.788	1.029	0.815	0.606	0.389	0.536	0.432	0.486	0.758	0.569	0.418	0.461	0.501	0.642	0.601	0.759	0.998	0.778	0.753	1.111	2.166	4.486	9.102	11.91	14.47	12.24	6.007	1.678	0.379	0.222	0.159	0.282	0.192	0.258	0.181	0.117	0.247	0.268	0.244	0.148	0.197	0.190	0.257	0.071	0.151
255.0	9.115	20.10	67.72	220.1	301.7	611.7	 1792	 5445	 3456	240.1	12.36	10.73	5.722	5.347	5.549	3.742	3.186	3.559	3.906	2.472	1.913	2.004	1.913	1.176	1.301	1.279	1.079	1.189	1.306	1.225	1.372	1.059	0.919	0.886	0.981	0.491	0.848	0.585	0.458	0.575	0.501	0.620	0.460	0.329	0.532	0.625	0.468	0.805	0.794	0.937	1.273	1.075	0.905	1.220	2.358	3.203	6.535	15.26	24.71	21.40	9.062	1.606	0.276	0.290	0.209	0.246	0.282	0.046	0.339	0.290	0.197	0.362	0.159	0.087	0.255	0.378	0.262
260.0	7.564	22.53	31.03	144.4	324.2	223.0	463.5	 2863	 7166	 3016	115.5	12.16	8.666	7.350	6.043	3.999	3.450	3.482	2.679	2.236	1.827	2.490	1.992	1.469	1.420	1.616	1.460	1.242	1.151	1.109	1.044	1.095	0.835	0.665	0.592	0.651	0.568	0.656	0.507	0.498	0.395	0.445	0.748	0.504	0.552	0.428	0.431	0.582	0.475	0.519	0.901	1.270	1.869	0.974	0.873	1.139	1.783	4.811	12.97	25.39	31.63	21.43	5.795	0.546	0.360	0.493	0.318	0.253	0.399	0.265	0.186	0.208	0.010	0.141	0.143	0.374	0.330
265.0	9.366	18.34	20.26	60.45	273.6	314.0	152.2	769.6	 4513	 8471	 2259	51.10	10.66	8.464	6.067	4.090	4.106	3.855	2.763	2.582	2.081	2.036	2.417	1.630	1.381	1.503	1.050	1.039	1.481	0.949	1.205	0.809	0.695	0.836	0.723	0.773	0.524	0.731	0.401	0.626	0.270	0.583	0.736	0.426	0.731	0.512	0.450	0.641	0.366	0.464	0.557	0.823	1.881	1.776	1.364	0.691	0.760	1.450	3.583	8.988	21.24	36.55	36.74	17.08	2.764	0.403	0.348	0.321	0.390	0.212	0.304	0.215	0.143	0.101	0.062	0.253	0.102
270.0	23.70	20.57	23.09	27.80	104.4	302.1	352.7	259.2	 1192	 4522	 8390	 4579	157.6	14.45	9.374	6.651	5.071	4.107	3.023	2.946	2.350	2.427	2.173	1.632	1.745	1.458	1.461	1.267	1.126	0.983	1.308	0.950	0.633	0.748	0.767	0.663	0.551	0.674	0.588	0.627	0.465	0.515	0.801	0.617	0.480	0.723	0.578	0.686	0.390	0.450	0.524	0.481	0.865	1.016	1.705	2.123	1.568	1.054	1.137	2.422	5.622	11.99	22.28	33.37	37.58	29.35	14.08	2.717	0.316	0.181	0.149	0.229	0.194	0.143	0.124	0.268	0.114
275.0	59.64	55.33	60.38	40.75	50.54	116.7	396.8	508.2	375.5	 1116	 3277	9999.9	 3026	186.4	14.04	8.822	6.410	4.593	3.971	2.989	2.708	2.513	2.236	2.321	1.745	1.471	1.715	1.568	0.879	1.387	1.411	1.056	1.019	0.756	0.811	0.747	0.930	0.882	0.870	0.709	0.727	0.693	0.680	0.692	0.782	0.648	0.795	0.632	0.606	0.636	0.530	0.573	0.563	0.634	0.614	1.173	2.354	2.788	2.020	1.303	1.842	3.096	5.568	8.649	14.69	34.03	56.57	44.90	18.45	1.988	0.282	0.271	0.208	0.262	0.174	0.244	0.249
280.0	105.1	113.3	113.1	77.80	56.55	68.39	207.5	647.6	488.1	421.2	970.9	 4611	9999.9	 2452	103.8	11.37	8.392	5.749	5.031	4.477	3.300	2.946	2.125	2.785	2.097	1.742	1.518	1.499	1.063	1.275	1.467	0.801	0.941	1.154	0.633	1.014	1.040	1.004	1.137	1.014	0.920	0.893	0.915	1.039	1.116	0.899	0.966	0.872	0.659	0.793	0.665	0.426	0.529	0.455	0.459	0.538	1.137	1.956	3.328	3.024	1.838	1.292	2.018	2.766	4.503	10.40	26.03	55.50	71.00	38.31	9.315	0.692	0.366	0.260	0.275	0.314	0.345
285.0	155.3	181.5	194.7	139.3	87.02	86.05	143.9	416.3	865.8	483.2	519.6	 1427	 6198	9999.9	 1770	45.28	10.16	7.467	5.639	4.079	3.943	3.267	2.405	2.425	2.146	2.030	1.450	1.419	1.190	1.392	1.462	0.999	0.921	1.089	0.884	1.062	1.077	1.244	1.302	1.284	0.849	1.087	1.101	1.201	1.331	1.213	1.097	1.357	0.953	1.020	0.920	0.653	0.678	0.790	0.778	0.821	0.766	1.231	2.439	3.923	4.204	2.813	1.732	1.580	2.076	3.854	7.335	17.87	40.39	72.37	54.04	27.00	3.365	0.291	0.347	0.355	0.210
290.0	226.7	281.8	303.3	233.8	152.1	142.1	169.8	281.5	643.2	 1046	793.2	816.7	 1899	 5622	9999.9	 5603	97.75	12.09	7.808	5.533	4.410	3.379	3.115	2.753	2.449	2.303	1.743	1.957	1.334	1.572	1.253	0.992	1.140	1.140	0.930	0.986	1.219	1.457	1.306	1.444	1.333	1.252	1.295	1.421	1.656	1.870	1.723	1.545	1.410	1.200	1.017	1.026	0.898	0.847	0.743	1.043	1.006	1.374	1.623	2.340	3.489	4.185	4.679	3.745	3.244	2.938	3.587	5.914	10.94	22.14	35.29	52.45	54.64	47.96	19.36	3.850	0.448
295.0	254.5	354.1	408.8	328.9	222.8	211.1	230.1	300.3	472.8	850.3	 1504	 1037	 1005	 1629	 3331	9999.9	 8025	123.5	11.47	7.417	5.659	4.060	4.047	3.125	3.369	2.905	2.127	1.878	1.539	1.865	1.462	1.281	1.150	1.149	1.087	0.970	1.602	1.598	1.672	1.617	1.747	1.605	1.220	1.654	1.835	1.721	2.209	1.874	1.733	1.637	1.092	1.478	1.051	1.189	1.086	1.373	1.177	1.522	1.701	1.857	2.418	2.866	4.016	5.850	6.530	4.805	3.483	3.890	4.922	6.783	9.072	13.38	19.02	45.40	80.45	54.19	26.50
300.0	289.8	375.6	444.3	386.3	301.9	248.0	276.9	345.9	475.1	707.3	 1396	 1659	987.6	852.4	 1031	 3977	9999.9	 1457	80.93	9.410	7.572	4.572	4.509	3.492	2.748	3.215	2.022	2.003	1.662	1.799	1.451	1.202	1.466	1.043	1.177	1.093	1.414	1.477	1.510	1.618	1.667	1.629	1.687	1.696	1.939	2.206	2.231	1.879	1.876	1.572	1.328	1.480	1.407	1.281	1.132	1.331	1.410	1.562	1.603	2.053	2.143	2.556	2.965	4.120	6.761	7.858	5.904	4.875	3.921	3.619	3.839	4.602	5.559	12.56	30.66	66.64	94.19
305.0	292.5	401.1	467.0	410.1	333.2	296.5	335.3	410.6	529.1	732.0	 1120	 1873	 1444	797.9	610.4	 1142	 5247	9999.9	 1183	40.88	9.504	6.557	5.462	3.743	3.256	2.810	2.370	1.753	1.724	1.691	1.407	1.079	1.338	1.247	1.213	1.284	1.012	1.455	1.753	1.612	1.894	1.772	1.955	1.930	1.766	2.065	1.979	2.240	1.878	1.713	1.620	1.444	1.603	1.451	1.269	1.554	1.522	1.559	2.096	2.235	2.381	2.428	3.276	4.201	4.850	6.867	8.041	7.397	5.111	3.485	3.511	3.064	2.770	4.281	7.898	19.09	47.12
310.0	291.0	401.3	486.3	428.0	352.2	356.8	398.7	481.7	608.4	772.9	 1031	 1418	 1783	 1285	679.7	580.0	 1425	 4866	 8883	 4687	71.79	9.772	7.160	5.154	3.949	3.305	2.804	2.223	2.118	1.988	2.014	1.653	1.362	1.210	1.076	1.313	1.254	1.550	1.847	1.794	1.934	1.727	1.595	1.776	1.684	1.783	1.966	2.204	1.862	1.703	1.464	1.768	1.738	1.651	1.590	1.754	1.850	1.989	2.194	2.427	2.561	2.682	3.415	3.555	4.287	5.068	6.006	7.306	7.805	6.776	4.882	3.233	2.800	2.814	3.295	5.822	12.17
315.0	284.2	388.4	487.6	470.1	372.9	373.7	429.0	539.1	673.3	822.0	 1053	 1255	 1430	 1706	 1131	578.3	613.2	 1283	 2734	9999.9	 6669	95.36	10.04	6.715	5.232	4.103	3.150	2.690	1.856	2.458	2.140	1.589	1.252	1.657	1.314	1.192	1.576	1.335	1.661	1.600	1.712	1.824	1.904	1.691	1.955	1.914	2.384	2.152	1.909	1.943	1.518	1.649	1.788	1.644	1.738	2.260	1.933	2.274	2.139	2.722	3.110	3.157	3.077	3.898	4.073	4.360	4.967	5.341	6.074	6.935	7.747	6.760	4.310	3.084	2.834	3.292	4.356
320.0	312.5	460.4	572.5	547.8	427.5	404.6	441.5	571.2	715.0	872.2	 1092	 1262	 1358	 1480	 1595	806.7	506.4	539.3	771.1	 3643	9999.9	 4926	64.38	8.946	5.542	4.845	3.714	2.928	2.016	2.051	2.370	1.840	1.571	1.432	1.314	1.634	1.292	1.365	1.747	1.693	1.802	1.869	1.920	1.725	1.733	2.130	2.241	2.528	2.537	2.210	1.754	1.976	2.097	1.644	1.901	2.074	2.365	2.573	2.608	2.970	3.196	3.631	3.816	3.962	4.349	4.733	5.439	5.686	5.881	5.782	6.980	8.177	6.501	4.762	3.179	2.681	2.815
325.0	350.9	530.1	726.6	675.3	530.1	461.3	498.4	604.1	750.5	909.6	 1104	 1283	 1365	 1363	 1570	 1251	603.0	444.2	379.1	968.2	 4995	9999.9	902.3	37.45	8.500	6.306	4.244	3.409	2.786	2.378	2.014	1.676	1.907	1.632	1.099	1.564	1.494	1.401	1.675	1.424	1.814	1.618	1.828	2.005	1.991	2.864	2.518	3.040	3.346	2.533	2.164	2.125	2.188	1.974	2.003	2.436	2.093	2.727	3.067	2.883	3.315	3.477	4.272	4.026	4.819	4.805	5.435	5.525	5.505	5.526	6.146	6.315	7.622	6.970	4.982	3.528	3.102
330.0	332.2	590.0	827.2	824.6	618.3	524.3	546.0	659.8	774.4	926.8	 1149	 1305	 1409	 1370	 1327	 1340	 1036	557.3	368.2	415.8	 1291	 4555	 8630	 3711	58.02	9.113	5.597	4.088	3.377	2.670	2.264	1.738	1.678	1.799	1.531	1.450	1.574	1.560	1.655	1.526	1.806	1.717	1.545	2.118	2.111	2.780	2.986	3.376	3.225	3.081	2.613	2.685	2.630	2.195	2.083	2.166	2.339	2.804	2.862	2.976	3.369	3.826	3.844	4.300	4.758	4.756	5.662	5.501	5.738	5.981	6.229	5.779	5.898	6.487	6.731	6.125	5.435
335.0	368.8	618.6	930.5	933.6	731.3	617.0	609.1	692.7	811.6	965.5	 1188	 1344	 1427	 1410	 1301	 1156	 1170	947.6	483.1	366.8	480.9	 1160	 2690	 9294	 5524	78.27	9.589	6.117	4.604	3.455	3.107	2.179	2.145	1.968	1.428	1.444	1.623	1.271	1.371	1.316	1.954	1.840	1.687	2.022	2.226	2.739	2.887	3.469	3.573	3.422	3.138	2.879	2.945	2.707	2.827	2.531	2.623	2.945	3.316	3.031	3.578	4.045	4.066	4.380	5.135	5.433	5.267	5.821	5.908	5.825	6.075	5.775	5.554	5.615	5.747	5.992	6.973
340.0	351.2	607.8	967.6	 1024	822.2	720.2	687.6	725.3	847.3	 1014	 1195	 1335	 1443	 1449	 1334	 1140	 1032	 1140	707.9	419.6	365.0	445.3	737.9	 3650	9999.9	 4164	54.23	10.13	5.737	4.436	3.161	2.773	2.113	1.806	2.011	1.606	1.744	1.630	1.722	1.681	1.845	1.734	1.889	2.116	2.341	2.751	3.099	3.596	3.826	3.631	3.187	3.351	3.147	2.871	2.879	2.720	3.300	2.728	3.155	3.354	3.198	4.063	4.116	4.269	4.773	5.163	5.532	5.274	5.986	6.126	6.410	5.908	5.173	6.227	5.233	5.153	6.082
345.0	339.5	587.7	941.4	 1083	932.7	822.9	756.7	806.0	904.3	 1045	 1207	 1334	 1446	 1460	 1375	 1170	996.0	 1032	 1000	561.7	392.4	344.1	341.4	970.6	 5167	9999.9	747.0	33.78	7.781	5.320	4.194	2.927	2.449	2.283	2.179	1.842	1.684	1.907	1.841	1.776	1.734	1.712	1.949	2.083	2.421	2.959	3.037	3.534	4.071	3.434	3.494	3.594	3.048	3.209	3.150	2.831	3.124	2.929	3.528	3.386	3.704	4.068	4.373	4.657	4.628	4.892	5.509	5.714	5.852	6.335	5.888	5.940	5.910	5.957	5.480	5.253	6.006
350.0	329.3	571.0	906.1	 1084	 1038	959.5	899.2	931.4	993.4	 1106	 1238	 1355	 1455	 1467	 1401	 1240	 1059	957.4	983.9	909.5	572.7	418.9	337.9	414.3	 1347	 4750	 8016	 3143	51.62	9.922	5.065	3.669	2.558	2.418	1.908	1.832	1.510	1.685	2.003	1.712	1.724	1.647	1.730	1.917	2.233	2.528	2.699	3.570	3.803	3.384	3.446	4.110	3.782	3.605	3.540	3.592	3.491	3.659	3.703	3.884	3.789	4.212	4.701	4.552	5.188	5.226	5.473	5.810	5.733	6.456	5.947	6.329	5.943	6.006	5.841	5.792	5.746
355.0	309.3	566.6	889.2	 1100	 1116	 1086	 1064	 1060	 1108	 1189	 1301	 1378	 1493	 1472	 1459	 1313	 1142	 1022	934.7	966.0	912.8	588.4	437.0	375.4	510.6	 1211	 2729	 8788	 4729	70.48	8.609	5.300	3.372	2.503	2.191	2.087	2.010	1.771	1.700	1.721	1.475	1.574	2.149	1.828	2.355	2.226	2.801	3.182	3.553	3.757	3.578	3.962	4.401	3.741	3.735	3.948	4.423	3.827	3.783	3.940	3.783	4.604	4.737	5.374	5.397	5.220	5.972	5.969	5.983	6.040	5.857	6.095	6.077	6.443	6.605	6.215	6.397
360.0	308.9	534.4	864.0	 1106	 1148	 1168	 1187	 1141	 1206	 1260	 1375	 1417	 1500	 1502	 1475	 1358	 1211	 1097	981.3	920.7	 1036	818.5	540.6	435.6	378.7	467.5	753.3	 3778	9999.9	 3560	46.47	7.818	5.189	3.088	2.259	2.208	2.236	1.667	1.714	1.632	1.653	1.592	1.786	2.250	2.248	2.478	2.609	3.086	3.361	3.307	3.321	4.035	4.336	4.318	3.980	3.929	4.533	4.731	4.441	4.188	4.462	5.242	5.276	5.263	5.390	5.158	6.098	5.938	6.450	6.666	6.304	6.199	6.809	6.714	6.746	6.761	6.464
365.0	307.7	516.4	863.2	 1099	 1189	 1248	 1233	 1223	 1262	 1355	 1427	 1467	 1519	 1523	 1481	 1365	 1242	 1142	 1043	962.9	984.7	 1022	695.5	509.2	411.5	348.3	339.9	 1001	 5447	 9903	664.8	26.78	6.655	4.597	2.829	2.343	2.143	1.993	1.880	1.908	1.654	1.861	2.185	2.226	2.163	2.515	2.776	3.186	3.139	3.358	3.668	4.531	3.995	4.270	4.056	4.582	4.430	4.642	4.540	4.682	5.036	5.006	4.869	5.688	5.330	6.081	6.021	5.918	6.587	6.405	6.828	5.864	7.500	6.243	6.949	6.697	7.129
370.0	303.6	534.7	840.2	 1090	 1227	 1318	 1330	 1337	 1347	 1411	 1478	 1517	 1526	 1536	 1510	 1411	 1309	 1225	 1122	 1038	986.2	 1010	950.4	694.2	509.9	404.3	318.5	393.7	 1401	 4876	 7532	 2720	42.60	7.267	4.188	2.855	2.419	2.388	1.990	2.092	1.696	2.088	1.964	1.972	2.358	2.577	2.487	3.066	3.270	3.492	3.782	4.218	4.623	4.655	4.950	4.659	5.061	5.034	4.537	4.927	5.368	5.145	4.905	5.841	5.586	6.050	6.009	5.815	6.505	6.290	6.815	6.426	6.801	6.619	6.980	6.672	6.787
375.0	336.1	514.5	791.8	 1041	 1278	 1396	 1407	 1398	 1404	 1440	 1522	 1549	 1552	 1567	 1509	 1426	 1333	 1282	 1221	 1130	 1051	994.9	 1010	959.9	672.4	511.9	400.0	331.1	477.9	 1201	 2797	 8490	 3878	54.43	6.728	3.930	3.061	2.513	2.352	2.143	1.658	1.818	1.701	2.348	2.322	2.521	2.521	3.247	3.324	3.334	3.465	4.382	4.652	4.645	4.922	5.284	5.316	4.824	5.571	5.418	6.191	5.625	5.651	6.059	5.722	6.429	6.431	6.036	6.299	6.327	6.828	6.550	7.159	6.086	6.531	6.915	6.881
380.0	319.8	479.8	794.7	 1072	 1279	 1392	 1451	 1406	 1409	 1496	 1532	 1546	 1551	 1552	 1499	 1429	 1358	 1321	 1254	 1178	 1108	 1024	986.9	 1034	867.5	600.0	468.0	368.9	319.2	410.2	746.8	 3941	 8770	 2711	34.37	6.001	3.909	2.963	2.604	2.185	1.797	1.717	2.189	2.313	2.420	2.421	2.631	2.712	3.317	3.308	3.630	4.540	4.762	4.457	4.910	5.132	5.770	5.228	5.253	5.335	5.782	5.674	6.000	5.732	5.985	6.050	6.155	6.046	6.744	6.395	6.597	6.965	7.006	6.463	6.860	6.685	7.537
385.0	321.2	470.0	774.2	 1034	 1251	 1396	 1443	 1430	 1431	 1483	 1519	 1524	 1533	 1546	 1486	 1416	 1371	 1324	 1262	 1206	 1142	 1078	999.2	986.7	994.5	729.7	536.6	427.1	324.6	277.1	297.8	 1030	 5087	 7991	507.9	17.50	5.848	3.571	2.772	2.481	2.299	1.995	2.325	2.368	2.027	2.671	2.591	2.935	3.058	3.112	3.416	4.509	4.197	4.765	5.181	4.989	5.363	5.387	5.174	5.665	5.602	5.721	5.543	5.722	5.880	5.507	5.784	6.576	6.359	6.307	6.940	6.253	7.081	7.178	6.931	6.952	7.590
390.0	300.0	492.6	752.8	998.0	 1237	 1376	 1434	 1445	 1444	 1468	 1490	 1515	 1512	 1506	 1465	 1396	 1361	 1325	 1262	 1239	 1164	 1111	 1038	971.5	962.5	905.4	679.4	507.8	395.9	303.7	239.1	354.3	 1310	 4272	 5013	 2052	32.85	5.628	3.714	2.838	2.523	2.100	2.238	2.075	2.096	2.351	2.791	2.854	3.162	3.406	3.241	4.152	4.278	4.676	4.945	4.905	5.558	5.444	5.339	5.439	5.744	5.673	5.670	6.018	5.873	6.082	5.853	6.099	5.907	6.161	6.413	5.960	6.717	6.948	6.742	7.512	7.141
395.0	293.5	491.7	772.8	 1007	 1152	 1352	 1424	 1475	 1434	 1454	 1502	 1493	 1498	 1478	 1428	 1388	 1341	 1308	 1271	 1237	 1187	 1139	 1073	 1006	938.6	928.7	872.4	629.4	475.5	371.4	283.8	246.6	404.6	 1029	 2133	 6600	 2934	42.87	5.652	3.880	2.756	2.436	2.299	2.611	2.366	2.643	2.444	2.749	3.248	2.862	3.551	4.329	4.289	4.590	4.680	4.708	5.397	5.657	5.221	5.390	5.373	5.598	5.025	5.170	5.215	5.488	5.778	6.016	6.354	6.228	6.045	6.314	6.562	5.854	7.038	7.118	7.266
400.0	297.7	503.5	703.0	995.6	 1161	 1349	 1404	 1459	 1420	 1449	 1474	 1453	 1478	 1429	 1406	 1356	 1313	 1290	 1255	 1236	 1185	 1147	 1083	 1027	951.7	894.0	903.1	769.8	547.1	424.2	326.3	256.4	224.9	319.8	553.1	 3244	 6736	507.0	25.73	5.008	3.622	2.616	2.533	2.736	2.175	2.712	2.322	2.572	3.266	2.990	3.343	4.084	4.324	4.701	5.184	4.637	5.317	5.218	5.185	5.235	5.449	5.829	5.630	5.469	5.168	5.949	5.756	5.887	5.958	6.423	6.042	5.937	6.386	6.519	6.522	6.756	6.629
405.0	282.7	471.3	693.7	969.0	 1180	 1283	 1391	 1416	 1440	 1406	 1438	 1418	 1411	 1404	 1364	 1314	 1279	 1264	 1246	 1220	 1172	 1148	 1093	 1027	971.4	900.6	862.5	860.2	643.5	473.5	369.0	287.2	207.2	178.2	196.7	836.2	 4117	 5829	423.1	12.63	4.442	3.277	2.344	2.717	2.286	2.202	2.306	2.895	3.192	3.141	3.247	3.855	3.826	4.397	5.404	5.013	5.754	5.248	5.069	5.371	5.262	5.627	5.807	5.319	5.128	5.424	5.626	5.580	5.772	6.175	6.072	5.934	6.120	6.642	6.810	7.036	6.299
410.0	269.4	438.6	673.1	926.2	 1123	 1240	 1352	 1395	 1405	 1394	 1411	 1384	 1355	 1358	 1310	 1268	 1231	 1209	 1208	 1177	 1152	 1121	 1078	 1034	971.9	907.0	839.2	823.0	767.3	582.9	433.0	328.1	241.1	177.9	139.3	252.8	 1050	 3314	 4067	 1573	27.81	4.774	3.739	3.135	2.628	2.629	2.303	2.918	2.943	3.029	3.032	3.837	3.899	4.285	4.730	4.895	5.519	5.288	5.374	5.117	5.490	5.325	5.619	5.366	5.303	5.138	5.452	5.282	5.565	5.750	5.772	5.897	5.905	5.957	6.231	6.662	6.569
