Sample:	'1
File name:	g2025082001ÐÁ·á×¯.FD3
Run date:	'16:31:53, 08/20/2025
Operator:	Administrator
Comment:	'

Instrument
Model:	F-2700 FL Spectrophotometer
Serial number:	23B8-004
ROM Version:	4J14000 07

Instrument parameters
Measurement type:	3-D scan
Data mode:	Fluorescence
EX  Start WL:	220.0 nm
EX  End WL:	600.0 nm
EX Sampling interval:	5.0 nm
EM  Start WL:	230.0 nm
EM  End WL:	650.0 nm
EM Sampling interval:	5.0 nm
Scan speed:	12000 nm/min
EX Slit:	5.0 nm
EM Slit:	5.0 nm
PMT Voltage:	700 V
Response:	Auto 
Corrected spectra:	Off
Contour interval:	50.000

Peak integration
Integration method:	Rectangular
Sensitivity:	1
Threshold:	1.000

Peaks
No.	ApexEX/EM(nm)	Height(Data)
1	225.0/580.0	39.74
2	225.0/590.0	39.33
3	225.0/615.0	33.46
4	225.0/630.0	28.38
5	230.0/345.0	877.6
6	230.0/500.0	296.3
7	235.0/255.0	339.7
8	235.0/355.0	809.2
9	235.0/365.0	825.2
10	235.0/510.0	260.3
11	240.0/265.0	416.0
12	240.0/370.0	823.1
13	240.0/380.0	820.5
14	240.0/525.0	235.3
15	245.0/270.0	410.0
16	245.0/535.0	201.9
17	250.0/275.0	526.1
18	250.0/550.0	171.6
19	255.0/280.0	625.5
20	255.0/565.0	146.4
21	260.0/290.0	618.2
22	260.0/575.0	127.9
23	265.0/380.0	726.9
24	265.0/585.0	111.2
25	270.0/300.0	1109
26	270.0/600.0	102.7
27	275.0/305.0	1136
28	275.0/610.0	84.23
29	280.0/340.0	754.5
30	280.0/625.0	70.82
31	285.0/320.0	939.6
32	285.0/640.0	50.14
33	290.0/325.0	910.6
34	295.0/330.0	833.7
35	300.0/340.0	876.3
36	305.0/345.0	799.8
37	330.0/375.0	387.2
38	335.0/380.0	383.0
39	340.0/390.0	356.4
40	345.0/395.0	341.2
41	350.0/400.0	337.1
42	355.0/410.0	303.3
43	360.0/415.0	286.2
44	365.0/420.0	272.2
45	410.0/480.0	65.92
46	425.0/500.0	42.10
47	440.0/520.0	26.28
48	455.0/540.0	14.16
49	470.0/560.0	6.720
50	480.0/260.0	1.927
51	485.0/265.0	2.132
52	495.0/270.0	2.172
53	505.0/275.0	3.438
54	510.0/280.0	3.942
55	520.0/285.0	4.139
56	530.0/290.0	4.017
57	540.0/295.0	5.128
58	545.0/300.0	5.901
59	550.0/305.0	5.991
60	560.0/310.0	5.155
61	585.0/325.0	6.789

Data points
	220.0	225.0	230.0	235.0	240.0	245.0	250.0	255.0	260.0	265.0	270.0	275.0	280.0	285.0	290.0	295.0	300.0	305.0	310.0	315.0	320.0	325.0	330.0	335.0	340.0	345.0	350.0	355.0	360.0	365.0	370.0	375.0	380.0	385.0	390.0	395.0	400.0	405.0	410.0	415.0	420.0	425.0	430.0	435.0	440.0	445.0	450.0	455.0	460.0	465.0	470.0	475.0	480.0	485.0	490.0	495.0	500.0	505.0	510.0	515.0	520.0	525.0	530.0	535.0	540.0	545.0	550.0	555.0	560.0	565.0	570.0	575.0	580.0	585.0	590.0	595.0	600.0
230.0	33.12	634.2	1629	504.4	18.84	3.082	2.966	2.426	2.663	2.144	1.932	1.513	1.401	1.212	1.200	0.991	0.900	0.790	0.667	0.725	0.699	0.532	0.446	0.378	0.411	0.424	0.348	0.360	0.245	0.310	0.262	0.249	0.275	0.254	0.202	0.206	0.252	0.210	0.186	0.176	0.183	0.316	0.324	0.231	0.166	0.158	0.648	3.108	5.738	4.437	1.652	0.330	0.139	0.121	0.137	0.099	0.133	0.105	0.099	0.108	0.073	0.088	0.056	0.069	0.080	0.098	0.101	0.079	0.118	0.139	0.099	0.119	0.080	0.101	0.112	0.108	0.069
235.0	83.39	179.6	1009	1806	490.4	35.09	3.430	2.144	2.675	2.343	2.110	1.935	1.226	1.539	1.014	1.147	0.716	0.930	0.732	0.633	0.664	0.420	0.552	0.504	0.422	0.421	0.407	0.305	0.400	0.302	0.182	0.327	0.252	0.264	0.299	0.203	0.220	0.214	0.227	0.229	0.196	0.311	0.324	0.374	0.349	0.206	0.204	0.903	1.954	4.326	6.136	6.576	3.146	0.564	0.209	0.102	0.132	0.122	0.106	0.140	0.114	0.127	0.075	0.062	0.079	0.102	0.084	0.060	0.092	0.090	0.112	0.122	0.076	0.070	0.109	0.145	0.037
240.0	125.9	124.1	300.5	1508	2026	389.4	16.89	3.894	2.713	2.555	2.040	1.749	1.458	1.866	1.324	1.307	0.943	0.807	0.708	0.534	0.628	0.504	0.591	0.342	0.471	0.319	0.425	0.362	0.393	0.259	0.272	0.301	0.243	0.306	0.274	0.181	0.178	0.219	0.259	0.254	0.148	0.206	0.193	0.274	0.505	0.563	0.340	0.381	0.525	1.277	3.384	8.205	10.75	7.824	3.142	0.539	0.169	0.153	0.190	0.068	0.148	0.050	0.096	0.039	0.097	0.180	0.141	0.033	0.103	0.116	0.087	0.133	0.062	0.044	0.148	0.120	0.027
245.0	101.8	197.3	128.4	513.6	2115	2092	285.5	9.052	3.919	2.763	2.536	2.421	1.708	1.644	1.376	1.292	1.101	0.947	0.692	0.561	0.811	0.665	0.524	0.474	0.361	0.311	0.337	0.370	0.341	0.247	0.353	0.258	0.295	0.294	0.185	0.152	0.218	0.161	0.231	0.141	0.254	0.223	0.175	0.160	0.371	0.506	0.632	0.717	0.370	0.460	0.922	2.696	6.926	12.26	13.36	7.175	1.943	0.260	0.146	0.115	0.123	0.058	0.114	0.127	0.121	0.145	0.089	0.054	0.109	0.138	0.113	0.192	0.092	0.100	0.072	0.079	0.056
250.0	40.59	144.7	239.6	213.2	673.0	2007	2596	959.6	59.54	3.982	3.473	2.884	2.334	2.082	1.796	1.121	1.226	0.907	0.839	0.739	0.898	0.694	0.513	0.599	0.406	0.402	0.289	0.364	0.319	0.355	0.284	0.264	0.238	0.276	0.238	0.193	0.181	0.162	0.200	0.198	0.224	0.229	0.201	0.152	0.218	0.250	0.452	0.658	0.904	0.783	0.636	0.837	1.718	3.822	7.347	11.43	14.72	13.15	7.909	2.138	0.294	0.099	0.171	0.100	0.137	0.134	0.144	0.073	0.123	0.133	0.093	0.091	0.096	0.095	0.074	0.128	0.107
255.0	21.63	45.23	173.6	339.7	242.7	509.6	1943	4053	1393	56.48	5.547	4.209	3.281	2.495	1.852	1.545	1.362	0.950	0.845	0.892	0.782	0.704	0.680	0.656	0.519	0.444	0.254	0.365	0.374	0.258	0.336	0.386	0.235	0.316	0.195	0.153	0.165	0.140	0.143	0.177	0.191	0.250	0.209	0.199	0.269	0.166	0.240	0.292	0.493	0.774	1.541	1.544	0.835	1.046	1.807	2.755	5.166	11.34	22.58	23.69	12.53	3.018	0.249	0.102	0.150	0.141	0.228	0.044	0.115	0.112	0.078	0.104	0.057	0.147	0.069	0.125	0.069
260.0	15.11	17.78	64.41	294.0	337.2	169.6	582.5	3173	4602	273.0	25.43	5.356	4.075	3.335	1.913	1.565	1.348	0.971	0.845	0.679	0.771	0.661	0.753	0.792	0.709	0.379	0.220	0.415	0.412	0.314	0.428	0.424	0.290	0.300	0.311	0.204	0.353	0.221	0.154	0.152	0.159	0.214	0.283	0.162	0.223	0.225	0.143	0.182	0.235	0.345	0.839	1.874	1.927	1.090	0.678	0.827	1.321	3.090	9.053	19.76	29.75	26.22	9.989	1.597	0.206	0.158	0.161	0.141	0.181	0.160	0.171	0.094	0.119	0.118	0.069	0.110	0.070
265.0	12.09	15.11	24.83	129.1	416.0	252.8	167.8	1047	4577	4443	217.0	12.14	4.959	4.091	2.708	1.850	1.518	1.343	0.961	1.063	0.788	0.745	0.631	0.730	0.565	0.415	0.404	0.423	0.309	0.401	0.421	0.432	0.329	0.329	0.453	0.230	0.295	0.188	0.283	0.196	0.145	0.216	0.225	0.252	0.219	0.232	0.158	0.157	0.162	0.179	0.301	0.842	1.791	2.132	1.546	0.665	0.478	0.886	2.309	5.596	14.35	31.97	32.65	21.77	6.840	0.686	0.155	0.125	0.173	0.166	0.086	0.079	0.131	0.102	0.076	0.091	0.151
270.0	27.54	26.63	20.98	43.97	184.1	410.0	287.3	284.7	1425	4255	4275	849.1	47.93	5.518	3.371	2.382	1.883	1.502	1.152	1.205	0.964	0.855	0.779	0.586	0.657	0.615	0.510	0.546	0.461	0.318	0.490	0.403	0.402	0.353	0.319	0.272	0.301	0.251	0.241	0.225	0.240	0.244	0.203	0.253	0.185	0.228	0.216	0.164	0.156	0.167	0.218	0.313	0.617	1.202	1.893	2.172	1.998	1.102	0.825	1.425	3.525	8.759	14.64	24.55	28.22	31.25	15.80	5.205	0.742	0.217	0.174	0.120	0.184	0.118	0.119	0.150	0.122
275.0	66.54	59.54	39.58	30.22	56.37	179.2	526.1	329.8	367.8	1064	3433	7709	1154	43.61	5.853	3.519	2.790	1.977	1.883	1.265	1.154	1.097	0.868	0.551	0.730	0.533	0.562	0.592	0.511	0.412	0.527	0.494	0.493	0.486	0.365	0.344	0.386	0.365	0.258	0.354	0.234	0.272	0.324	0.306	0.252	0.295	0.250	0.258	0.261	0.215	0.191	0.227	0.243	0.401	0.591	1.117	2.408	3.438	2.778	1.105	1.172	2.242	3.590	5.913	7.940	18.67	38.02	34.08	23.63	5.837	0.441	0.186	0.185	0.175	0.159	0.133	0.123
280.0	98.69	94.37	65.08	37.39	30.52	66.80	322.2	625.5	258.2	302.8	1014	5805	7139	780.0	18.89	5.273	3.455	2.289	2.110	1.432	1.243	1.023	0.991	0.766	0.844	0.742	0.716	0.500	0.576	0.585	0.407	0.491	0.434	0.528	0.469	0.412	0.474	0.361	0.340	0.355	0.231	0.300	0.455	0.312	0.323	0.392	0.409	0.350	0.351	0.201	0.255	0.252	0.233	0.248	0.266	0.418	0.941	2.078	3.942	3.499	1.620	0.864	1.162	1.718	2.212	4.873	12.29	25.20	45.70	33.36	17.81	2.823	0.273	0.274	0.187	0.133	0.195
285.0	158.5	151.6	108.3	64.72	36.68	43.50	130.9	556.5	561.4	204.6	337.4	1827	7122	5766	121.1	8.809	4.258	3.125	2.390	1.589	1.380	1.153	0.848	0.856	0.921	0.622	0.643	0.573	0.631	0.631	0.479	0.419	0.439	0.526	0.585	0.393	0.511	0.452	0.279	0.361	0.260	0.319	0.505	0.472	0.469	0.471	0.467	0.499	0.430	0.340	0.366	0.351	0.242	0.236	0.277	0.256	0.403	0.807	1.871	3.541	4.139	2.310	1.106	0.868	1.101	1.666	3.333	6.775	17.13	34.29	49.17	29.06	11.02	1.211	0.221	0.229	0.209
290.0	201.8	244.3	181.7	104.5	61.52	60.59	91.24	246.6	618.2	556.5	338.5	608.6	2175	5427	5516	461.4	27.58	4.412	2.995	2.313	1.747	1.445	1.104	0.920	0.825	0.765	0.604	0.745	0.650	0.592	0.594	0.462	0.536	0.588	0.679	0.518	0.745	0.562	0.408	0.449	0.294	0.447	0.477	0.496	0.597	0.668	0.776	0.732	0.610	0.566	0.486	0.458	0.386	0.357	0.416	0.333	0.554	0.572	0.855	1.422	2.414	3.500	4.017	3.192	1.866	1.429	1.649	2.502	4.740	9.157	17.55	25.72	35.57	33.72	19.37	8.343	1.122
295.0	260.9	320.4	259.8	161.9	100.7	92.95	102.8	166.2	325.3	765.0	825.4	465.7	721.1	1408	3693	6598	652.3	24.38	4.332	3.492	2.365	1.925	1.693	1.260	1.018	0.905	0.797	0.736	0.580	0.707	0.608	0.536	0.554	0.562	0.678	0.597	0.652	0.655	0.433	0.508	0.439	0.545	0.559	0.503	0.673	0.840	0.811	0.953	0.871	0.657	0.616	0.581	0.492	0.493	0.505	0.400	0.534	0.733	0.795	0.861	1.253	1.654	2.445	4.254	5.128	3.676	2.173	1.921	2.272	3.169	4.994	6.556	9.233	14.81	32.16	48.55	29.00
300.0	301.9	365.1	309.0	184.4	131.7	117.7	130.9	176.3	266.2	538.4	1109	709.9	459.9	485.5	1059	5102	5522	463.9	10.78	4.364	2.938	2.287	1.908	1.456	1.231	1.039	0.891	0.842	0.836	0.680	0.544	0.587	0.559	0.726	0.734	0.661	0.770	0.634	0.633	0.541	0.372	0.469	0.626	0.665	0.725	0.925	1.075	1.103	1.038	0.839	0.654	0.715	0.604	0.636	0.503	0.578	0.668	0.812	0.760	0.865	1.135	1.296	1.632	2.516	4.263	5.901	4.893	2.869	1.940	2.087	2.434	2.306	2.825	3.944	9.304	24.22	43.48
305.0	306.9	383.1	343.7	214.2	148.2	138.2	161.6	205.6	282.3	423.2	859.9	1136	539.9	310.8	344.1	1549	5936	4362	72.79	6.558	3.684	2.735	2.022	1.827	1.312	1.008	0.931	0.813	0.889	0.822	0.712	0.748	0.674	0.565	0.648	0.838	0.647	0.677	0.699	0.546	0.409	0.491	0.583	0.690	0.719	0.991	0.935	1.240	1.152	0.905	0.764	0.810	0.737	0.749	0.701	0.656	0.731	0.929	0.903	0.978	1.285	1.504	1.604	2.008	2.628	3.923	5.991	5.600	3.672	2.467	1.984	1.693	1.498	1.631	2.657	6.190	14.37
310.0	315.2	391.5	349.2	240.4	171.3	162.1	183.8	236.0	302.1	410.7	609.2	960.4	936.8	416.5	220.5	431.0	1775	4428	4329	304.2	19.42	3.900	2.479	2.037	1.711	1.228	1.212	0.991	0.973	0.697	0.803	0.788	0.688	0.700	0.779	0.742	0.705	0.658	0.581	0.623	0.507	0.620	0.587	0.615	0.695	1.038	1.028	1.161	1.123	0.904	0.852	0.937	0.821	0.773	0.839	0.803	0.987	1.063	1.044	1.132	1.482	1.575	1.713	2.025	2.300	2.749	3.652	4.267	5.155	4.759	3.370	2.096	1.408	1.243	1.371	2.108	3.734
315.0	310.3	411.0	366.5	293.7	225.0	220.7	223.9	268.5	335.9	430.0	557.2	683.8	874.2	838.4	325.5	253.1	524.3	1134	3199	4540	459.8	16.04	4.302	2.587	2.287	1.400	1.396	1.212	0.911	0.961	0.890	0.711	0.786	0.773	0.727	0.759	0.729	0.559	0.599	0.586	0.527	0.584	0.722	0.760	0.791	0.988	1.075	1.239	1.235	1.055	1.037	1.018	1.023	0.941	0.875	1.127	1.101	1.214	1.225	1.415	1.592	1.838	2.033	2.112	2.495	2.646	2.977	3.294	3.438	4.282	5.227	5.285	3.288	2.033	1.937	1.791	2.294
320.0	362.7	468.9	445.8	364.9	305.2	296.1	287.2	294.3	376.7	470.2	576.8	647.0	708.0	939.6	645.9	343.1	345.6	430.6	989.9	4157	3953	65.88	7.272	3.461	2.741	1.928	1.716	1.249	1.055	0.946	0.824	0.946	0.913	0.862	0.906	0.851	0.725	0.630	0.662	0.602	0.567	0.657	0.813	0.662	0.908	1.151	1.162	1.413	1.542	1.318	1.196	1.275	1.178	1.346	1.310	1.477	1.488	1.248	1.497	1.767	1.616	2.032	2.176	2.569	2.884	2.847	3.245	3.408	3.633	3.988	4.309	5.436	5.966	4.705	3.500	2.918	2.967
325.0	400.1	556.4	570.4	461.3	391.4	360.7	321.8	331.2	416.1	507.8	605.8	678.7	686.4	771.2	910.6	547.4	381.8	331.8	396.2	1397	4739	3146	54.06	5.609	3.196	2.149	1.723	1.482	1.164	1.075	0.961	0.916	0.873	0.792	0.765	0.799	0.793	0.601	0.686	0.558	0.717	0.670	0.727	0.775	1.028	1.328	1.482	1.616	1.899	1.712	1.594	1.640	1.710	1.552	1.643	1.715	1.751	1.513	1.666	1.804	1.964	2.109	2.204	2.825	2.981	3.141	3.357	3.639	3.688	4.020	4.042	4.790	5.608	6.789	6.354	4.872	4.329
330.0	437.9	604.7	684.5	566.6	485.9	420.3	365.5	364.8	434.1	533.4	631.4	693.1	697.5	678.1	789.6	833.7	558.9	368.4	302.7	472.8	1502	3502	3392	242.0	13.76	3.164	2.396	1.826	1.450	1.167	1.099	1.013	0.823	0.858	0.717	0.797	0.778	0.651	0.791	0.641	0.780	0.692	0.797	0.807	1.137	1.317	1.501	2.065	2.271	2.066	1.919	2.092	2.094	2.002	2.005	2.035	1.866	1.855	1.718	1.904	2.194	2.362	2.542	2.826	3.128	3.513	3.532	3.816	4.091	4.373	4.228	4.583	5.014	5.826	6.617	7.309	6.891
335.0	479.3	682.7	772.0	691.9	597.9	511.3	429.0	405.3	477.0	565.4	653.1	728.4	734.4	712.7	720.6	819.7	873.6	535.3	347.6	312.5	440.9	879.9	2742	3641	370.6	11.87	3.328	2.390	1.874	1.451	1.216	0.988	1.004	0.919	0.670	0.720	0.806	0.635	0.732	0.747	0.769	0.665	0.829	1.055	1.157	1.435	1.638	2.221	2.476	2.366	2.343	2.718	2.542	2.564	2.590	2.219	2.415	2.192	1.926	1.977	2.304	2.431	2.924	3.073	3.177	3.573	3.826	4.128	4.218	4.472	4.790	4.856	5.620	6.086	6.553	6.879	7.762
340.0	471.9	738.4	859.8	762.3	674.9	587.5	473.0	440.3	498.6	589.5	682.7	746.4	754.5	744.8	742.7	758.3	876.3	739.2	408.9	302.5	222.5	252.6	788.2	3565	3269	55.39	5.698	2.973	1.979	1.842	1.406	1.072	0.961	0.927	0.826	0.757	0.726	0.866	0.743	0.671	0.687	0.742	0.809	0.966	1.048	1.624	1.813	2.411	2.540	2.581	2.518	2.788	2.791	2.976	2.662	2.471	2.669	2.414	2.107	2.155	2.394	2.645	2.998	3.368	3.413	3.813	4.059	4.309	4.636	4.711	5.010	5.769	6.113	6.288	7.003	7.005	7.444
345.0	466.6	724.8	877.6	793.7	715.0	619.6	504.2	462.9	512.1	586.8	674.8	720.5	737.9	736.1	735.6	715.3	740.1	799.8	523.1	310.5	185.4	124.0	221.3	1154	4020	2659	46.28	4.519	2.719	1.837	1.602	1.308	0.997	0.872	0.890	0.715	0.678	0.815	0.676	0.480	0.729	0.721	0.884	0.954	1.283	1.569	1.750	2.464	2.556	2.671	2.466	2.980	2.873	3.116	2.799	2.441	2.741	2.383	2.412	2.256	2.312	2.829	3.069	3.442	3.570	3.578	4.017	4.112	4.549	4.539	4.909	5.408	5.804	6.331	6.583	6.918	6.956
350.0	456.1	670.1	819.9	801.8	735.8	661.0	540.2	489.8	532.0	589.2	653.8	704.3	719.8	719.6	722.7	702.0	664.4	644.9	621.4	429.9	207.2	119.5	113.0	305.9	1259	2930	2826	215.3	12.35	2.711	2.055	1.458	1.247	0.967	0.960	0.831	0.684	0.724	0.708	0.741	0.712	0.783	0.788	0.873	1.179	1.443	1.675	2.120	2.392	2.545	2.495	2.882	3.030	3.166	3.071	2.737	2.839	2.564	2.565	2.464	2.560	2.668	3.107	3.137	3.431	3.572	3.851	3.913	4.062	4.482	4.762	5.068	5.534	5.930	6.378	6.282	6.480
355.0	416.7	676.2	794.3	809.2	791.8	711.8	592.2	545.9	575.0	617.2	662.4	693.3	717.7	717.2	716.0	698.7	650.0	572.6	526.0	561.2	312.4	148.6	115.4	135.7	328.5	731.0	2280	3216	337.0	9.781	2.762	2.011	1.489	1.183	0.993	0.926	0.918	0.723	0.832	0.698	0.748	0.755	0.748	0.886	1.016	1.388	1.674	2.153	2.373	2.307	2.517	2.964	3.124	3.423	3.115	3.100	2.875	2.889	2.847	2.688	2.906	3.035	3.121	3.098	3.546	3.418	3.851	3.974	4.080	4.413	4.820	4.920	5.413	5.456	5.996	5.723	6.369
360.0	429.1	647.7	790.6	796.8	816.0	741.6	644.5	583.4	609.5	643.8	676.5	699.8	706.6	703.6	710.2	683.7	645.2	553.3	471.7	509.4	436.8	210.1	135.3	116.8	136.7	207.4	660.7	2993	2903	51.86	5.051	2.616	1.657	1.300	1.176	0.912	0.860	0.710	0.693	0.711	0.644	0.622	0.743	0.930	0.998	1.340	1.453	1.988	2.476	2.465	2.507	3.195	3.267	3.195	3.328	3.240	3.004	3.165	2.835	2.666	2.986	2.926	3.369	3.120	3.441	3.241	3.529	3.847	3.744	4.055	4.408	4.682	5.216	5.654	5.783	5.535	6.076
365.0	406.4	644.4	755.1	825.2	812.8	760.6	679.0	622.3	636.3	665.0	678.0	690.8	700.5	691.0	686.3	666.5	625.3	550.3	461.7	431.1	453.7	320.8	174.0	131.0	110.3	103.2	190.3	978.1	3488	2336	42.09	3.957	2.158	1.443	1.238	1.087	0.819	0.789	0.715	0.684	0.705	0.694	0.787	0.959	1.043	1.210	1.522	1.943	2.316	2.403	2.607	3.236	3.273	3.432	3.223	3.275	2.949	3.247	2.823	2.879	3.080	3.238	3.338	3.225	3.570	3.128	3.663	3.523	3.615	4.264	4.341	4.469	4.904	5.192	5.445	5.543	5.587
370.0	411.0	593.9	742.2	800.5	823.1	780.8	707.4	661.4	674.1	691.2	692.8	693.8	686.0	672.6	663.7	647.6	612.9	542.6	468.3	412.2	376.2	389.8	296.8	176.2	132.7	103.4	100.9	261.4	1099	2642	2499	195.7	10.66	2.285	1.546	1.081	1.015	0.893	0.806	0.728	0.794	0.731	0.833	0.923	1.099	1.311	1.453	1.952	2.088	2.261	2.506	3.190	3.197	3.460	3.350	3.191	3.408	3.358	2.982	3.108	3.110	3.275	3.230	3.431	3.392	3.355	3.428	3.528	3.647	3.648	3.853	4.227	4.551	4.678	4.922	4.990	5.170
375.0	395.9	567.0	712.1	803.0	806.1	797.3	742.9	698.8	694.5	706.7	707.0	700.9	673.4	660.7	652.0	626.4	595.3	539.9	475.7	421.4	360.0	342.9	387.2	288.4	175.9	134.2	105.2	117.4	285.4	663.7	2053	2884	292.7	8.535	2.419	1.467	1.134	1.018	0.941	0.853	0.794	0.767	0.861	0.973	1.125	1.179	1.448	1.874	2.197	2.212	2.361	3.380	3.056	3.316	3.306	3.237	3.289	3.585	3.272	3.312	3.299	3.219	3.187	3.378	3.323	3.503	3.437	3.539	3.548	3.474	3.906	3.930	4.069	4.418	4.468	4.727	4.912
380.0	371.1	558.9	711.7	805.7	820.5	809.0	757.3	718.7	709.9	726.9	710.1	702.3	675.2	649.8	631.2	611.4	583.9	533.7	478.3	428.7	367.1	329.1	357.9	383.0	239.4	162.7	123.3	101.8	117.4	185.9	593.3	2602	2479	43.87	4.597	1.847	1.486	1.110	0.993	0.957	0.754	0.840	0.834	0.971	1.094	1.273	1.513	1.821	2.059	2.194	2.333	3.087	3.162	3.404	3.144	3.177	3.387	3.266	3.258	3.162	3.419	3.454	3.095	3.207	3.417	3.290	3.268	3.714	3.312	3.484	3.661	3.666	3.859	3.982	4.038	4.272	4.569
385.0	396.6	558.4	689.5	762.4	816.2	796.6	755.1	712.5	718.2	718.5	702.9	698.2	668.3	636.6	612.7	597.8	566.3	522.0	479.6	435.1	381.6	340.2	325.6	380.7	330.6	201.0	148.2	114.1	94.01	89.04	167.1	831.1	2827	1921	35.56	3.029	1.700	1.384	1.255	1.124	0.857	1.009	0.877	0.790	1.140	1.216	1.507	1.786	1.968	1.964	2.297	2.913	3.217	3.497	3.394	3.280	3.272	3.286	3.363	3.220	3.396	3.522	3.521	3.107	3.488	3.384	3.236	3.309	3.622	3.356	3.135	3.660	3.899	3.836	3.904	3.880	4.371
390.0	401.2	556.1	672.2	739.9	802.4	793.7	759.9	713.5	720.1	705.9	704.1	687.6	656.4	623.6	596.4	575.6	552.4	517.7	477.5	444.0	393.3	356.6	329.0	330.4	356.4	298.5	194.7	141.1	110.5	85.63	84.55	219.7	864.7	2030	1851	159.7	9.434	1.967	1.449	1.183	0.941	0.888	0.860	0.897	1.080	1.281	1.354	1.835	1.997	2.093	2.233	2.733	3.009	3.377	3.125	3.360	3.373	3.358	3.447	3.134	3.291	3.324	3.253	3.358	3.375	3.221	3.255	3.340	3.235	3.297	3.289	3.336	3.534	3.587	3.861	3.792	4.015
395.0	389.9	534.6	651.3	736.3	792.2	791.3	743.4	730.6	712.3	698.5	681.0	665.1	640.6	609.1	582.7	555.8	536.1	504.9	475.6	449.7	403.6	374.4	346.5	324.4	320.5	341.2	283.8	178.1	136.1	106.7	83.00	94.25	224.3	503.9	1440	2190	247.5	7.603	1.962	1.386	1.276	1.035	0.900	0.898	1.025	1.172	1.429	1.754	2.026	2.003	2.184	2.566	3.119	3.046	3.216	3.257	3.445	3.564	3.429	3.253	3.303	3.162	3.297	3.209	3.278	3.213	3.040	3.286	3.000	3.400	3.307	3.293	3.364	3.362	3.535	3.311	3.489
400.0	366.6	513.9	644.0	708.5	770.3	782.8	748.0	721.4	710.6	691.2	688.5	659.6	628.3	594.4	572.9	540.6	517.1	491.3	468.8	442.6	409.4	384.9	358.7	335.5	313.6	319.1	337.1	237.2	161.6	128.2	98.27	78.12	89.25	140.1	408.9	1791	1883	38.61	3.850	1.857	1.240	1.151	1.141	0.952	1.077	1.330	1.297	1.664	1.817	1.988	2.115	2.568	2.974	3.120	3.181	3.457	3.287	3.563	3.310	3.208	3.120	3.109	3.174	3.154	3.238	3.157	3.230	2.926	2.922	3.253	3.194	3.227	3.346	3.350	3.602	3.025	3.486
405.0	355.1	506.6	626.3	682.3	765.7	743.8	739.2	711.9	704.5	689.0	676.8	641.7	621.2	581.7	550.9	523.5	501.2	484.2	460.0	437.8	413.3	391.8	369.0	344.2	318.1	301.3	322.9	303.2	198.0	147.0	117.9	86.66	69.18	65.17	115.4	551.1	1959	1436	32.73	2.758	1.412	1.410	1.185	1.206	1.202	1.427	1.314	1.768	1.873	2.036	2.112	2.456	2.935	2.907	3.095	3.266	3.335	3.409	3.193	3.210	2.991	3.123	2.985	3.040	3.083	3.183	2.972	2.721	3.059	3.032	2.950	3.177	3.069	3.007	3.154	3.036	3.300
410.0	366.0	512.4	604.2	677.1	722.3	734.7	717.7	699.9	691.4	679.4	666.0	629.8	599.2	566.7	529.1	504.1	480.9	461.8	444.1	430.3	406.7	385.3	369.5	350.0	325.8	306.0	293.2	303.3	271.4	187.5	137.9	104.2	78.20	59.26	57.48	146.1	579.7	1399	1384	151.2	8.534	1.748	1.237	1.254	1.251	1.379	1.358	1.717	1.896	2.005	2.188	2.666	2.687	2.720	2.892	2.984	3.130	3.181	3.123	3.222	3.094	3.201	3.034	3.084	3.098	2.945	2.909	2.736	2.807	2.842	2.961	2.892	2.830	2.979	2.981	2.630	2.961
