Sample:	'1
File name:	T2025031309¶«Õ¢´åÇÅ.FD3
Run date:	'13:34:36, 03/14/2025
Operator:	Administrator
Comment:	'

Instrument
Model:	F-2700 FL Spectrophotometer
Serial number:	23B8-004
ROM Version:	4J14000 07

Instrument parameters
Measurement type:	3-D scan
Data mode:	Fluorescence
EX  Start WL:	220.0 nm
EX  End WL:	600.0 nm
EX Sampling interval:	5.0 nm
EM  Start WL:	230.0 nm
EM  End WL:	650.0 nm
EM Sampling interval:	5.0 nm
Scan speed:	12000 nm/min
EX Slit:	5.0 nm
EM Slit:	5.0 nm
PMT Voltage:	700 V
Response:	Auto 
Corrected spectra:	Off
Contour interval:	50.000

Peak integration
Integration method:	Rectangular
Sensitivity:	1
Threshold:	1.000

Peaks
No.	ApexEX/EM(nm)	Height(Data)
1	225.0/555.0	59.03
2	225.0/575.0	71.06
3	225.0/625.0	53.42
4	225.0/640.0	53.27
5	230.0/340.0	1101
6	230.0/500.0	222.5
7	235.0/510.0	204.7
8	240.0/265.0	340.8
9	240.0/525.0	185.0
10	245.0/270.0	338.2
11	245.0/535.0	161.7
12	250.0/550.0	133.4
13	255.0/280.0	510.1
14	255.0/565.0	118.8
15	260.0/575.0	106.6
16	265.0/590.0	102.5
17	270.0/300.0	1165
18	270.0/600.0	102.9
19	275.0/305.0	1348
20	275.0/610.0	95.29
21	280.0/625.0	78.47
22	285.0/635.0	57.31
23	305.0/345.0	503.6
24	310.0/350.0	424.3
25	315.0/355.0	400.0
26	320.0/360.0	380.7
27	325.0/370.0	344.2
28	330.0/375.0	321.9
29	335.0/380.0	302.7
30	340.0/390.0	268.7
31	345.0/395.0	251.7
32	350.0/400.0	247.6
33	355.0/410.0	224.2
34	360.0/415.0	210.7
35	365.0/420.0	203.4
36	430.0/505.0	25.85
37	440.0/520.0	18.24
38	445.0/525.0	16.13
39	455.0/335.0	3.348
40	455.0/540.0	10.40
41	475.0/355.0	3.651
42	505.0/275.0	3.126
43	510.0/280.0	3.621
44	520.0/285.0	3.725
45	530.0/290.0	4.051
46	540.0/295.0	5.462
47	545.0/300.0	6.486
48	550.0/305.0	7.173
49	560.0/310.0	7.241
50	570.0/315.0	6.634
51	580.0/320.0	6.192
52	585.0/325.0	5.889

Data points
	220.0	225.0	230.0	235.0	240.0	245.0	250.0	255.0	260.0	265.0	270.0	275.0	280.0	285.0	290.0	295.0	300.0	305.0	310.0	315.0	320.0	325.0	330.0	335.0	340.0	345.0	350.0	355.0	360.0	365.0	370.0	375.0	380.0	385.0	390.0	395.0	400.0	405.0	410.0	415.0	420.0	425.0	430.0	435.0	440.0	445.0	450.0	455.0	460.0	465.0	470.0	475.0	480.0	485.0	490.0	495.0	500.0	505.0	510.0	515.0	520.0	525.0	530.0	535.0	540.0	545.0	550.0	555.0	560.0	565.0	570.0	575.0	580.0	585.0	590.0	595.0	600.0
230.0	68.69	722.7	1625	420.3	24.35	10.58	9.481	7.298	6.257	5.530	5.012	4.737	4.077	3.250	3.204	2.465	2.159	1.946	1.944	1.702	1.544	1.528	1.330	1.216	1.122	1.177	1.065	1.071	1.034	1.074	0.962	0.928	0.882	0.878	0.781	0.776	0.718	0.719	0.716	0.692	0.694	0.749	0.695	0.655	0.619	0.631	1.169	3.709	5.923	4.227	1.714	0.638	0.501	0.517	0.515	0.508	0.524	0.535	0.526	0.537	0.533	0.536	0.585	0.532	0.549	0.565	0.547	0.599	0.573	0.560	0.558	0.576	0.570	0.594	0.569	0.587	0.619
235.0	83.89	226.2	1380	1937	457.7	32.54	10.33	9.122	6.473	5.647	5.253	4.592	3.946	3.524	3.079	2.405	2.071	1.962	1.837	1.707	1.608	1.536	1.488	1.301	1.188	1.126	1.026	1.088	1.018	1.109	1.006	0.880	0.780	0.914	0.842	0.744	0.734	0.685	0.736	0.699	0.642	0.681	0.625	0.734	0.765	0.601	0.699	1.354	2.857	5.364	7.615	7.761	3.512	1.011	0.604	0.533	0.502	0.472	0.529	0.553	0.675	0.529	0.586	0.587	0.537	0.581	0.596	0.622	0.580	0.603	0.568	0.633	0.612	0.563	0.610	0.621	0.565
240.0	116.1	116.1	482.3	2003	2320	361.5	21.77	9.469	7.727	7.129	6.083	4.357	4.040	3.628	3.300	2.667	2.144	2.119	1.885	1.711	1.566	1.614	1.348	1.340	1.138	1.094	1.077	1.060	1.012	1.046	0.948	0.892	0.792	0.805	0.864	0.753	0.802	0.712	0.681	0.663	0.656	0.643	0.734	0.648	0.829	0.759	0.734	0.777	1.049	2.023	4.679	10.69	13.13	8.631	3.188	0.754	0.555	0.519	0.596	0.559	0.559	0.513	0.575	0.553	0.540	0.549	0.590	0.603	0.573	0.566	0.586	0.574	0.551	0.542	0.594	0.562	0.570
245.0	122.8	149.6	169.1	787.1	2931	2354	274.0	12.35	9.104	7.058	6.833	5.163	4.613	4.355	3.629	2.563	2.274	2.008	2.201	1.740	1.606	1.518	1.352	1.373	1.316	1.218	1.099	1.027	1.143	1.077	0.972	0.918	0.907	0.769	0.901	0.734	0.761	0.704	0.670	0.730	0.679	0.661	0.722	0.697	0.705	0.828	0.993	0.904	0.681	0.799	1.420	4.343	10.15	16.69	15.52	7.830	2.411	0.638	0.582	0.564	0.555	0.555	0.574	0.596	0.500	0.575	0.565	0.587	0.580	0.606	0.598	0.523	0.644	0.617	0.603	0.552	0.605
250.0	72.02	135.6	204.7	251.8	1023	2798	3661	1008	55.69	9.243	7.567	5.561	5.238	4.263	3.706	2.783	2.442	2.326	2.089	1.757	1.576	1.410	1.416	1.357	1.282	1.162	1.197	1.133	1.154	1.076	0.961	1.009	0.934	0.853	0.880	0.825	0.764	0.762	0.701	0.722	0.661	0.654	0.708	0.668	0.629	0.668	0.734	0.896	1.034	0.913	0.875	1.446	2.852	5.872	10.51	15.16	19.39	16.24	8.845	2.530	0.718	0.570	0.584	0.586	0.541	0.590	0.565	0.609	0.566	0.569	0.600	0.542	0.598	0.581	0.608	0.597	0.585
255.0	51.49	61.93	171.6	277.3	299.3	750.2	3442	5398	1412	50.17	9.758	7.383	5.992	4.545	4.321	3.285	2.507	2.538	2.059	1.874	1.572	1.436	1.561	1.273	1.336	1.286	1.245	1.192	1.194	1.085	0.922	1.038	0.929	0.872	0.891	0.777	0.791	0.719	0.721	0.718	0.695	0.587	0.711	0.744	0.672	0.669	0.654	0.590	0.758	1.102	1.377	1.465	1.247	1.752	2.867	4.034	8.119	18.54	32.26	27.11	13.62	2.659	0.630	0.627	0.585	0.593	0.622	0.680	0.570	0.584	0.622	0.562	0.603	0.607	0.610	0.589	0.639
260.0	56.29	43.27	80.41	264.9	280.3	213.3	1112	4883	6119	244.2	25.11	10.02	7.414	5.222	4.581	3.524	2.652	2.461	2.189	2.063	1.653	1.587	1.502	1.458	1.297	1.264	1.251	1.284	1.224	1.074	1.075	0.955	0.960	0.956	0.832	0.865	0.820	0.691	0.755	0.720	0.793	0.702	0.680	0.663	0.681	0.608	0.593	0.593	0.550	0.736	1.054	1.837	1.669	1.394	1.112	1.391	2.392	5.509	14.61	30.24	41.22	24.94	10.30	1.528	0.643	0.636	0.684	0.682	0.542	0.592	0.613	0.627	0.622	0.631	0.607	0.636	0.671
265.0	55.51	39.11	44.15	134.1	340.8	202.0	287.8	1735	7140	5399	194.2	15.81	8.764	5.999	5.069	3.677	3.065	2.545	2.333	1.945	1.786	1.706	1.636	1.651	1.283	1.399	1.315	1.284	1.183	1.114	1.111	0.913	0.996	0.939	0.835	0.975	0.804	0.714	0.718	0.709	0.819	0.751	0.711	0.657	0.662	0.568	0.582	0.595	0.564	0.569	0.620	1.152	1.766	2.011	1.474	0.918	1.097	1.790	3.936	9.310	23.09	41.42	47.93	22.03	6.198	0.942	0.709	0.625	0.620	0.625	0.546	0.615	0.610	0.579	0.643	0.638	0.660
270.0	69.00	52.27	44.03	55.91	180.1	338.2	251.4	441.1	2337	5875	6844	773.1	50.23	8.876	6.596	4.409	3.710	2.820	2.582	2.313	1.974	1.839	1.801	1.660	1.442	1.401	1.339	1.299	1.178	1.193	1.175	1.012	0.990	0.994	0.883	0.950	0.809	0.812	0.812	0.726	0.753	0.745	0.686	0.740	0.661	0.636	0.662	0.643	0.587	0.512	0.535	0.704	0.942	1.419	1.951	2.134	1.916	1.423	1.505	2.630	5.955	12.36	24.13	36.29	36.07	38.60	15.27	6.154	1.001	0.718	0.633	0.631	0.629	0.600	0.695	0.728	0.685
275.0	98.33	99.92	75.89	55.93	73.65	175.9	433.0	311.6	577.0	1482	5056	9999.9	1109	51.27	9.851	6.334	4.446	3.636	3.112	2.800	2.254	2.052	1.895	1.673	1.734	1.336	1.449	1.399	1.329	1.244	1.396	1.129	1.073	1.038	1.042	0.892	0.915	1.014	0.812	0.781	0.821	0.795	0.714	0.769	0.747	0.691	0.714	0.774	0.739	0.569	0.556	0.682	0.678	0.767	0.921	1.240	2.163	3.126	2.529	1.588	1.931	3.429	6.141	9.018	11.55	28.99	57.08	66.89	24.01	6.737	0.970	0.740	0.767	0.665	0.670	0.679	0.643
280.0	139.3	154.5	136.4	91.19	68.74	97.19	313.2	510.1	286.8	424.7	1478	7703	9065	802.2	27.43	8.395	5.519	4.782	3.558	3.067	2.239	2.266	2.070	1.845	1.764	1.585	1.475	1.416	1.336	1.328	1.307	1.158	1.281	1.158	1.115	1.042	0.967	0.963	0.966	0.836	0.873	0.877	0.819	0.860	0.789	0.881	0.842	0.966	0.819	0.701	0.678	0.701	0.868	0.801	0.815	0.855	1.233	2.124	3.621	3.234	1.781	1.646	2.126	2.926	3.487	7.954	19.83	46.41	68.61	32.83	19.80	3.421	0.786	0.671	0.699	0.662	0.741
285.0	191.3	234.5	201.5	132.2	96.75	93.71	160.2	488.6	500.2	264.2	487.4	2378	9198	7348	118.7	13.62	6.798	5.181	3.719	3.051	2.692	2.473	2.222	1.842	1.804	1.563	1.549	1.442	1.483	1.396	1.276	1.166	1.181	1.239	1.035	1.097	0.943	1.059	0.976	0.926	0.948	0.926	0.909	0.907	0.924	1.036	0.962	1.126	1.045	0.896	0.735	0.832	0.872	0.841	0.931	0.924	1.037	1.216	1.969	3.567	3.725	2.604	1.725	1.751	1.921	2.976	5.670	12.66	27.42	51.81	77.10	30.45	13.66	1.573	0.803	0.736	0.756
290.0	257.2	331.2	304.6	206.1	143.1	124.0	148.7	273.8	576.7	610.9	420.9	810.0	2750	6811	8764	1815	32.80	7.348	5.054	3.723	3.211	2.723	2.359	2.155	1.941	1.821	1.568	1.494	1.496	1.412	1.274	1.268	1.214	1.210	1.214	1.187	1.207	1.156	1.054	1.000	0.979	0.991	1.027	0.965	1.092	1.193	1.230	1.405	1.333	1.174	1.035	1.092	1.078	1.068	0.962	0.997	1.109	1.163	1.411	1.941	2.715	3.679	4.051	3.548	2.452	2.403	3.010	4.479	7.913	14.30	28.57	40.13	56.20	48.23	20.46	10.40	2.111
295.0	318.2	412.0	406.7	281.5	198.7	166.6	193.0	236.5	389.9	774.2	877.3	624.1	943.2	1751	5232	9349	687.7	36.27	7.513	5.244	3.800	3.052	2.542	2.370	2.255	1.878	1.650	1.489	1.589	1.476	1.344	1.421	1.289	1.307	1.351	1.319	1.194	1.239	1.082	0.992	1.022	1.081	1.061	1.060	1.202	1.309	1.440	1.547	1.574	1.353	1.252	1.213	1.118	1.147	1.097	1.123	1.285	1.372	1.430	1.662	2.005	2.380	3.043	4.626	5.462	4.418	3.197	3.327	3.818	5.223	8.087	10.36	14.62	22.70	49.43	78.20	32.58
300.0	358.7	474.5	470.1	326.6	224.8	210.1	238.9	294.8	405.2	653.1	1165	901.7	658.4	663.5	1458	6066	8252	535.9	19.61	6.662	4.876	3.710	3.089	2.346	2.576	1.863	1.792	1.555	1.634	1.711	1.583	1.387	1.319	1.319	1.329	1.446	1.353	1.091	1.089	1.100	1.065	0.999	1.102	1.209	1.276	1.407	1.439	1.745	1.736	1.523	1.446	1.468	1.336	1.294	1.272	1.292	1.574	1.734	1.787	1.924	2.141	2.364	2.775	3.661	4.900	6.486	5.930	4.337	3.686	3.719	3.886	4.075	4.848	6.577	14.43	37.44	66.07
305.0	397.1	517.9	533.4	376.5	267.3	257.9	298.6	364.4	493.9	685.4	1070	1348	824.5	539.5	573.3	1785	7214	4965	76.70	11.08	6.235	4.272	3.319	2.640	2.554	2.203	1.987	1.615	1.688	1.635	1.596	1.574	1.394	1.300	1.395	1.353	1.357	1.270	1.140	1.190	1.104	1.057	1.143	1.243	1.314	1.524	1.677	1.845	1.771	1.654	1.489	1.633	1.576	1.440	1.520	1.586	1.658	1.883	2.213	2.253	2.458	2.700	3.233	3.694	4.278	5.658	7.173	6.952	5.626	4.195	3.899	3.346	3.188	3.161	4.846	10.12	22.04
310.0	412.0	552.6	547.4	400.0	291.2	287.2	342.8	429.2	551.5	731.5	960.3	1253	1225	702.4	449.8	595.5	2084	4968	5489	1471	24.50	5.538	4.358	3.322	2.896	2.331	2.149	1.830	1.830	1.629	1.544	1.535	1.496	1.470	1.428	1.363	1.373	1.246	1.220	1.156	1.135	1.160	1.216	1.158	1.371	1.511	1.677	1.978	1.883	1.633	1.573	1.753	1.571	1.598	1.705	1.729	1.734	2.095	2.329	2.516	2.617	3.015	3.519	3.744	4.186	4.828	5.494	6.410	7.241	6.466	5.332	3.898	3.228	2.961	2.959	4.010	6.423
315.0	404.0	572.1	554.4	411.4	321.2	310.2	381.5	460.9	574.5	744.7	926.9	1058	1131	1050	546.2	375.8	649.8	1244	3276	7208	499.6	25.39	6.101	4.241	3.506	2.769	2.419	2.108	1.925	1.839	1.652	1.573	1.558	1.485	1.489	1.374	1.404	1.335	1.271	1.063	1.064	1.143	1.144	1.253	1.318	1.640	1.826	2.143	2.158	1.874	1.719	1.917	1.678	1.668	1.608	1.787	2.042	2.166	2.746	2.776	2.919	3.103	3.594	4.087	4.416	4.732	5.172	5.499	5.871	5.648	6.634	6.316	4.341	3.435	2.714	2.859	2.984
320.0	438.2	665.2	632.6	457.9	348.5	329.5	394.0	473.8	590.3	754.9	910.9	1020	998.0	1049	779.8	377.9	358.2	404.3	876.4	4649	6253	413.4	13.29	5.629	4.153	3.060	2.683	2.165	2.061	1.857	1.616	1.652	1.548	1.528	1.421	1.356	1.391	1.410	1.281	1.153	1.191	1.177	1.228	1.314	1.546	1.882	2.007	2.317	2.303	2.049	1.800	1.932	1.778	1.884	1.776	1.864	2.143	2.214	2.648	2.818	2.965	3.317	3.685	4.054	4.560	4.747	4.848	5.146	5.344	5.297	5.428	5.979	6.192	4.973	3.508	2.776	2.492
325.0	491.4	716.3	744.4	535.9	381.0	341.2	401.8	484.5	592.2	751.3	892.5	999.0	950.5	886.2	903.6	506.5	308.6	234.1	272.6	1321	5504	3771	59.27	8.666	5.130	3.434	2.880	2.481	1.995	1.888	1.797	1.712	1.503	1.473	1.539	1.307	1.365	1.498	1.209	1.216	1.209	1.285	1.081	1.439	1.551	1.963	2.266	2.601	2.650	2.227	2.160	2.048	1.807	1.829	1.866	1.911	2.132	2.500	2.488	2.760	2.902	3.248	3.576	3.903	4.499	4.531	4.777	5.226	5.245	5.047	4.958	4.843	5.577	5.889	5.183	3.422	2.773
330.0	539.0	829.3	911.5	688.2	490.7	391.4	421.7	489.0	589.1	730.7	874.6	968.2	934.3	816.5	743.9	668.5	428.7	235.4	172.6	378.2	1559	3910	4399	1186	19.85	4.897	3.630	2.900	2.366	2.165	1.950	1.863	1.536	1.536	1.554	1.412	1.273	1.299	1.234	1.231	1.171	1.241	1.249	1.437	1.614	1.987	2.316	2.814	3.089	2.521	2.430	2.541	2.284	2.141	1.983	1.990	2.203	2.417	2.536	2.892	3.044	3.169	3.531	3.843	4.299	4.717	4.680	4.949	4.967	5.026	4.846	4.707	4.699	4.639	4.984	4.702	4.533
335.0	586.5	933.0	1032	842.8	605.0	461.0	449.7	503.8	599.2	725.4	851.1	948.0	914.2	809.6	672.5	574.3	603.9	348.6	191.0	199.6	439.1	972.1	2843	5975	412.4	20.06	4.796	3.591	3.040	2.395	2.202	1.906	1.740	1.642	1.538	1.442	1.264	1.241	1.140	1.124	1.194	1.250	1.342	1.473	1.704	2.091	2.491	3.348	3.244	2.993	3.015	2.998	2.769	2.541	2.264	2.273	2.330	2.635	2.759	2.812	3.034	2.981	3.497	3.849	3.950	4.568	4.595	4.771	5.084	4.830	4.934	4.722	4.481	4.190	3.944	3.897	4.353
340.0	631.1	958.1	1101	921.0	666.9	492.0	468.3	512.5	593.7	705.9	825.2	908.8	898.6	800.7	654.5	517.6	541.5	491.1	243.3	178.1	206.3	303.7	780.7	4124	5173	343.7	9.648	4.230	3.448	2.628	2.217	1.945	1.833	1.675	1.579	1.365	1.367	1.396	1.210	1.107	1.128	1.188	1.367	1.583	1.756	2.088	2.462	3.291	3.303	3.129	3.349	3.367	3.044	2.940	2.422	2.469	2.530	2.651	2.801	2.891	3.049	3.150	3.591	3.839	4.003	4.026	4.547	4.724	4.675	4.747	4.826	4.506	4.325	4.322	4.029	3.513	3.778
345.0	616.7	942.4	1086	949.7	715.9	529.5	481.7	510.6	580.3	680.9	787.6	868.1	857.3	771.1	636.1	497.0	447.9	503.6	364.2	201.4	170.1	168.8	243.5	1195	4830	3159	50.44	6.263	3.982	3.100	2.486	2.108	1.940	1.728	1.489	1.340	1.411	1.430	1.269	1.248	1.233	1.224	1.350	1.408	1.634	2.104	2.442	3.063	3.403	3.230	3.218	3.520	3.241	2.819	2.410	2.445	2.547	2.496	2.657	2.695	3.114	3.047	3.493	3.562	3.857	3.901	4.382	4.676	4.493	4.313	4.566	4.469	4.346	4.458	3.827	3.507	3.328
350.0	581.2	914.8	1075	958.2	742.5	555.3	501.1	519.0	562.5	650.3	736.2	801.3	799.2	728.8	617.7	491.6	415.0	401.8	424.3	316.5	196.1	158.5	141.3	321.1	1392	3403	3611	943.3	16.12	4.256	3.114	2.365	2.125	1.781	1.654	1.429	1.291	1.304	1.219	1.172	1.118	1.208	1.275	1.418	1.723	2.079	2.454	3.072	3.253	3.165	3.212	3.559	3.265	2.969	2.634	2.530	2.625	2.585	2.723	2.714	3.000	2.957	3.429	3.540	3.697	3.668	3.985	4.206	4.295	4.267	4.181	4.368	4.141	4.166	3.569	3.525	3.226
355.0	514.9	850.2	990.6	929.5	753.1	581.2	522.3	520.5	543.5	619.7	690.0	739.3	733.8	690.5	594.1	490.7	412.9	363.3	353.4	400.0	291.5	179.5	136.5	141.2	354.2	818.1	2518	4777	370.9	14.91	4.035	2.753	2.276	1.939	1.631	1.507	1.267	1.300	1.241	1.100	1.096	1.141	1.306	1.383	1.777	2.115	2.253	2.709	3.225	2.990	2.918	3.651	3.245	3.031	2.643	2.489	2.733	2.443	2.581	2.624	3.073	2.857	3.139	3.133	3.636	3.543	3.680	3.850	4.033	3.701	3.802	4.159	3.696	3.835	3.745	3.335	3.402
360.0	502.3	750.9	918.1	898.8	742.4	597.2	535.2	521.7	545.8	601.9	656.5	699.0	695.5	656.9	578.3	486.5	421.8	361.8	326.0	358.6	380.7	230.1	151.2	114.3	134.0	220.0	685.9	3611	3125	299.0	7.498	3.369	2.668	2.156	1.779	1.482	1.409	1.408	1.229	1.262	1.090	1.114	1.296	1.388	1.576	1.897	2.105	2.654	2.909	2.871	2.931	3.385	3.126	2.845	2.784	2.410	2.642	2.605	2.749	2.717	2.771	2.946	2.864	3.222	3.517	3.461	3.534	3.946	3.822	3.838	3.797	3.746	3.669	3.784	3.474	3.503	3.543
365.0	474.7	702.0	875.4	862.2	730.2	596.4	532.6	527.1	542.0	586.5	635.4	661.5	657.1	626.8	563.5	479.0	422.5	368.3	333.2	319.4	373.7	316.3	180.5	123.9	98.46	95.68	186.2	1084	4055	2829	45.67	5.198	3.078	2.383	1.934	1.744	1.555	1.370	1.330	1.275	1.144	1.089	1.175	1.336	1.572	1.735	2.185	2.582	2.666	2.841	2.802	3.317	3.057	2.836	2.823	2.695	2.576	2.627	2.712	3.017	2.909	2.973	3.153	3.014	3.155	3.435	3.434	3.528	3.679	3.746	3.689	3.677	3.623	3.770	3.850	3.528	3.414
370.0	422.1	644.7	800.8	813.6	711.5	611.0	542.3	524.7	537.6	568.1	604.9	621.9	615.4	591.2	540.1	471.6	427.2	379.7	348.0	317.9	318.1	344.2	272.6	158.0	109.7	86.71	86.32	275.5	1228	3195	3244	768.4	12.99	3.165	2.390	1.855	1.776	1.419	1.286	1.286	1.132	1.148	1.217	1.353	1.461	1.705	1.933	2.425	2.490	2.573	2.575	3.209	2.926	2.974	2.894	2.606	2.954	2.679	2.610	2.749	2.795	2.825	3.046	3.018	3.255	3.130	3.269	3.337	3.289	3.484	3.390	3.560	3.564	3.504	3.451	3.480	3.203
375.0	392.4	588.0	716.0	752.7	689.6	618.5	544.6	519.7	528.4	543.5	572.4	590.6	585.7	563.6	512.5	460.6	423.7	386.7	358.9	330.6	305.2	295.9	321.9	243.2	140.0	102.2	82.21	107.1	305.5	776.3	2469	4101	309.8	11.28	3.095	2.481	1.989	1.618	1.362	1.219	1.171	1.155	1.242	1.257	1.272	1.602	1.733	2.153	2.232	2.321	2.444	3.015	2.838	3.087	2.677	2.684	2.839	2.726	2.650	2.550	2.612	2.668	2.870	2.971	3.081	2.859	3.116	3.181	3.203	3.454	3.185	3.432	3.397	3.204	3.394	3.324	3.290
380.0	368.4	541.0	688.3	712.9	697.6	605.6	543.0	520.5	520.8	532.5	551.5	559.0	557.1	537.5	499.7	451.8	415.9	387.8	363.7	338.8	309.4	282.8	291.3	302.7	191.1	121.5	91.83	81.21	109.5	203.6	688.8	3308	2666	235.9	5.453	2.809	2.083	1.739	1.554	1.370	1.274	1.262	1.174	1.234	1.348	1.533	1.779	2.159	2.138	2.213	2.372	2.889	2.736	2.819	2.682	2.669	2.678	2.642	2.614	2.721	2.566	2.743	2.829	3.115	3.012	3.056	3.057	3.257	3.049	3.487	3.111	3.178	3.412	3.173	3.403	3.173	3.207
385.0	346.4	503.1	627.0	691.7	653.5	593.7	544.1	515.2	511.6	522.4	538.8	538.0	541.3	514.1	477.4	445.7	415.4	388.2	368.5	344.5	315.1	287.8	268.1	292.4	258.9	153.0	109.7	86.95	76.56	82.79	182.6	1023	3426	2283	35.77	3.791	2.463	1.996	1.623	1.366	1.368	1.180	1.259	1.283	1.395	1.458	1.639	2.097	2.123	2.015	2.199	2.749	2.719	2.964	2.907	2.653	2.763	2.733	2.623	2.696	2.509	2.697	2.918	2.924	2.804	2.823	2.973	3.005	3.011	3.223	3.156	3.043	3.094	3.016	3.333	3.221	3.198
390.0	306.2	457.5	601.3	657.4	631.8	573.8	539.0	509.8	499.6	506.8	515.3	517.2	514.8	493.6	461.3	433.0	407.8	389.3	368.0	345.7	322.5	293.7	267.6	255.0	268.7	225.3	144.6	106.0	83.58	68.97	77.95	255.9	1039	2499	2385	545.1	10.22	2.596	2.020	1.547	1.426	1.267	1.292	1.266	1.365	1.414	1.540	1.901	2.001	1.919	2.086	2.608	2.747	2.768	2.709	2.583	2.686	2.743	2.535	2.636	2.570	2.822	2.782	2.820	2.818	2.752	2.824	2.967	2.893	2.979	2.926	3.099	3.162	3.091	3.152	3.100	3.193
395.0	297.8	466.6	568.7	613.6	609.6	555.4	528.0	507.6	492.1	498.2	491.0	494.2	488.6	472.8	442.8	420.2	398.6	382.3	367.1	348.5	324.2	300.7	272.9	251.3	234.8	251.7	211.9	135.6	100.9	81.12	67.05	91.23	255.4	608.9	1874	2953	252.2	8.029	2.437	1.836	1.653	1.233	1.338	1.289	1.408	1.552	1.512	1.734	1.973	1.904	1.961	2.465	2.639	2.750	2.544	2.698	2.659	2.940	2.729	2.860	2.705	2.764	2.698	2.872	2.748	2.803	2.799	2.682	2.747	2.882	2.786	2.977	3.063	3.103	2.959	2.957	3.029
400.0	296.7	431.3	550.6	592.4	593.2	551.9	519.8	502.7	490.6	483.2	479.5	483.8	473.3	460.4	433.5	404.6	389.8	372.2	357.0	346.1	323.7	304.0	280.5	255.3	232.5	232.3	247.6	176.0	119.9	92.47	73.12	62.72	86.10	156.2	528.1	2434	2143	36.78	4.119	2.394	1.815	1.418	1.378	1.442	1.425	1.585	1.617	1.783	1.955	1.853	1.900	2.326	2.614	2.614	2.602	2.657	2.541	2.728	2.572	2.609	2.778	2.792	2.586	2.701	2.769	2.576	2.548	2.751	2.987	2.643	2.943	3.024	2.858	2.813	2.730	3.007	3.262
405.0	287.0	405.9	528.1	576.4	578.5	548.9	515.2	507.5	483.5	472.9	470.0	464.4	462.0	447.0	419.0	396.8	378.9	363.0	350.8	339.4	321.8	301.0	284.0	257.6	237.6	220.8	235.9	223.8	145.6	106.6	84.33	65.19	55.91	58.85	135.4	757.2	2563	1756	30.90	2.945	1.972	1.626	1.478	1.442	1.367	1.437	1.491	1.887	1.924	1.939	1.886	2.327	2.465	2.544	2.481	2.496	2.811	2.513	2.540	2.564	2.700	2.654	2.569	2.447	2.714	2.497	2.763	2.656	2.892	2.753	2.810	2.782	2.887	2.914	2.756	2.801	3.245
410.0	280.5	392.6	503.1	556.8	569.2	543.7	512.5	494.0	471.9	463.0	460.9	455.7	441.5	428.4	404.5	380.2	362.3	353.4	339.7	327.6	311.8	297.3	282.7	261.6	241.8	220.6	212.8	224.2	199.7	135.3	98.67	75.01	56.00	44.30	51.74	185.3	774.0	1863	1799	141.6	8.569	2.163	1.677	1.585	1.481	1.376	1.540	1.741	1.838	1.841	1.833	2.321	2.459	2.527	2.646	2.438	2.659	2.580	2.508	2.491	2.534	2.581	2.470	2.689	2.632	2.498	2.632	2.466	2.695	2.595	2.655	2.607	2.751	2.739	2.804	2.843	2.909
