Sample:	'1
File name:	Default_20230428_134540.FD3
Run date:	'13:39:19, 04/28/2023
Operator:	user
Comment:	'

Instrument
Model:	F-2700 FL Spectrophotometer
Serial number:	2190-003
ROM Version:	4J14000 07

Instrument parameters
Measurement type:	3-D scan
Data mode:	Fluorescence
EX  Start WL:	220.0 nm
EX  End WL:	600.0 nm
EX Sampling interval:	5.0 nm
EM  Start WL:	230.0 nm
EM  End WL:	650.0 nm
EM Sampling interval:	5.0 nm
Scan speed:	12000 nm/min
EX Slit:	5.0 nm
EM Slit:	5.0 nm
PMT Voltage:	700 V
Response:	Auto 
Corrected spectra:	Off
Contour interval:	50.000

Peak integration
Integration method:	Rectangular
Sensitivity:	1
Threshold:	1.000

Peaks
No.	ApexEX/EM(nm)	Height(Data)
1	225.0/270.0	42.05
2	225.0/565.0	47.41
3	225.0/590.0	48.00
4	225.0/605.0	43.82
5	225.0/635.0	38.11
6	230.0/320.0	149.7
7	230.0/340.0	163.4
8	235.0/330.0	152.3
9	235.0/350.0	164.1
10	235.0/360.0	168.1
11	235.0/510.0	115.6
12	235.0/550.0	48.78
13	235.0/615.0	34.93
14	240.0/385.0	227.0
15	240.0/515.0	116.4
16	240.0/605.0	30.45
17	245.0/530.0	108.4
18	250.0/545.0	117.6
19	250.0/580.0	30.32
20	250.0/595.0	25.06
21	255.0/280.0	330.7
22	255.0/425.0	281.3
23	255.0/555.0	101.7
24	260.0/285.0	456.5
25	260.0/565.0	99.92
26	260.0/615.0	22.04
27	265.0/290.0	462.2
28	265.0/435.0	299.0
29	265.0/575.0	90.61
30	270.0/295.0	636.3
31	270.0/420.0	303.5
32	270.0/445.0	295.9
33	270.0/590.0	91.98
34	275.0/305.0	760.9
35	275.0/435.0	297.1
36	275.0/605.0	80.11
37	280.0/310.0	754.1
38	280.0/340.0	396.2
39	280.0/390.0	324.4
40	280.0/615.0	70.74
41	285.0/315.0	752.2
42	285.0/400.0	325.9
43	285.0/625.0	60.86
44	290.0/320.0	712.1
45	290.0/640.0	45.67
46	305.0/340.0	427.6
47	310.0/345.0	407.1
48	310.0/395.0	277.9
49	315.0/240.0	5.022
50	315.0/350.0	319.7
51	320.0/360.0	328.2
52	325.0/365.0	343.4
53	330.0/370.0	297.3
54	335.0/375.0	297.8
55	340.0/385.0	306.7
56	345.0/390.0	265.3
57	350.0/395.0	263.0
58	355.0/405.0	257.2
59	360.0/410.0	226.4
60	365.0/415.0	215.8
61	370.0/425.0	198.9
62	375.0/430.0	167.4
63	380.0/435.0	157.2
64	385.0/445.0	140.9
65	390.0/450.0	122.6
66	395.0/455.0	106.6
67	400.0/465.0	93.54
68	405.0/470.0	78.23
69	410.0/475.0	66.77
70	415.0/485.0	58.71
71	425.0/495.0	44.23
72	430.0/505.0	36.74
73	435.0/510.0	30.49
74	440.0/515.0	26.92
75	450.0/530.0	19.48
76	455.0/535.0	17.03
77	470.0/555.0	9.213
78	510.0/280.0	3.274
79	520.0/285.0	3.126
80	525.0/290.0	2.950
81	535.0/295.0	3.202
82	545.0/300.0	4.445
83	550.0/305.0	4.214
84	555.0/310.0	3.635
85	570.0/315.0	4.120
86	575.0/320.0	3.830
87	585.0/325.0	3.492

Data points
	220.0	225.0	230.0	235.0	240.0	245.0	250.0	255.0	260.0	265.0	270.0	275.0	280.0	285.0	290.0	295.0	300.0	305.0	310.0	315.0	320.0	325.0	330.0	335.0	340.0	345.0	350.0	355.0	360.0	365.0	370.0	375.0	380.0	385.0	390.0	395.0	400.0	405.0	410.0	415.0	420.0	425.0	430.0	435.0	440.0	445.0	450.0	455.0	460.0	465.0	470.0	475.0	480.0	485.0	490.0	495.0	500.0	505.0	510.0	515.0	520.0	525.0	530.0	535.0	540.0	545.0	550.0	555.0	560.0	565.0	570.0	575.0	580.0	585.0	590.0	595.0	600.0
230.0	38.10	125.1	 1212	 1054	93.85	20.97	17.06	13.26	11.74	11.30	10.73	9.320	7.878	8.409	7.365	5.669	4.478	4.324	4.465	3.496	3.371	3.073	3.174	2.867	2.505	2.308	2.495	2.158	2.052	2.287	2.279	2.098	1.775	1.858	1.934	1.823	1.719	1.734	1.827	1.547	1.649	1.535	1.356	1.336	1.326	1.261	1.209	2.282	4.945	4.583	2.360	1.082	1.093	1.145	1.080	0.991	1.067	1.028	1.011	0.790	0.987	0.890	0.846	1.096	0.977	0.812	1.000	0.940	0.999	0.913	0.843	0.944	0.783	0.986	0.819	1.049	1.067
235.0	37.05	61.68	465.2	 1698	 1319	147.0	21.52	14.44	14.90	13.71	12.71	8.179	9.286	6.551	6.198	5.345	4.101	4.459	4.043	4.027	3.403	3.400	3.207	2.978	2.701	2.600	2.359	2.737	1.621	2.387	1.958	2.026	1.780	2.016	1.835	1.784	1.906	1.822	1.701	1.742	1.367	1.254	1.671	1.544	1.099	1.348	1.153	1.361	2.759	3.615	5.551	6.328	3.705	1.243	1.275	1.402	1.118	1.055	1.058	0.954	1.090	0.797	0.745	0.745	1.051	0.817	1.155	0.843	0.908	1.056	1.009	0.859	0.841	0.962	0.727	0.936	0.861
240.0	54.06	54.91	142.5	826.8	 2357	 1332	91.45	17.70	12.77	12.70	12.97	9.047	8.631	7.076	6.959	4.746	3.564	3.692	3.900	5.022	3.220	3.036	3.538	2.755	2.463	2.147	2.112	2.880	2.050	2.416	2.121	2.020	1.801	1.976	1.556	1.658	1.510	1.851	1.840	1.780	1.765	1.411	1.499	1.488	1.322	1.465	1.210	1.042	1.385	1.725	3.296	7.323	9.967	7.779	3.062	1.395	1.189	0.904	1.201	1.040	0.921	0.651	0.803	1.075	0.830	0.784	0.889	0.930	0.860	0.949	1.216	0.913	0.776	1.009	0.949	0.923	0.812
245.0	72.32	65.30	75.43	232.3	 1408	 3275	 1087	46.60	17.12	12.32	11.57	10.12	9.513	5.623	6.067	4.914	4.941	4.523	5.205	3.933	2.773	3.121	3.360	2.663	2.400	2.620	2.312	2.644	2.496	2.534	2.386	2.172	1.837	1.869	1.570	1.596	1.937	1.840	1.830	1.875	1.753	1.175	1.411	1.670	1.369	1.391	1.524	1.125	1.395	1.228	1.357	2.861	6.868	12.87	11.74	7.295	2.096	1.027	1.093	0.933	0.876	0.810	0.803	1.326	1.064	1.057	0.849	0.991	0.723	1.153	0.953	0.970	0.600	0.877	1.007	0.943	1.262
250.0	52.54	48.35	85.27	125.6	377.3	 1758	 3275	 2311	335.9	16.24	12.45	11.61	8.557	7.153	7.025	5.611	4.630	4.809	4.450	3.762	3.910	3.551	3.316	2.525	2.657	2.485	2.282	2.602	2.476	2.241	2.308	1.894	2.186	1.851	1.428	1.690	1.740	1.507	1.733	1.623	1.604	1.349	1.586	1.655	1.428	1.203	1.630	1.173	1.532	1.354	1.136	1.405	2.489	4.519	7.630	11.33	12.47	11.58	6.672	1.919	1.121	0.755	0.971	1.045	1.002	0.949	0.882	0.889	0.986	1.131	1.060	0.911	0.868	0.840	1.026	0.919	0.933
255.0	45.48	51.08	55.00	133.4	181.9	422.3	 1238	 4575	 4116	388.0	16.89	14.25	10.75	8.442	7.651	6.992	4.994	4.689	5.267	4.438	3.752	3.132	3.678	2.604	3.379	2.540	2.378	2.070	2.499	2.472	2.785	1.734	2.083	1.872	1.462	1.644	1.693	1.478	1.522	1.690	1.562	1.861	1.135	1.622	1.159	1.411	1.803	1.357	1.196	1.280	1.180	1.562	1.448	1.974	2.536	3.576	5.967	12.34	21.05	20.88	8.789	1.250	0.913	0.858	1.081	0.861	1.080	0.958	0.986	0.874	0.911	0.862	1.031	0.968	0.594	0.828	0.955
260.0	36.74	44.52	44.81	77.47	195.5	164.4	308.4	 2148	 6416	 3836	223.4	17.77	11.80	10.18	9.695	6.547	5.698	5.363	3.836	3.402	2.921	2.845	3.068	2.474	2.745	2.523	2.571	2.863	2.594	2.317	2.251	1.608	2.616	1.497	1.755	1.753	1.615	1.594	1.732	1.498	1.453	2.090	1.489	1.745	1.345	1.139	1.109	1.203	1.280	1.134	1.094	1.602	1.853	1.644	1.665	1.566	2.114	4.357	10.79	22.39	27.56	19.08	5.717	1.005	0.984	1.029	0.955	1.295	1.067	0.882	0.798	0.609	1.053	0.956	0.809	0.684	0.993
265.0	47.73	38.45	34.95	47.22	145.2	205.1	119.3	551.1	 3283	 7878	 1083	88.01	15.87	10.80	10.20	7.177	6.415	6.609	4.153	4.059	4.182	3.198	3.135	3.062	3.014	1.879	2.563	2.819	2.410	2.240	2.375	1.941	2.368	1.974	1.931	1.570	1.621	1.351	1.484	1.401	1.300	1.920	1.871	1.570	1.294	1.088	0.998	1.108	1.465	1.166	1.000	1.293	1.713	2.088	1.807	1.183	1.160	1.856	3.207	7.898	17.84	30.86	30.94	13.31	2.565	1.039	0.897	0.957	0.940	0.851	1.018	0.817	0.843	0.849	0.736	0.787	0.970
270.0	40.06	42.05	35.25	37.03	60.04	159.8	241.1	197.0	818.3	 3517	 6696	 3997	351.2	15.89	11.31	9.112	6.898	6.073	5.566	4.900	4.417	4.070	3.277	2.752	2.850	2.638	3.143	2.234	2.785	2.547	2.203	1.973	1.898	2.044	1.609	1.716	1.592	1.615	1.398	1.259	1.457	1.480	1.497	1.358	1.648	1.351	1.376	1.416	1.206	1.084	1.044	1.091	1.265	1.441	1.834	2.200	1.914	1.707	1.487	2.608	4.946	10.33	18.34	25.49	28.98	21.18	9.241	2.059	1.000	0.896	0.975	0.888	1.036	0.975	0.869	1.192	1.031
275.0	52.43	39.69	40.85	34.13	36.75	61.09	189.2	325.8	247.2	823.0	 2193	 7899	 6065	419.3	14.83	10.31	7.748	6.725	6.614	5.950	4.088	3.658	3.351	3.737	3.297	2.475	2.813	2.624	2.383	2.483	2.295	1.908	1.748	1.834	1.502	1.692	1.519	1.559	1.401	1.628	1.631	1.758	1.284	1.602	1.817	1.354	1.551	1.109	1.249	1.030	0.990	0.901	1.322	1.120	1.112	1.687	2.171	2.739	2.242	1.920	1.837	3.057	4.717	6.958	11.82	25.39	42.19	31.26	9.174	1.662	1.046	0.942	1.096	0.675	0.899	1.146	0.699
280.0	43.24	36.09	44.20	39.35	29.52	37.23	84.01	330.7	309.5	235.9	549.4	 3036	9999.9	 4933	248.0	14.17	8.376	7.768	6.081	5.216	5.117	4.765	4.051	3.012	3.201	2.133	3.939	2.633	2.554	2.338	2.584	2.148	2.176	1.824	1.645	1.623	1.704	1.510	1.216	1.652	1.606	1.896	1.398	1.176	1.719	1.378	1.444	1.095	1.323	1.226	1.097	1.241	1.141	1.037	1.089	1.183	1.797	1.839	3.274	2.713	1.776	1.514	2.078	2.258	3.438	7.841	19.26	37.84	45.73	23.46	4.638	1.023	1.127	0.941	1.057	1.017	1.074
285.0	57.91	54.95	56.09	46.56	31.96	28.87	40.47	175.6	456.5	241.3	184.9	773.8	 4559	9999.9	 3577	95.09	11.63	8.697	7.096	6.122	5.416	4.339	4.120	3.811	3.440	2.956	3.052	2.917	2.051	2.147	3.232	2.682	2.487	1.927	1.756	1.814	1.705	1.721	1.521	1.590	1.604	1.595	1.459	1.260	1.263	1.507	1.544	1.626	1.300	1.179	1.389	1.064	1.180	1.034	1.418	1.018	1.325	1.162	2.130	2.686	3.126	2.114	1.362	1.437	1.613	2.734	5.082	12.45	31.12	46.87	37.34	13.79	1.934	1.194	0.760	1.047	1.023
290.0	56.63	64.12	67.54	57.36	40.56	34.40	41.48	79.38	247.0	462.2	311.6	287.6	 1169	 4439	 9158	 5185	223.3	13.58	7.639	6.030	5.589	4.953	5.108	3.703	4.019	3.208	3.689	2.863	2.554	2.826	2.723	2.517	2.242	2.106	1.752	1.558	1.458	1.624	1.448	1.425	1.697	1.463	1.425	1.278	1.564	1.591	1.476	1.493	1.356	1.269	1.193	1.101	1.447	1.162	1.396	1.039	1.083	1.201	1.611	1.778	2.425	2.950	2.541	1.970	1.600	1.676	2.221	4.166	8.415	15.70	25.50	34.55	34.79	26.62	9.870	2.116	1.050
295.0	62.22	80.41	91.27	72.85	58.92	48.97	46.57	69.73	116.4	268.3	636.3	377.0	420.8	 1113	 2699	 9211	 8228	292.6	10.18	6.896	6.969	5.443	5.032	5.312	3.840	2.976	4.132	3.120	3.223	2.389	2.400	2.584	2.431	2.002	2.163	1.612	1.504	1.719	1.515	1.344	1.659	1.212	1.490	1.419	1.585	1.491	1.295	1.467	1.510	1.331	1.090	1.309	1.261	1.212	1.172	1.050	1.313	1.222	1.269	1.540	1.759	1.726	2.371	3.202	3.185	2.403	1.745	2.185	3.306	4.560	6.908	9.251	15.45	36.17	47.50	32.47	9.997
300.0	89.49	85.47	104.1	87.28	70.34	57.67	61.57	76.59	102.8	173.6	503.7	738.7	364.3	420.1	712.1	 3387	9999.9	 3201	188.6	9.648	8.023	5.875	5.475	4.323	4.214	3.873	3.425	3.179	3.035	2.645	2.388	2.296	2.617	2.200	2.048	1.810	1.947	1.727	1.633	1.560	1.556	1.603	1.563	1.593	1.347	1.676	1.327	1.612	1.390	1.219	1.112	1.287	1.247	1.332	1.038	0.991	1.310	1.255	1.482	1.129	1.831	1.273	1.583	2.271	3.154	4.445	2.540	2.100	2.273	2.321	2.734	3.154	4.601	10.89	25.37	45.70	48.38
305.0	87.24	83.91	110.7	100.3	69.66	61.15	74.08	87.17	111.6	169.4	313.2	760.9	642.4	304.0	284.9	848.8	 4701	9999.9	 2541	91.86	9.026	7.500	7.303	4.474	4.618	2.986	3.474	3.531	3.190	2.737	2.637	2.290	2.412	2.295	2.313	1.792	1.834	2.014	1.739	1.721	2.116	1.578	1.460	1.436	1.477	1.359	1.315	1.314	1.461	1.439	1.498	1.281	1.282	1.327	1.238	1.336	1.406	1.588	1.537	1.294	1.527	1.353	1.797	2.091	2.689	3.856	4.214	3.216	2.081	2.060	1.863	1.552	1.985	3.478	6.851	16.24	36.64
310.0	77.51	96.35	119.2	103.7	80.57	70.04	83.88	98.49	129.5	187.5	258.8	467.3	754.1	603.7	257.0	285.7	 1149	 4561	 8847	 5471	165.1	11.46	7.853	5.992	4.406	3.855	3.863	3.817	2.812	2.978	3.189	2.563	2.886	2.381	2.521	1.990	1.781	2.029	1.801	1.627	1.799	1.717	1.442	1.339	1.648	1.288	1.543	1.198	1.492	1.390	1.266	1.373	1.508	1.586	1.275	1.539	1.639	1.422	1.385	1.435	1.627	1.509	1.649	1.814	2.358	2.297	2.665	3.635	3.193	2.745	2.293	1.780	1.481	1.897	2.566	4.602	9.749
315.0	74.98	125.8	132.9	114.0	82.12	81.01	90.06	109.4	151.3	202.6	267.6	371.9	490.5	752.2	508.4	203.4	327.2	 1062	 2610	 9076	 7521	220.6	10.80	6.564	5.614	4.666	4.167	3.431	3.747	3.182	3.162	2.350	2.498	2.576	1.902	1.970	1.711	1.583	1.607	1.748	1.606	1.276	1.793	1.071	1.420	1.352	1.568	1.210	1.307	1.407	1.387	1.134	1.545	1.263	1.314	1.531	1.570	1.398	1.454	1.240	1.548	1.772	1.736	1.986	2.052	2.367	2.061	2.740	2.544	3.255	4.120	2.524	1.752	1.570	1.577	1.899	2.902
320.0	79.28	113.2	149.7	121.6	98.08	91.04	89.89	113.0	146.3	213.8	275.2	356.1	405.0	544.7	712.1	313.0	154.0	286.6	622.1	 3392	9999.9	 2284	154.7	8.490	6.455	6.181	4.160	3.705	3.716	3.346	3.107	2.701	2.710	2.416	2.166	2.084	1.906	1.949	1.570	2.085	1.625	1.411	1.498	1.235	1.476	1.511	1.574	1.342	1.671	1.112	1.275	1.489	1.133	1.105	1.244	1.704	1.454	1.523	1.667	1.428	1.735	1.582	1.645	1.854	2.132	2.177	2.054	2.192	2.032	2.144	3.487	3.830	3.088	2.071	1.309	1.564	1.666
325.0	76.18	109.2	139.1	144.3	105.0	98.17	102.6	121.9	153.9	213.1	277.3	352.9	374.5	426.1	589.3	553.5	175.2	119.4	177.8	815.4	 4697	 9929	 2016	79.07	7.685	6.531	4.944	4.144	3.554	3.604	3.341	2.699	2.767	2.540	2.178	1.649	1.995	1.946	1.485	1.857	1.735	1.224	1.622	1.769	1.487	1.743	1.414	1.343	1.434	1.251	1.282	1.180	1.285	1.633	1.562	1.518	1.539	1.624	1.566	1.479	1.471	1.726	1.853	2.298	1.925	1.919	2.352	2.150	1.707	2.126	2.398	3.091	3.396	3.492	1.845	1.780	1.609
330.0	92.40	106.2	151.3	152.3	118.1	102.6	109.8	136.6	181.1	219.0	284.8	356.6	384.6	395.6	390.8	496.9	409.8	154.3	90.30	220.2	 1121	 4310	 9084	 4901	129.9	10.32	6.973	5.135	4.554	3.817	3.543	3.010	2.713	2.432	2.584	1.998	1.912	1.792	1.811	1.464	1.691	1.495	1.353	1.560	1.556	1.590	1.659	1.640	1.347	1.307	1.141	1.258	1.237	1.453	1.383	1.672	1.537	1.617	1.488	1.802	1.835	2.088	2.047	2.161	2.022	2.143	2.173	2.112	2.006	2.241	2.182	2.112	2.529	2.880	2.603	2.664	2.153
335.0	84.70	96.08	152.8	142.6	126.4	106.2	126.2	148.5	184.2	233.5	296.7	353.8	393.4	393.8	338.9	316.2	406.1	363.8	117.7	98.22	286.7	993.2	 2766	 8730	 6827	179.0	10.35	6.795	5.217	4.485	4.042	3.379	3.427	2.272	2.381	2.298	1.886	2.337	1.706	1.406	1.513	1.450	1.626	1.549	1.529	1.536	1.677	1.585	1.542	1.327	1.109	1.112	1.269	1.418	1.409	1.850	1.833	2.135	1.706	1.978	1.900	2.080	2.280	2.154	1.969	2.193	2.458	2.425	2.160	2.165	2.446	2.199	2.266	2.077	2.189	2.290	3.244
340.0	100.1	105.4	163.4	146.5	129.7	112.8	137.7	162.5	189.5	232.1	299.8	352.7	396.2	391.3	320.4	263.6	264.5	427.6	259.4	91.59	109.5	259.5	655.2	 3439	9999.9	 5020	126.2	7.921	6.356	5.494	5.036	4.021	3.741	2.530	2.331	2.191	1.821	2.056	2.093	1.584	1.333	1.428	1.606	1.534	1.902	1.645	1.439	1.486	1.587	1.344	1.329	1.232	1.491	1.259	1.334	1.680	1.940	2.191	2.045	1.750	1.726	1.841	2.096	2.080	2.461	2.283	2.305	2.445	1.961	1.777	2.182	2.643	1.652	2.037	1.941	1.649	2.339
345.0	75.15	122.7	144.8	150.4	136.5	126.6	142.8	171.5	181.6	235.9	296.5	349.7	389.2	385.6	323.6	253.3	207.1	305.2	407.1	153.4	82.06	101.9	181.5	827.0	 4898	9999.9	 1625	68.14	8.080	5.961	4.959	4.053	3.464	3.001	2.726	2.594	2.377	2.340	1.816	2.025	1.736	1.755	1.464	1.608	1.879	2.031	1.446	1.778	1.650	1.097	1.264	1.392	1.467	1.567	1.504	1.756	2.081	1.971	1.942	1.793	1.638	2.191	2.038	1.792	2.247	2.310	2.200	2.530	2.197	1.899	2.162	2.346	1.814	1.871	1.801	1.709	2.025
350.0	82.62	123.1	145.5	164.1	150.9	143.7	152.2	176.0	200.2	240.1	288.9	343.8	368.3	372.7	325.7	264.0	208.1	207.8	305.8	319.7	153.9	84.52	90.61	223.4	 1189	 4628	 7800	 4444	111.3	9.281	6.421	5.345	3.676	3.082	3.272	2.567	2.042	2.586	1.933	2.035	2.124	1.929	1.630	1.586	1.718	1.991	1.465	1.587	1.648	1.322	1.241	1.650	1.501	1.638	1.581	1.517	1.901	2.001	1.919	1.938	1.783	1.908	2.225	2.016	2.335	1.940	2.117	2.169	2.040	2.076	1.819	2.063	2.095	1.941	1.735	1.770	1.960
355.0	74.03	128.2	158.1	159.3	164.5	167.6	168.7	189.5	213.1	241.2	285.3	331.2	349.0	362.5	337.7	273.3	216.5	200.2	207.2	282.6	314.7	139.3	86.73	102.6	306.5	 1064	 2610	 8504	 6141	154.5	8.522	6.343	4.748	3.589	3.225	2.428	2.507	2.404	1.972	1.900	1.788	2.105	1.536	1.847	1.757	1.710	1.602	1.587	1.696	1.376	1.359	1.909	1.811	1.770	1.372	1.686	1.750	1.559	1.907	1.855	2.150	2.138	1.943	2.107	2.394	2.095	2.203	2.381	2.081	2.177	2.400	1.994	2.110	1.958	1.544	1.570	1.697
360.0	89.38	119.4	161.0	168.1	163.0	166.7	177.9	208.1	206.2	246.6	278.5	324.8	346.6	351.6	326.4	279.5	227.9	205.8	185.4	209.0	328.2	260.0	109.3	87.49	116.9	274.2	622.4	 3614	9999.9	 4399	103.5	7.845	5.562	3.931	3.691	2.781	2.665	2.446	2.332	1.939	1.853	1.979	1.850	1.781	1.558	1.883	1.930	1.724	1.800	1.569	1.310	1.610	1.782	1.588	1.795	1.737	1.689	1.710	1.966	1.709	2.138	2.003	2.025	2.009	2.084	2.015	1.987	2.157	2.212	2.572	2.283	2.225	2.208	2.331	1.648	2.169	2.057
365.0	91.91	117.7	158.6	159.3	170.5	162.6	188.6	191.7	216.7	248.6	277.2	323.6	335.2	348.8	324.3	282.7	241.4	212.6	202.7	195.3	251.6	343.4	191.0	99.25	88.72	108.7	175.9	878.4	 5133	9999.9	 1428	52.44	6.696	4.482	3.590	3.254	2.704	2.547	2.251	2.195	1.988	2.340	1.893	1.699	1.562	1.766	1.517	1.648	1.541	1.510	1.630	1.891	1.790	1.505	1.570	1.645	1.952	1.610	1.992	1.387	1.925	2.261	2.438	2.093	1.775	2.055	2.134	2.073	2.223	2.180	1.979	1.757	1.763	2.154	1.992	1.989	2.265
370.0	91.26	102.0	150.3	162.3	184.3	190.8	196.0	210.8	226.4	248.5	277.5	310.7	336.3	342.6	326.9	290.7	262.5	235.3	222.3	200.8	213.6	270.6	297.3	177.2	101.7	86.42	87.90	232.0	 1252	 4830	 8087	 4231	88.14	7.735	4.809	3.952	2.978	2.748	2.546	2.499	2.397	2.050	1.896	1.864	1.777	1.697	1.271	1.695	1.266	1.694	1.573	1.821	1.711	1.632	1.875	1.755	1.861	1.941	2.180	1.587	1.848	2.219	2.128	2.169	2.050	1.953	2.088	2.145	2.029	1.979	1.859	2.049	1.823	1.899	1.905	1.897	1.888
375.0	87.27	113.6	158.2	190.5	183.7	214.7	220.2	223.4	227.0	263.5	288.0	314.0	330.0	332.7	330.2	298.9	271.4	250.4	237.6	224.4	216.8	217.5	258.4	297.8	164.2	98.33	83.17	101.2	316.2	 1107	 2933	 9119	 5276	114.2	6.524	4.609	4.191	2.858	2.613	2.833	2.128	2.384	1.909	1.950	1.985	1.415	1.430	1.768	1.577	1.505	1.434	1.855	1.650	1.982	1.752	2.038	1.653	2.019	2.086	1.932	1.826	1.895	2.105	2.068	2.002	1.810	1.993	2.167	2.392	2.067	1.614	2.019	1.849	1.917	1.692	1.852	1.956
380.0	85.14	99.17	156.0	183.0	204.3	218.8	230.2	242.5	256.4	260.5	275.4	305.2	324.0	330.5	330.0	302.1	271.2	258.9	255.1	236.8	223.4	214.5	215.3	289.6	258.9	128.4	89.45	80.92	113.2	279.9	696.0	 4188	 9675	 1296	68.27	5.616	5.059	3.775	2.675	3.249	2.243	2.348	2.022	1.901	1.844	2.043	1.625	1.763	1.398	1.582	1.548	1.926	1.760	1.923	2.063	1.761	1.956	1.835	2.171	1.635	2.007	2.134	1.780	2.133	2.579	2.070	2.091	1.960	2.167	2.387	1.953	1.788	1.673	1.931	1.739	1.635	1.838
385.0	79.80	107.6	150.2	192.4	227.0	203.9	246.3	248.6	262.5	273.2	303.2	307.3	313.5	330.9	322.9	298.1	280.3	269.0	264.9	254.3	232.3	217.9	203.3	235.3	306.7	196.3	105.6	85.85	76.55	103.2	187.2	 1032	 5554	 8511	 1066	24.28	6.374	4.379	3.066	3.025	2.323	2.328	2.245	2.366	1.630	1.899	1.428	1.687	1.654	1.535	1.598	1.536	1.744	2.036	1.769	1.686	2.042	1.730	2.128	1.840	2.212	1.806	1.929	2.064	2.193	1.969	2.177	2.311	2.039	2.427	1.978	2.231	1.614	2.260	1.807	1.851	2.266
390.0	80.57	103.9	160.0	179.9	222.0	230.7	234.2	257.6	268.3	283.0	293.4	298.0	324.4	321.9	318.3	292.4	282.6	279.7	270.7	266.6	245.9	231.4	216.8	210.2	247.0	265.3	178.8	107.3	83.51	72.64	81.85	258.7	 1382	 4632	 6852	 2833	65.21	5.926	4.245	3.134	2.756	2.347	2.180	2.329	2.163	1.846	1.857	1.651	1.597	1.560	1.515	1.819	1.643	1.938	1.789	1.750	1.802	1.952	2.013	1.865	2.070	1.742	1.963	1.861	2.095	2.031	2.061	2.209	2.434	2.552	1.948	1.976	2.005	2.301	1.886	1.896	2.194
395.0	93.27	94.81	166.3	182.9	215.9	241.2	249.8	262.5	272.8	284.7	299.9	302.4	305.6	318.5	306.2	294.8	272.6	275.5	277.9	271.1	258.1	240.3	225.0	216.5	206.9	229.5	263.0	163.3	100.5	81.80	65.77	96.90	334.5	 1055	 2827	 7894	 3828	80.29	5.728	4.117	3.446	2.669	1.834	1.871	2.499	1.819	1.957	2.216	1.510	1.428	1.771	1.909	2.091	1.916	1.998	1.733	1.611	2.117	2.181	1.879	2.036	1.965	1.946	2.097	1.624	1.902	1.816	2.020	2.220	2.359	2.157	1.935	2.095	2.425	1.997	1.841	2.125
400.0	88.85	114.9	166.5	186.6	215.3	238.5	240.8	264.5	269.4	275.8	299.8	299.6	294.0	325.9	306.7	298.4	278.8	278.2	273.9	272.6	263.7	246.6	227.4	220.0	200.7	195.8	248.6	229.6	127.7	89.17	74.36	67.94	107.6	257.1	675.6	 4104	 7900	 1046	47.88	5.276	3.572	3.215	2.595	2.057	2.198	1.787	2.004	2.042	1.416	1.887	1.734	1.903	1.900	1.703	1.717	2.005	1.800	2.091	1.931	1.954	2.153	2.181	2.053	2.024	2.247	1.883	1.802	1.998	2.294	1.893	2.010	1.770	1.854	1.858	2.057	1.606	2.258
405.0	96.89	131.7	161.6	204.8	225.5	223.8	256.0	267.1	283.7	286.3	288.1	290.7	301.2	315.0	308.1	293.1	293.9	281.7	274.5	274.6	263.8	252.7	235.0	226.2	202.7	193.0	207.3	257.2	184.2	106.0	84.85	66.20	60.28	83.69	172.1	 1041	 4983	 6782	858.9	15.93	4.433	3.830	2.806	2.427	2.260	2.010	2.236	1.921	1.726	1.719	1.870	1.818	2.078	2.110	1.814	1.858	2.398	2.001	1.971	2.040	2.041	2.017	2.092	2.000	1.883	1.912	1.855	2.032	2.287	1.826	2.088	1.937	1.685	1.864	1.904	2.046	2.308
