Sample:	'1
File name:	20250311Ê®¶þµã16±¶.FD3
Run date:	'11:01:17, 03/13/2025
Operator:	Administrator
Comment:	'

Instrument
Model:	F-2700 FL Spectrophotometer
Serial number:	23B8-004
ROM Version:	4J14000 07

Instrument parameters
Measurement type:	3-D scan
Data mode:	Fluorescence
EX  Start WL:	220.0 nm
EX  End WL:	600.0 nm
EX Sampling interval:	5.0 nm
EM  Start WL:	230.0 nm
EM  End WL:	650.0 nm
EM Sampling interval:	5.0 nm
Scan speed:	12000 nm/min
EX Slit:	5.0 nm
EM Slit:	5.0 nm
PMT Voltage:	700 V
Response:	Auto 
Corrected spectra:	Off
Contour interval:	50.000

Peak integration
Integration method:	Rectangular
Sensitivity:	1
Threshold:	1.000

Peaks
No.	ApexEX/EM(nm)	Height(Data)
1	225.0/340.0	6190
2	225.0/580.0	54.86
3	225.0/615.0	90.35
4	230.0/500.0	362.6
5	235.0/510.0	288.2
6	240.0/265.0	418.3
7	240.0/525.0	256.2
8	245.0/270.0	403.6
9	245.0/535.0	214.5
10	250.0/455.0	893.0
11	250.0/550.0	166.3
12	255.0/280.0	589.7
13	255.0/565.0	130.8
14	260.0/290.0	557.8
15	260.0/575.0	107.6
16	265.0/590.0	89.57
17	275.0/325.0	2809
18	275.0/615.0	155.8
19	280.0/625.0	144.5
20	325.0/370.0	300.0
21	330.0/375.0	266.4
22	335.0/380.0	246.8
23	340.0/390.0	196.0
24	345.0/395.0	183.2
25	350.0/400.0	188.4
26	360.0/415.0	157.5
27	365.0/420.0	157.2
28	375.0/435.0	122.9
29	380.0/440.0	118.9
30	395.0/460.0	74.93
31	415.0/485.0	32.34
32	425.0/500.0	22.75
33	430.0/505.0	19.97
34	440.0/520.0	14.65
35	445.0/525.0	12.69
36	455.0/340.0	17.32
37	455.0/540.0	8.956
38	460.0/545.0	7.506
39	475.0/340.0	14.24
40	500.0/455.0	4.283
41	505.0/275.0	3.243
42	510.0/280.0	3.578
43	520.0/285.0	3.875
44	530.0/290.0	3.680
45	560.0/325.0	13.83
46	565.0/330.0	13.63
47	575.0/320.0	14.27

Data points
	220.0	225.0	230.0	235.0	240.0	245.0	250.0	255.0	260.0	265.0	270.0	275.0	280.0	285.0	290.0	295.0	300.0	305.0	310.0	315.0	320.0	325.0	330.0	335.0	340.0	345.0	350.0	355.0	360.0	365.0	370.0	375.0	380.0	385.0	390.0	395.0	400.0	405.0	410.0	415.0	420.0	425.0	430.0	435.0	440.0	445.0	450.0	455.0	460.0	465.0	470.0	475.0	480.0	485.0	490.0	495.0	500.0	505.0	510.0	515.0	520.0	525.0	530.0	535.0	540.0	545.0	550.0	555.0	560.0	565.0	570.0	575.0	580.0	585.0	590.0	595.0	600.0
230.0	122.0	2035	4275	839.7	28.03	7.355	5.429	4.471	3.705	4.125	3.874	3.456	2.904	2.470	2.261	1.997	1.618	1.381	1.014	1.055	0.848	0.832	0.856	0.821	0.766	0.600	0.643	0.606	0.553	0.568	0.503	0.506	0.466	0.401	0.392	0.416	0.360	0.339	0.354	0.399	0.615	0.947	0.780	0.424	0.317	0.345	2.529	9.746	12.77	7.279	2.243	0.465	0.242	0.210	0.208	0.211	0.206	0.199	0.246	0.190	0.213	0.191	0.208	0.184	0.203	0.198	0.193	0.183	0.177	0.186	0.197	0.190	0.189	0.181	0.183	0.187	0.225
235.0	186.8	574.5	2830	3808	537.7	41.96	7.098	5.734	4.061	4.144	4.464	3.594	3.211	2.673	2.197	2.006	1.959	1.448	1.086	1.012	1.017	0.824	0.912	0.868	0.733	0.716	0.706	0.638	0.563	0.635	0.478	0.481	0.470	0.390	0.356	0.393	0.357	0.306	0.311	0.360	0.446	0.505	0.695	0.809	0.688	0.485	0.813	2.629	5.453	8.578	12.35	10.52	4.288	0.847	0.299	0.192	0.238	0.189	0.239	0.243	0.211	0.204	0.216	0.210	0.191	0.185	0.187	0.158	0.191	0.202	0.207	0.169	0.181	0.169	0.201	0.195	0.193
240.0	289.2	255.9	889.6	3684	3540	411.3	21.73	7.348	5.435	5.419	4.451	4.337	3.734	2.735	2.601	2.017	1.678	1.581	1.002	1.028	0.988	0.974	0.883	0.871	0.711	0.781	0.700	0.557	0.461	0.557	0.530	0.465	0.526	0.334	0.358	0.414	0.348	0.320	0.447	0.407	0.387	0.336	0.428	0.583	1.045	1.012	0.564	0.872	1.478	2.764	7.392	14.43	17.33	10.18	3.707	0.544	0.257	0.233	0.239	0.205	0.214	0.204	0.213	0.186	0.213	0.208	0.178	0.175	0.188	0.210	0.198	0.165	0.186	0.207	0.220	0.196	0.194
245.0	208.2	308.6	276.7	1354	4248	3213	296.2	12.83	6.750	5.428	5.152	4.905	3.913	3.104	2.768	2.261	1.614	1.633	1.183	1.158	0.922	0.993	0.857	0.912	0.674	0.723	0.752	0.677	0.592	0.661	0.509	0.571	0.480	0.425	0.441	0.422	0.368	0.308	0.399	0.369	0.361	0.331	0.326	0.366	0.620	0.982	1.019	0.938	0.652	0.819	1.950	5.087	13.00	20.03	21.95	9.225	2.208	0.376	0.242	0.206	0.287	0.220	0.219	0.224	0.223	0.233	0.212	0.214	0.201	0.183	0.222	0.220	0.206	0.184	0.198	0.207	0.181
250.0	82.35	230.7	318.3	400.6	1430	3823	4313	1108	62.08	8.038	7.279	5.301	4.441	3.665	3.008	2.868	1.846	1.919	1.218	1.189	0.992	1.051	0.827	0.930	0.761	0.796	0.652	0.700	0.676	0.678	0.627	0.568	0.437	0.471	0.420	0.399	0.420	0.374	0.363	0.366	0.430	0.326	0.318	0.338	0.365	0.504	0.639	0.983	1.155	1.000	0.848	1.405	3.297	6.802	14.64	18.75	22.01	18.53	9.552	2.722	0.390	0.211	0.250	0.241	0.237	0.218	0.237	0.246	0.222	0.229	0.236	0.215	0.209	0.218	0.208	0.210	0.205
255.0	49.41	75.33	246.0	393.3	409.1	1006	3972	6474	1617	61.49	9.661	7.526	5.531	4.456	3.344	3.084	2.317	2.088	1.508	1.212	1.083	1.057	0.903	1.071	1.026	0.732	0.781	0.736	0.728	0.777	0.557	0.532	0.485	0.529	0.381	0.410	0.452	0.430	0.407	0.417	0.399	0.340	0.300	0.369	0.298	0.405	0.330	0.480	0.624	1.057	1.444	1.484	1.217	1.822	3.547	4.698	8.510	22.69	35.70	28.12	15.00	2.886	0.362	0.270	0.271	0.258	0.254	0.237	0.234	0.218	0.223	0.224	0.233	0.218	0.228	0.208	0.238
260.0	36.91	35.59	98.60	342.3	353.7	277.4	1252	5764	8192	1186	34.44	9.976	7.073	5.380	3.789	3.410	2.618	2.079	1.742	1.407	1.227	0.891	1.014	1.056	1.178	0.779	0.771	0.805	0.726	0.737	0.605	0.506	0.432	0.511	0.431	0.488	0.489	0.373	0.405	0.420	0.439	0.378	0.357	0.290	0.312	0.314	0.281	0.342	0.379	0.501	0.915	1.742	1.899	1.312	1.161	1.325	2.239	6.172	15.72	35.17	48.62	26.73	11.74	1.418	0.367	0.285	0.220	0.298	0.226	0.208	0.275	0.204	0.231	0.219	0.210	0.212	0.283
265.0	35.72	29.38	39.81	161.2	418.3	255.7	324.8	2037	9547	7578	208.9	18.74	10.03	7.074	4.957	4.443	2.898	2.188	1.897	1.647	1.376	1.292	1.087	1.240	1.159	0.983	0.816	0.748	0.724	0.698	0.636	0.589	0.545	0.520	0.517	0.473	0.465	0.379	0.400	0.436	0.509	0.370	0.399	0.328	0.312	0.337	0.323	0.331	0.277	0.334	0.412	0.899	1.934	2.300	1.557	0.757	0.841	1.761	3.901	10.32	26.58	51.84	56.85	22.90	8.107	0.646	0.311	0.278	0.277	0.211	0.242	0.257	0.280	0.242	0.230	0.217	0.292
270.0	50.05	41.56	35.12	59.20	209.9	403.6	298.2	516.6	3116	7988	9999.9	2621	52.51	10.77	6.616	5.749	3.558	2.803	2.187	1.949	1.509	1.369	1.250	1.312	1.195	0.991	0.969	0.820	0.900	0.834	0.705	0.634	0.598	0.567	0.539	0.574	0.564	0.468	0.504	0.512	0.542	0.415	0.381	0.375	0.409	0.319	0.404	0.365	0.361	0.284	0.300	0.418	0.778	1.246	1.842	2.274	1.996	1.281	1.285	2.671	6.512	14.94	27.64	40.24	61.92	41.73	15.61	6.909	0.788	0.319	0.315	0.292	0.285	0.285	0.252	0.271	0.280
275.0	115.3	83.50	61.00	40.78	69.82	196.3	514.6	357.2	744.4	1983	7643	9999.9	1166	66.93	10.29	8.615	4.607	3.437	2.592	2.057	1.916	1.534	1.475	1.512	1.271	1.075	0.992	1.020	0.885	0.878	0.820	0.776	0.736	0.807	0.747	0.807	0.609	0.512	0.546	0.546	0.658	0.522	0.442	0.483	0.473	0.470	0.446	0.433	0.398	0.328	0.297	0.334	0.444	0.549	0.725	1.158	2.309	3.243	2.436	1.353	1.834	3.667	6.543	9.547	18.07	30.69	58.75	83.36	24.93	6.179	0.636	0.330	0.358	0.289	0.327	0.294	0.315
280.0	170.6	133.2	96.34	52.66	41.45	75.74	332.4	589.7	318.9	497.8	2141	9789	9888	911.9	28.57	11.98	5.942	4.526	3.094	2.255	2.179	1.948	1.582	1.691	1.467	1.072	0.997	0.973	0.909	0.970	0.920	0.791	0.757	0.856	0.902	0.825	0.618	0.710	0.684	0.633	0.655	0.595	0.527	0.570	0.585	0.563	0.617	0.549	0.490	0.390	0.353	0.389	0.410	0.339	0.445	0.542	0.948	1.993	3.578	3.280	1.788	1.385	1.795	2.561	4.654	7.780	19.68	57.35	78.41	32.64	19.83	3.444	0.533	0.396	0.377	0.361	0.331
285.0	235.3	195.2	144.7	71.25	40.85	47.84	137.9	512.1	527.0	214.8	559.1	2943	9999.9	8379	119.9	20.55	8.533	6.051	3.653	2.936	2.570	2.158	1.840	2.030	1.511	1.234	1.124	1.313	1.101	0.915	0.934	0.771	0.924	0.928	1.231	1.048	0.925	0.875	0.775	0.802	0.797	0.631	0.703	0.759	0.679	0.821	0.761	0.770	0.634	0.488	0.382	0.416	0.445	0.410	0.442	0.363	0.511	0.871	1.730	3.370	3.875	2.591	1.153	1.128	1.578	2.268	5.140	14.67	31.82	54.25	84.93	31.01	17.56	1.692	0.434	0.490	0.330
290.0	317.1	292.1	217.7	111.2	61.66	55.98	87.43	224.6	557.8	502.4	288.0	794.1	3002	9666	9704	2569	36.70	9.208	5.544	3.811	3.026	2.647	2.061	2.246	1.770	1.425	1.160	1.143	1.151	1.060	0.936	0.819	0.970	1.172	1.386	1.309	1.173	1.080	0.985	0.932	0.938	0.775	0.818	0.842	0.837	0.995	1.020	0.981	0.822	0.621	0.548	0.503	0.491	0.499	0.550	0.496	0.487	0.649	0.929	1.388	2.331	3.283	3.680	3.045	1.983	1.480	2.002	4.069	7.975	14.24	31.71	45.76	67.50	58.63	43.78	11.69	1.657
295.0	460.4	418.6	317.4	183.3	127.4	122.9	155.3	208.3	343.9	725.7	778.4	476.5	882.6	2387	6005	9999.9	697.9	45.12	8.739	5.783	3.809	3.417	2.931	2.566	1.944	1.675	1.319	1.296	1.357	1.283	1.211	1.059	1.012	1.298	1.585	1.627	1.412	1.324	1.214	1.266	1.126	0.982	1.006	1.032	1.210	1.324	1.309	1.375	1.153	0.888	0.734	0.865	0.746	0.684	0.812	0.779	0.812	0.895	1.066	1.149	1.456	1.737	2.473	4.554	5.500	3.898	2.348	2.365	3.133	4.384	8.246	11.16	17.28	28.69	64.97	96.82	32.22
300.0	670.5	645.4	527.0	355.6	280.4	280.0	343.2	347.2	520.9	783.1	1308	1001	752.3	948.3	1827	9999.9	9999.9	577.3	28.55	8.318	5.135	4.277	3.276	3.007	2.366	1.951	1.546	1.526	1.323	1.457	1.164	1.138	1.125	1.355	1.786	1.702	1.866	1.716	1.777	1.635	1.520	1.247	1.399	1.377	1.570	1.589	1.916	1.973	1.788	1.301	1.229	1.310	1.258	1.297	1.390	1.313	1.597	1.908	2.025	2.063	2.321	2.620	3.073	3.997	5.491	7.311	6.263	4.686	3.865	3.667	4.486	4.828	5.903	8.562	19.38	47.81	75.56
305.0	1023	1058	843.1	610.7	506.5	505.4	682.0	804.0	1014	1314	1753	2116	1336	1136	1168	3379	9999.9	9999.9	412.0	15.40	7.384	5.286	3.875	3.710	2.925	2.214	1.763	1.629	1.462	1.446	1.347	1.293	1.266	1.604	2.118	2.244	2.247	2.435	2.310	2.272	2.091	2.020	1.949	2.038	2.168	2.548	2.689	2.886	2.762	2.158	1.916	2.089	2.077	2.269	2.271	2.325	2.940	3.513	3.642	3.890	4.291	4.907	5.729	6.635	7.129	8.786	9.987	10.45	8.627	7.280	6.483	6.132	5.972	6.435	8.374	14.69	26.54
310.0	1366	1515	1290	920.5	745.2	793.5	1001	1182	1359	1694	2045	2476	2397	1748	1350	1544	3375	8140	6635	1692	27.39	7.951	5.217	4.986	3.483	2.579	2.075	1.875	1.787	1.575	1.375	1.396	1.475	1.743	2.238	2.566	2.454	2.774	2.591	2.858	2.617	2.688	2.538	2.897	3.115	3.523	3.858	4.286	3.937	3.253	2.816	3.055	3.108	3.040	3.221	3.656	4.233	4.881	5.238	5.646	6.080	6.563	7.588	8.367	8.722	9.969	10.48	11.86	12.36	12.18	10.47	8.971	8.173	7.930	7.177	8.108	10.07
315.0	1892	2151	1844	1268	1015	1039	1256	1424	1576	1913	2296	2574	2682	2457	1712	1281	1523	2278	4069	9591	504.2	31.73	8.036	6.918	4.394	3.191	2.526	2.257	1.998	1.778	1.552	1.462	1.568	1.845	2.240	2.861	2.986	3.115	3.016	3.367	3.431	3.412	3.178	3.516	4.183	5.176	5.418	6.019	5.404	4.535	3.960	3.962	4.163	3.939	4.256	4.627	5.300	6.003	6.521	6.584	6.788	7.288	8.698	9.498	9.562	10.82	11.67	12.29	12.80	12.83	13.36	13.02	10.83	9.702	8.157	7.513	7.229
320.0	2585	3202	2605	1567	1182	1157	1385	1588	1709	2066	2478	2761	2772	2650	2117	1325	1159	966.7	1142	6143	8451	456.2	17.86	8.836	5.375	3.894	2.856	2.530	2.300	2.093	1.814	1.510	1.710	2.069	2.401	2.926	3.120	3.152	3.490	3.924	3.791	3.982	4.289	4.892	5.459	7.081	7.848	8.573	7.786	5.877	4.881	4.946	4.794	4.511	4.652	4.865	5.734	6.446	7.440	7.661	7.311	8.209	9.148	10.30	10.93	11.68	12.84	13.28	13.44	13.62	13.41	14.27	13.81	11.85	9.352	7.879	7.213
325.0	3481	4241	3588	2025	1317	1232	1442	1657	1760	2118	2512	2809	2807	2535	2305	1479	1070	682.0	410.3	1741	7547	8153	61.48	14.35	7.060	4.284	3.515	3.240	2.426	2.289	1.848	1.571	1.885	2.047	2.473	2.888	3.105	3.433	3.870	4.378	4.154	4.501	5.029	5.860	6.934	9.307	10.14	11.72	10.83	8.030	6.116	5.747	5.019	4.867	4.856	4.914	5.925	6.817	7.536	7.554	7.637	8.524	9.337	10.32	11.12	11.57	13.08	13.37	13.83	13.41	13.53	12.80	13.16	13.45	11.42	8.772	7.427
330.0	3904	5063	4561	2913	1873	1426	1449	1632	1727	2025	2415	2712	2733	2438	2095	1646	1173	655.9	312.7	518.0	2146	6615	6088	1533	24.34	6.284	4.431	3.670	2.794	2.578	1.977	1.865	1.769	2.151	2.478	2.937	3.286	3.520	3.840	4.269	4.357	5.000	5.790	6.673	8.211	10.54	11.91	13.78	13.55	10.92	8.683	8.463	7.394	6.525	5.924	5.458	6.133	6.768	7.544	7.574	7.593	7.973	8.984	9.923	10.72	11.56	12.16	12.79	13.34	13.63	13.09	12.76	12.15	11.68	10.79	10.08	8.980
335.0	4583	6029	5747	4136	2950	1944	1563	1654	1736	1997	2387	2685	2743	2496	2077	1625	1430	854.1	415.0	339.3	657.7	1652	4230	9999.9	2168	24.09	6.174	4.477	3.607	3.344	2.476	2.032	2.027	2.205	2.530	2.980	3.196	3.549	4.116	4.984	4.807	5.489	6.324	7.428	9.940	11.97	13.54	16.59	16.62	13.95	12.09	12.73	11.62	10.10	8.440	6.558	6.458	6.919	7.665	7.914	7.784	7.893	8.829	10.20	10.45	11.30	12.32	12.72	13.40	13.19	12.80	13.16	12.27	11.71	10.60	9.596	9.393
340.0	4553	6190	6035	4492	3231	2050	1564	1593	1652	1897	2231	2523	2590	2389	1980	1507	1317	997.1	485.0	319.8	339.2	512.5	1194	7575	9271	365.5	12.73	5.707	4.059	3.834	3.010	2.266	1.849	2.371	2.402	2.870	3.249	3.453	3.792	4.781	4.933	5.374	6.391	7.592	9.807	12.19	13.94	17.32	17.21	14.94	12.89	14.24	12.78	11.51	8.958	6.726	6.588	7.006	7.023	7.349	7.290	7.860	8.766	9.107	9.743	10.84	11.68	12.20	12.23	12.10	12.38	12.82	11.91	11.13	10.23	9.144	8.896
345.0	4233	5648	5665	4297	3085	1921	1437	1419	1477	1688	1999	2235	2296	2144	1771	1340	1097	927.8	576.5	312.5	257.5	258.2	381.6	2190	8388	6036	52.08	7.768	5.060	4.400	2.863	2.428	2.007	2.203	2.528	2.825	2.882	3.353	3.761	4.306	4.617	4.909	6.059	7.244	9.145	11.08	12.60	15.91	16.01	14.12	12.33	13.47	12.36	10.70	8.187	6.183	6.090	6.372	6.348	6.765	6.582	7.359	7.455	8.435	8.837	9.442	10.17	10.45	11.02	11.20	11.35	10.97	10.65	10.10	9.110	8.112	7.455
350.0	3688	4936	5031	4028	3031	1842	1270	1238	1266	1454	1691	1890	1952	1826	1541	1185	949.4	741.9	603.2	414.1	262.7	207.4	209.8	578.3	2386	5272	4805	1197	18.55	5.760	3.752	2.769	2.188	2.164	2.364	2.526	2.761	3.140	3.326	3.674	4.175	4.477	5.298	6.013	7.858	9.643	10.90	14.16	14.31	12.71	11.64	13.17	12.30	10.44	8.079	5.953	5.487	5.500	5.562	5.868	5.921	5.998	6.416	7.306	7.478	7.892	8.595	8.970	9.616	9.866	9.812	9.725	9.165	8.820	8.241	7.558	6.641
355.0	3188	4286	4349	3666	2836	1722	1132	1066	1087	1220	1409	1589	1634	1554	1320	1034	829.8	629.2	481.0	476.7	339.7	204.3	175.5	223.3	573.5	1239	3507	7701	388.1	21.41	4.910	3.401	2.537	2.301	2.533	2.579	2.604	2.932	2.896	3.308	3.964	4.007	4.508	5.312	6.356	8.221	9.721	11.85	12.20	11.42	10.58	11.51	11.52	9.974	7.538	5.732	5.097	4.886	5.031	5.073	5.034	5.061	5.506	5.974	6.114	6.897	7.014	7.545	7.939	8.144	8.125	8.374	7.797	7.716	7.047	6.534	5.909
360.0	2704	3548	3770	3205	2482	1494	992.4	913.8	947.2	1039	1199	1335	1384	1315	1133	892.7	715.8	547.6	404.5	389.6	394.5	229.2	161.8	138.6	175.0	302.9	945.3	5955	6300	346.2	9.265	4.085	3.016	2.540	2.534	2.551	2.502	2.698	2.821	3.193	3.469	3.534	4.132	4.768	5.411	7.206	8.204	9.858	10.27	9.759	9.373	10.11	9.877	9.045	6.620	4.904	4.557	4.448	4.217	4.442	4.420	4.629	4.897	5.317	5.391	5.935	6.205	6.299	6.776	6.630	7.028	7.015	6.408	6.940	5.990	5.761	4.964
365.0	2265	2987	3154	2726	2156	1323	871.5	805.4	804.8	890.2	1023	1139	1171	1113	961.2	772.1	625.8	483.3	360.2	306.3	357.7	297.9	168.6	118.7	90.23	99.81	235.7	1795	6370	6222	46.48	5.864	3.542	3.031	2.636	2.541	2.422	2.502	2.814	2.822	3.019	3.470	3.530	3.886	4.878	5.952	6.807	8.455	8.516	8.209	7.685	8.670	8.396	7.894	5.895	4.484	4.000	3.817	3.873	3.818	3.894	4.185	4.149	4.214	4.706	5.108	5.165	5.583	5.646	5.935	5.997	5.905	5.806	5.957	5.363	4.884	4.529
370.0	1838	2424	2565	2275	1845	1137	741.4	682.4	686.7	751.3	849.3	942.0	961.8	918.9	808.0	653.5	538.6	427.8	327.1	271.0	265.4	300.0	243.8	134.7	80.08	63.65	83.12	427.7	1874	6007	4349	964.1	14.24	3.798	3.189	2.907	2.476	2.298	2.492	2.719	2.785	2.710	3.077	3.567	3.956	5.024	5.742	6.928	6.928	6.828	6.432	7.391	7.185	6.465	5.056	3.664	3.395	3.203	3.256	3.200	3.399	3.407	3.511	3.725	4.047	4.253	4.271	4.576	4.734	4.993	5.079	4.988	4.938	4.842	4.522	4.224	4.110
375.0	1528	1901	2084	1842	1514	976.0	639.9	574.3	575.2	622.4	696.7	765.1	788.2	752.0	664.4	548.0	464.9	375.0	300.2	252.4	225.4	225.3	266.4	202.7	94.69	65.88	57.78	127.2	442.3	1427	3486	6221	320.8	13.60	3.924	3.091	2.702	2.586	2.481	2.661	2.591	2.425	2.727	2.931	3.252	3.907	4.551	5.240	5.510	5.288	5.097	6.093	5.903	5.454	4.347	3.297	2.890	2.742	2.799	2.680	2.900	2.812	2.940	3.116	3.274	3.483	3.775	3.825	3.826	4.271	4.129	4.209	4.180	3.916	3.879	3.472	3.692
380.0	1264	1591	1671	1557	1289	844.6	570.9	510.9	517.0	542.4	600.9	655.8	670.9	643.6	572.8	480.5	412.3	342.8	279.7	238.9	210.2	194.1	219.1	246.8	135.5	74.60	58.67	65.57	127.6	342.3	952.0	5206	4633	257.7	6.553	3.713	3.079	2.379	2.511	2.431	2.438	2.274	2.426	2.561	2.781	3.429	3.798	4.588	4.573	4.480	4.436	5.279	5.031	4.981	3.860	2.907	2.698	2.399	2.576	2.515	2.487	2.446	2.766	2.721	2.928	3.043	3.187	3.417	3.303	3.510	3.745	3.727	3.562	3.440	3.193	3.031	3.122
385.0	1113	1353	1385	1352	1101	753.2	530.7	470.5	456.8	491.6	536.0	575.2	586.2	562.2	503.6	428.4	368.1	314.5	264.0	233.3	204.8	186.9	183.4	219.4	194.9	98.49	67.00	58.02	63.83	102.3	232.9	1621	4984	2520	37.02	5.089	3.417	2.696	2.810	2.586	2.266	2.177	2.118	2.370	2.388	2.869	3.245	3.876	3.947	3.720	3.849	4.449	4.564	4.199	3.470	2.525	2.491	2.231	2.485	2.214	2.268	2.337	2.441	2.357	2.847	2.734	2.892	2.925	3.012	3.040	3.330	3.084	3.277	3.032	2.762	2.719	2.835
390.0	919.4	1092	1170	1121	952.6	680.5	502.3	443.3	420.3	437.0	473.5	507.7	512.8	488.6	440.3	378.2	331.4	290.9	253.4	228.6	204.2	186.9	172.9	172.7	196.0	166.5	94.03	67.22	58.55	57.38	76.15	381.8	1486	3440	3186	824.0	12.02	3.172	2.861	2.724	2.378	2.031	2.018	2.034	2.287	2.549	2.900	3.219	3.459	3.242	3.262	3.753	3.833	3.557	3.250	2.434	2.278	2.167	2.175	1.977	2.033	2.136	2.203	2.107	2.365	2.406	2.460	2.582	2.575	2.707	2.752	2.786	2.824	2.595	2.476	2.360	2.494
395.0	778.3	895.8	974.7	945.1	838.9	640.6	476.0	419.9	393.5	395.2	426.2	454.1	457.2	437.4	391.9	339.7	301.2	273.3	245.8	220.3	202.4	187.2	171.9	160.0	156.2	183.2	158.2	88.23	68.73	55.99	48.57	107.8	346.8	827.3	2571	5440	267.8	11.53	3.555	3.291	2.696	2.034	1.965	2.095	2.157	2.250	2.646	2.880	3.040	2.712	2.993	3.265	3.367	3.181	2.960	2.396	2.221	2.168	2.060	2.119	1.919	1.805	1.973	2.068	2.059	2.109	2.293	2.292	2.288	2.475	2.414	2.547	2.556	2.496	2.273	2.374	2.587
400.0	712.3	826.1	873.1	848.1	763.3	614.2	468.0	413.2	383.3	382.3	396.1	418.2	424.1	408.0	358.0	316.8	283.3	257.5	232.9	219.2	200.6	188.8	175.2	158.7	146.4	155.3	188.4	125.6	77.77	60.54	47.39	51.87	96.77	198.6	707.6	4276	3659	216.7	7.077	3.652	2.960	2.170	1.969	2.072	2.039	2.174	2.472	2.521	2.670	2.449	2.632	3.129	3.176	2.972	2.721	2.307	2.299	2.205	2.051	2.035	1.851	1.727	1.906	2.081	1.870	2.016	2.071	2.116	2.216	2.290	2.235	2.382	2.380	2.238	2.171	2.071	2.338
405.0	658.9	742.3	792.2	780.3	720.7	598.6	465.9	411.3	365.3	365.8	378.8	394.4	395.8	378.7	336.7	300.9	268.3	251.9	229.1	213.0	200.4	186.8	178.7	164.9	147.8	139.4	170.6	168.9	100.4	69.80	52.17	43.10	43.61	60.24	170.8	1289	3991	2084	34.22	4.685	3.368	2.474	2.095	2.111	1.927	2.082	2.231	2.408	2.424	2.370	2.413	2.887	2.803	2.839	2.641	2.196	2.307	2.160	2.111	2.063	1.924	1.870	1.863	1.862	1.822	1.978	1.805	2.201	1.965	2.116	2.152	2.223	2.209	2.011	2.073	2.016	1.961
410.0	629.1	668.9	709.8	712.8	665.4	573.7	480.8	419.1	368.7	350.4	359.0	368.1	367.4	351.0	315.0	282.9	258.0	238.5	225.0	209.4	195.3	186.4	178.5	166.4	151.3	139.1	140.6	164.5	150.5	93.00	62.78	47.70	37.24	33.80	52.96	302.3	1191	2483	3151	761.1	11.58	2.879	2.398	1.914	1.888	1.962	2.238	2.276	2.230	2.120	2.223	2.717	2.573	2.762	2.556	2.166	2.384	2.176	2.037	1.974	1.851	1.866	1.787	1.912	1.831	1.875	1.801	2.030	1.909	1.886	2.035	1.981	1.969	2.083	2.081	1.992	2.031
415.0	549.2	611.6	659.3	658.5	627.0	566.4	505.5	438.9	371.5	343.2	343.4	345.4	342.5	322.6	293.0	269.6	243.0	230.6	217.7	203.5	190.9	182.4	174.7	168.4	156.7	143.9	133.9	133.7	157.5	137.6	80.72	55.63	41.20	32.77	30.20	81.77	275.7	596.5	2395	4553	251.0	10.62	2.729	2.153	2.252	2.044	2.116	2.242	2.053	1.983	2.126	2.607	2.512	2.587	2.605	2.342	2.413	2.151	2.297	2.036	1.960	1.796	1.687	1.712	1.691	1.705	1.832	1.775	1.775	1.987	1.873	1.935	1.766	2.115	1.926	1.827	1.996
