Sample:	'1
File name:	w111206–§’Ú«≈”ÍÀÆ≈≈ø⁄.FD3
Run date:	'14:28:57, 11/12/2024
Operator:	Administrator
Comment:	'

Instrument
Model:	F-2700 FL Spectrophotometer
Serial number:	23B8-004
ROM Version:	4J14000 07

Instrument parameters
Measurement type:	3-D scan
Data mode:	Fluorescence
EX  Start WL:	220.0 nm
EX  End WL:	600.0 nm
EX Sampling interval:	5.0 nm
EM  Start WL:	230.0 nm
EM  End WL:	650.0 nm
EM Sampling interval:	5.0 nm
Scan speed:	12000 nm/min
EX Slit:	5.0 nm
EM Slit:	5.0 nm
PMT Voltage:	700 V
Response:	Auto 
Corrected spectra:	Off
Contour interval:	50.000

Peak integration
Integration method:	Rectangular
Sensitivity:	1
Threshold:	1.000

Peaks
No.	ApexEX/EM(nm)	Height(Data)
1	225.0/575.0	56.69
2	225.0/610.0	46.49
3	225.0/630.0	42.67
4	230.0/340.0	983.4
5	230.0/500.0	305.0
6	235.0/510.0	258.8
7	240.0/525.0	218.2
8	245.0/535.0	180.8
9	250.0/550.0	152.4
10	255.0/280.0	535.3
11	255.0/560.0	129.9
12	260.0/290.0	488.6
13	260.0/575.0	103.6
14	265.0/295.0	608.6
15	265.0/585.0	92.03
16	270.0/300.0	850.0
17	270.0/600.0	84.07
18	275.0/305.0	854.4
19	275.0/610.0	67.80
20	280.0/315.0	822.7
21	280.0/340.0	704.9
22	280.0/625.0	63.64
23	285.0/320.0	812.7
24	285.0/635.0	46.06
25	290.0/325.0	710.1
26	305.0/345.0	433.6
27	310.0/350.0	370.9
28	315.0/355.0	364.2
29	320.0/365.0	363.7
30	325.0/370.0	352.7
31	330.0/375.0	347.6
32	335.0/380.0	340.7
33	350.0/400.0	277.7
34	360.0/415.0	232.2
35	365.0/420.0	223.8
36	425.0/500.0	34.47
37	440.0/520.0	20.81
38	505.0/275.0	2.924
39	510.0/280.0	3.341
40	515.0/285.0	3.327
41	525.0/290.0	3.194
42	540.0/295.0	4.230
43	545.0/300.0	4.539
44	550.0/305.0	4.866
45	560.0/310.0	4.354
46	570.0/315.0	4.548
47	580.0/320.0	4.779
48	585.0/325.0	4.776

Data points
	220.0	225.0	230.0	235.0	240.0	245.0	250.0	255.0	260.0	265.0	270.0	275.0	280.0	285.0	290.0	295.0	300.0	305.0	310.0	315.0	320.0	325.0	330.0	335.0	340.0	345.0	350.0	355.0	360.0	365.0	370.0	375.0	380.0	385.0	390.0	395.0	400.0	405.0	410.0	415.0	420.0	425.0	430.0	435.0	440.0	445.0	450.0	455.0	460.0	465.0	470.0	475.0	480.0	485.0	490.0	495.0	500.0	505.0	510.0	515.0	520.0	525.0	530.0	535.0	540.0	545.0	550.0	555.0	560.0	565.0	570.0	575.0	580.0	585.0	590.0	595.0	600.0
230.0	79.93	1390	3649	1150	51.58	8.595	7.245	5.880	5.186	4.680	4.633	3.986	3.468	2.881	2.725	2.078	2.040	1.684	1.648	1.610	1.341	1.314	1.322	1.300	1.047	1.084	0.913	0.862	0.934	0.905	0.863	0.847	0.787	0.691	0.696	0.676	0.572	0.553	0.539	0.527	0.600	0.712	0.731	0.566	0.504	0.468	1.671	6.886	11.53	8.347	3.265	0.737	0.413	0.417	0.354	0.364	0.385	0.390	0.348	0.355	0.343	0.348	0.328	0.355	0.380	0.389	0.373	0.372	0.356	0.337	0.341	0.343	0.340	0.322	0.335	0.342	0.327
235.0	160.1	401.2	2206	3750	618.4	66.11	7.675	7.250	5.420	5.062	4.862	4.193	3.540	3.166	3.020	2.131	2.317	1.565	1.878	1.544	1.317	1.303	1.427	1.293	1.085	1.069	0.960	1.009	0.978	0.917	0.875	0.844	0.799	0.712	0.786	0.698	0.598	0.616	0.572	0.541	0.588	0.608	0.635	0.777	0.700	0.572	0.723	2.057	4.576	8.509	13.08	12.59	5.569	1.114	0.384	0.340	0.426	0.379	0.327	0.385	0.366	0.314	0.297	0.334	0.371	0.352	0.347	0.361	0.342	0.329	0.338	0.350	0.324	0.311	0.319	0.317	0.369
240.0	201.3	193.4	669.5	3267	3991	475.5	29.98	8.822	7.249	6.030	5.528	4.588	4.311	2.998	3.276	2.357	2.162	1.814	1.833	1.535	1.290	1.373	1.243	1.448	1.202	1.073	1.134	1.008	0.958	0.935	0.871	0.785	0.724	0.724	0.738	0.697	0.700	0.577	0.579	0.585	0.526	0.586	0.536	0.736	0.841	0.923	0.719	0.895	1.418	2.746	7.354	16.76	20.70	12.78	3.909	0.706	0.473	0.349	0.380	0.396	0.361	0.343	0.309	0.362	0.454	0.358	0.353	0.362	0.345	0.345	0.361	0.333	0.324	0.387	0.366	0.308	0.346
245.0	155.7	245.6	230.4	1120	4472	3671	348.7	16.35	8.703	7.142	6.023	4.988	4.413	3.498	3.547	2.477	2.280	2.139	1.856	1.777	1.445	1.305	1.370	1.465	1.201	1.083	1.100	1.014	1.061	0.867	0.855	0.753	0.779	0.709	0.730	0.728	0.634	0.625	0.470	0.532	0.536	0.572	0.487	0.537	0.616	0.850	1.052	0.901	0.729	0.908	2.053	5.838	15.44	23.66	21.79	11.07	2.428	0.468	0.427	0.396	0.380	0.413	0.340	0.357	0.385	0.387	0.304	0.337	0.305	0.368	0.368	0.380	0.331	0.349	0.367	0.318	0.355
250.0	75.60	182.4	272.8	350.7	1462	4073	4617	1275	74.37	9.301	7.512	5.760	4.988	4.077	3.631	2.933	2.518	2.090	1.950	1.782	1.566	1.384	1.543	1.549	1.261	1.158	1.092	1.025	1.096	0.926	0.893	0.803	0.749	0.827	0.756	0.693	0.631	0.610	0.531	0.597	0.540	0.552	0.606	0.532	0.552	0.641	0.734	0.994	1.167	0.958	1.019	1.680	3.972	8.061	14.68	21.28	25.80	18.39	10.18	2.855	0.608	0.377	0.350	0.409	0.407	0.393	0.357	0.346	0.387	0.377	0.379	0.397	0.339	0.353	0.370	0.366	0.439
255.0	56.92	71.96	196.3	342.7	412.5	1060	4118	7730	1774	65.02	10.49	7.593	6.563	5.273	4.270	3.297	2.724	2.284	2.172	2.127	1.954	1.552	1.651	1.655	1.161	1.218	1.111	1.110	1.165	0.960	0.963	0.838	0.836	0.823	0.770	0.745	0.649	0.645	0.628	0.575	0.553	0.547	0.562	0.505	0.483	0.520	0.481	0.646	0.726	1.034	1.475	1.383	1.350	2.216	3.705	5.538	10.93	25.85	43.48	27.92	16.08	2.872	0.499	0.388	0.400	0.433	0.443	0.371	0.439	0.356	0.383	0.333	0.371	0.373	0.399	0.369	0.373
260.0	41.83	40.78	81.22	302.8	345.5	289.1	1312	7014	9509	1233	34.19	10.95	9.164	5.913	4.621	3.842	2.813	2.493	2.261	2.365	1.826	1.637	1.716	1.502	1.288	1.372	1.322	1.235	1.073	1.210	0.971	1.081	0.901	0.812	0.727	0.752	0.664	0.621	0.600	0.578	0.624	0.573	0.588	0.572	0.593	0.482	0.484	0.477	0.503	0.640	1.043	1.787	1.664	1.408	1.299	1.717	2.821	7.552	20.86	40.82	56.22	26.15	11.81	1.542	0.487	0.466	0.444	0.377	0.438	0.395	0.417	0.346	0.398	0.381	0.392	0.367	0.350
265.0	53.88	35.00	42.26	145.6	381.3	245.3	332.4	2539	9999.9	7852	215.7	16.88	10.98	6.773	5.735	3.943	2.942	2.626	2.509	2.382	1.933	1.744	1.699	1.655	1.266	1.427	1.236	1.340	1.121	1.130	0.909	0.960	0.934	0.798	0.755	0.676	0.614	0.647	0.695	0.542	0.654	0.546	0.633	0.587	0.614	0.543	0.513	0.454	0.455	0.453	0.632	1.042	1.754	2.069	1.435	0.879	1.055	2.130	5.287	12.99	34.12	55.38	61.94	23.17	7.611	0.854	0.453	0.458	0.423	0.434	0.488	0.374	0.420	0.382	0.344	0.421	0.367
270.0	54.21	36.45	35.69	54.90	189.7	371.6	282.7	623.6	3458	9078	9999.9	807.1	51.25	10.59	8.084	5.487	4.189	3.101	2.951	2.711	2.123	1.943	2.111	1.797	1.406	1.487	1.210	1.279	1.202	1.178	1.041	1.051	1.048	0.899	0.817	0.733	0.681	0.645	0.658	0.559	0.630	0.629	0.590	0.597	0.562	0.554	0.509	0.481	0.504	0.433	0.468	0.597	0.838	1.373	1.819	1.958	1.768	1.262	1.675	3.387	8.536	16.92	33.93	47.68	68.38	58.35	15.72	6.315	0.851	0.500	0.435	0.429	0.449	0.443	0.406	0.414	0.405
275.0	76.90	61.63	42.81	35.65	64.08	177.6	473.3	347.2	815.2	2361	9999.9	9999.9	1148	46.67	12.14	7.543	5.668	4.303	3.514	3.246	2.442	2.392	2.240	1.863	1.658	1.633	1.427	1.314	1.378	1.302	1.104	1.014	1.077	1.026	1.034	0.875	0.800	0.769	0.776	0.690	0.663	0.750	0.645	0.666	0.654	0.677	0.700	0.608	0.453	0.436	0.488	0.470	0.539	0.636	0.861	1.245	2.398	2.924	2.173	1.487	2.317	4.208	8.139	11.53	22.40	51.68	81.63	83.33	24.62	6.956	0.700	0.503	0.483	0.467	0.465	0.507	0.436
280.0	100.4	87.10	68.20	40.30	37.80	72.55	312.9	535.3	302.7	583.0	3089	9999.9	9999.9	785.7	22.93	10.63	7.045	5.708	4.364	3.717	2.845	2.542	2.560	2.149	1.785	1.667	1.569	1.345	1.441	1.422	1.287	1.143	1.296	1.176	1.077	0.953	1.018	0.867	0.729	0.810	0.747	0.762	0.742	0.648	0.676	0.692	0.681	0.585	0.562	0.469	0.474	0.484	0.475	0.546	0.577	0.721	1.308	2.365	3.341	2.682	1.626	1.452	2.375	3.091	5.676	13.40	31.11	67.72	96.86	32.58	19.43	3.240	0.571	0.489	0.485	0.480	0.401
285.0	144.3	120.3	95.35	54.95	41.97	42.69	132.0	490.2	348.9	218.2	776.4	3997	9999.9	7881	112.4	15.79	9.724	6.562	5.094	4.347	3.112	2.825	2.802	2.207	1.968	1.700	1.775	1.497	1.418	1.443	1.338	1.333	1.175	1.075	1.196	1.091	1.087	0.885	0.766	0.838	0.875	0.774	0.784	0.735	0.760	0.793	0.782	0.663	0.670	0.537	0.495	0.600	0.514	0.537	0.585	0.569	0.806	1.067	2.085	3.327	3.177	1.848	1.248	1.276	1.912	3.757	7.758	18.39	44.86	78.67	106.4	30.59	13.93	1.310	0.581	0.540	0.544
290.0	208.2	185.2	148.8	91.47	59.23	49.36	73.83	211.8	488.6	447.3	315.3	1027	4195	9999.9	9999.9	1863	30.06	9.670	7.012	5.867	4.084	3.395	3.340	2.598	2.283	1.977	1.844	1.788	1.654	1.629	1.289	1.392	1.373	1.280	1.301	1.272	1.070	1.062	0.899	0.914	0.873	0.807	0.877	0.869	0.881	0.848	0.908	0.899	0.791	0.742	0.639	0.674	0.567	0.596	0.590	0.597	0.669	0.760	1.064	1.520	2.203	3.194	3.134	2.297	1.534	1.705	2.541	4.876	11.02	21.61	45.73	58.77	79.41	68.16	45.06	10.12	1.701
295.0	259.2	258.7	214.6	134.0	84.96	73.79	78.53	122.2	244.6	608.6	580.5	402.7	1087	2609	9999.9	9999.9	630.4	26.36	10.66	8.464	5.441	4.188	4.211	3.225	2.408	2.404	2.082	2.156	1.922	1.797	1.454	1.458	1.499	1.587	1.314	1.384	1.252	1.169	1.069	1.096	1.016	0.946	1.043	0.947	0.975	1.080	0.983	1.090	0.996	0.781	0.758	0.741	0.721	0.768	0.702	0.741	0.760	0.796	0.936	1.003	1.160	1.643	2.278	3.707	4.230	2.589	1.732	2.105	3.549	5.559	11.16	14.17	21.41	40.42	84.90	109.9	32.20
300.0	289.5	315.4	262.9	169.1	107.9	92.24	105.8	126.2	189.3	399.8	850.0	483.5	452.6	724.9	2971	9999.9	9999.9	461.4	16.85	11.99	6.799	4.904	4.746	3.643	2.916	2.750	2.373	2.291	2.050	2.066	1.701	1.451	1.778	1.611	1.423	1.415	1.337	1.395	1.111	1.111	1.065	0.976	1.160	1.029	1.122	1.041	1.014	1.163	1.062	0.827	0.867	0.897	0.785	0.874	0.751	0.844	0.900	0.967	1.051	1.096	1.217	1.254	1.538	2.327	3.963	4.539	3.512	2.222	2.150	2.259	3.549	4.117	5.840	10.42	26.32	64.86	102.2
305.0	318.1	358.5	314.4	208.9	141.8	118.3	137.6	164.1	212.6	307.1	705.7	854.4	436.4	348.7	798.3	3641	9999.9	4861	69.11	16.37	8.645	6.079	5.641	4.061	3.500	3.048	2.540	2.211	2.057	2.247	1.706	1.603	1.619	1.722	1.496	1.472	1.437	1.340	1.184	1.226	1.164	1.107	1.197	1.076	1.214	1.193	1.131	1.251	1.160	0.959	0.948	0.989	0.896	0.863	0.848	0.927	0.957	1.173	1.193	1.245	1.559	1.352	1.526	1.751	2.507	3.625	4.866	4.264	2.949	2.072	2.187	2.151	2.497	3.396	6.703	16.27	37.18
310.0	364.8	414.4	360.1	245.2	168.8	148.0	168.1	208.3	266.5	330.4	525.2	805.8	815.2	399.2	354.5	928.6	3627	9999.9	9861	1615	23.98	8.480	7.770	5.678	4.185	3.289	2.802	2.612	2.305	2.351	1.807	1.686	1.702	1.778	1.553	1.515	1.495	1.429	1.374	1.219	1.161	1.174	1.221	1.169	1.244	1.239	1.286	1.404	1.353	1.085	1.073	1.202	1.042	1.002	0.974	1.011	1.178	1.265	1.282	1.351	1.451	1.713	1.745	2.007	2.207	2.534	3.336	3.867	4.354	4.118	3.199	2.466	2.103	2.080	2.566	4.552	9.314
315.0	431.5	466.8	421.7	283.4	203.2	179.7	201.6	247.7	316.5	366.1	512.2	599.2	822.7	738.6	338.8	334.9	898.4	2464	9033	9999.9	466.6	23.08	11.57	7.664	5.153	3.997	3.313	3.152	2.615	2.536	1.963	1.729	2.094	1.788	1.492	1.647	1.416	1.476	1.329	1.358	1.276	1.237	1.258	1.334	1.309	1.459	1.400	1.660	1.469	1.285	1.234	1.178	1.218	1.159	1.144	1.207	1.250	1.318	1.658	1.622	1.484	1.669	1.873	2.192	2.215	2.549	2.605	2.861	3.228	3.688	4.548	4.492	3.094	2.049	1.746	2.044	3.058
320.0	466.5	539.7	498.0	329.5	232.6	204.9	221.4	278.2	338.4	403.3	544.6	574.0	676.9	812.7	540.3	237.7	307.3	617.3	2522	9999.9	9999.9	375.6	18.83	10.16	6.707	4.797	3.839	3.392	2.934	2.869	2.120	1.985	2.099	2.012	1.724	1.719	1.593	1.488	1.371	1.307	1.473	1.292	1.283	1.471	1.381	1.493	1.591	1.792	1.582	1.485	1.375	1.404	1.346	1.201	1.200	1.251	1.393	1.459	1.645	1.759	1.675	1.860	2.204	2.095	2.498	2.754	2.799	2.918	2.881	2.903	3.496	4.441	4.779	3.595	2.155	1.706	1.775
325.0	511.2	655.6	612.1	421.7	258.5	231.2	243.3	296.4	367.2	434.9	577.5	599.8	652.1	650.0	710.1	327.0	194.6	212.2	617.0	3430	9999.9	8878	58.27	13.83	8.624	5.948	4.547	4.006	3.498	3.025	2.487	2.064	2.072	2.014	1.780	1.946	1.654	1.595	1.453	1.329	1.427	1.337	1.449	1.510	1.596	1.766	1.797	2.062	1.973	1.731	1.590	1.523	1.459	1.385	1.203	1.384	1.453	1.534	1.652	1.770	1.790	1.906	2.124	2.262	2.487	2.883	3.021	2.890	2.965	2.683	2.991	3.125	3.942	4.776	3.873	2.513	1.591
330.0	596.1	753.9	769.5	560.5	346.4	282.3	291.7	341.7	406.7	470.5	606.5	632.5	673.5	563.8	576.8	521.5	285.0	151.1	205.7	824.9	3318	9620	9745	1422	22.98	8.613	6.213	4.890	4.063	3.745	2.938	2.451	2.532	2.213	1.859	1.785	1.712	1.589	1.609	1.445	1.429	1.409	1.445	1.619	1.734	1.961	2.034	2.371	2.434	2.163	1.850	1.976	1.689	1.596	1.473	1.580	1.566	1.668	1.799	1.875	1.959	2.100	2.340	2.365	2.726	2.947	3.021	3.111	3.132	2.944	2.924	2.883	3.164	3.381	3.582	3.611	3.104
335.0	692.2	863.1	891.0	668.8	457.6	366.3	349.4	392.4	442.4	505.4	647.6	661.5	698.7	569.6	489.5	447.3	476.9	227.3	140.5	253.6	791.9	2312	8824	9999.9	2055	25.41	9.469	6.666	4.931	4.299	3.357	2.858	2.846	2.274	1.951	1.807	1.631	1.631	1.662	1.412	1.609	1.392	1.509	1.646	1.831	2.089	2.275	2.443	2.651	2.381	2.198	2.156	1.946	1.855	1.711	1.773	1.809	1.917	1.955	2.030	2.265	2.346	2.610	2.598	2.880	3.044	3.097	3.297	3.121	3.106	3.192	2.927	2.991	2.825	2.961	2.635	3.126
340.0	742.3	935.3	983.4	766.4	532.6	427.2	411.0	433.4	476.8	539.4	658.2	666.4	704.9	580.7	482.5	381.5	446.2	379.2	168.0	143.9	242.6	566.5	2426	9999.9	9999.9	363.9	16.72	8.733	6.736	5.116	3.612	3.471	3.047	2.533	2.165	2.025	1.826	1.598	1.706	1.570	1.571	1.294	1.667	1.759	1.986	2.192	2.453	2.672	2.852	2.542	2.313	2.421	2.334	2.055	1.950	1.867	2.060	2.035	2.219	2.174	2.413	2.458	2.547	2.597	2.777	3.118	2.917	3.340	3.280	3.330	3.311	3.182	3.043	2.741	2.720	2.518	2.534
345.0	741.6	931.7	978.7	813.5	599.9	497.3	459.5	481.1	496.4	555.5	651.4	664.9	698.5	588.7	491.2	370.6	353.1	433.6	278.2	143.8	135.0	190.5	595.7	3139	9999.9	9129	51.83	12.26	7.831	5.736	4.081	3.531	3.444	2.581	2.338	2.137	1.795	1.722	1.574	1.531	1.456	1.555	1.478	1.844	2.023	2.079	2.390	2.832	2.769	2.617	2.449	2.665	2.556	2.363	2.219	2.186	2.469	2.225	2.467	2.301	2.393	2.584	2.726	2.721	2.815	2.790	2.980	3.151	3.159	3.231	3.114	3.174	3.000	3.147	2.711	2.515	2.477
350.0	711.4	912.9	966.6	861.8	660.0	570.6	534.9	527.7	540.6	574.9	645.5	654.1	683.0	593.4	499.1	391.7	333.2	341.8	370.9	258.5	149.5	131.6	203.8	758.2	3076	8547	7524	1376	23.11	8.282	5.749	4.266	3.811	2.959	2.543	2.245	1.870	1.751	1.591	1.586	1.624	1.528	1.499	1.705	2.006	2.119	2.365	2.869	2.602	2.617	2.496	2.962	2.635	2.561	2.507	2.436	2.643	2.517	2.510	2.585	2.610	2.798	2.785	2.747	2.711	3.026	3.049	3.066	3.101	3.180	3.337	3.153	3.240	2.920	2.805	2.727	2.586
355.0	700.2	903.7	956.5	872.9	750.2	653.1	616.2	594.1	596.7	598.4	645.1	649.5	664.8	591.9	511.7	418.5	355.2	320.0	312.9	364.2	252.1	154.7	142.0	242.3	737.6	2009	5746	9999.9	2206	28.85	7.919	5.482	4.578	3.661	2.720	2.602	2.006	2.037	1.785	1.741	1.565	1.598	1.548	1.624	1.927	2.121	2.297	2.698	2.903	2.556	2.551	2.918	2.800	2.778	2.674	2.810	2.691	2.730	2.886	2.818	2.930	2.789	3.127	2.978	2.800	3.012	3.228	3.126	3.008	3.029	3.189	3.001	3.394	3.030	2.909	2.618	2.888
360.0	688.7	893.3	944.8	886.3	765.4	701.3	658.6	642.7	626.3	621.2	653.4	648.4	654.2	590.4	516.2	440.0	378.3	333.0	306.2	336.9	357.5	213.3	148.7	145.3	232.0	495.3	1505	8242	9999.9	373.9	20.47	7.206	6.029	3.884	3.093	2.829	2.236	1.947	1.796	1.542	1.680	1.604	1.618	1.598	1.835	2.166	2.385	2.741	2.707	2.608	2.454	2.844	2.944	3.025	2.862	2.965	2.943	2.966	3.011	2.975	2.941	2.901	3.177	3.143	2.879	3.067	3.085	3.090	3.221	3.046	3.121	3.146	3.419	3.092	2.707	2.685	2.841
365.0	684.9	856.7	930.7	858.1	771.6	737.4	697.0	666.9	654.1	638.2	651.5	640.0	645.7	580.7	520.9	451.0	396.0	356.1	319.5	308.3	363.7	312.6	184.9	141.2	134.5	169.5	380.2	2346	9999.9	9999.9	321.5	12.81	7.343	4.957	3.364	3.011	2.655	2.064	1.935	1.744	1.852	1.614	1.631	1.639	1.886	2.045	2.340	2.650	2.685	2.517	2.555	3.060	2.947	2.968	3.196	2.990	2.962	3.074	3.205	3.183	2.886	3.169	3.076	3.050	2.888	3.061	2.998	3.154	3.006	2.979	3.160	3.197	3.157	3.104	2.966	2.828	2.785
370.0	684.1	829.7	896.2	862.7	807.1	757.7	721.1	696.2	671.7	655.2	657.9	635.8	626.8	573.2	520.8	458.6	418.3	382.7	348.6	326.0	326.0	352.7	296.2	186.8	137.2	118.5	142.8	567.1	2824	8415	9585	1339	23.85	7.300	4.845	3.810	2.885	2.399	2.059	1.893	1.864	1.728	1.698	1.775	1.922	2.028	2.253	2.558	2.652	2.425	2.551	2.943	3.064	2.971	2.988	3.026	3.117	3.260	3.159	3.218	3.208	3.147	3.179	2.978	3.089	3.049	3.020	3.030	3.061	2.885	3.083	2.971	3.097	2.956	3.047	2.840	2.942
375.0	659.2	779.1	876.3	842.6	829.2	769.9	748.2	712.8	695.9	670.1	655.8	638.3	612.8	562.8	517.1	465.9	434.8	406.0	374.9	352.7	326.8	318.8	347.6	285.3	171.8	129.2	109.6	182.6	669.6	1953	5451	9999.9	2234	28.88	7.074	4.938	3.598	2.891	2.312	2.135	2.092	1.743	1.854	1.922	2.039	2.051	2.130	2.454	2.578	2.405	2.584	3.094	3.041	2.889	3.094	3.106	3.165	3.172	3.183	2.995	3.184	3.122	3.212	2.982	3.175	3.053	3.030	2.825	3.015	2.923	3.148	3.121	3.060	3.193	3.006	3.008	2.974
380.0	618.2	788.5	853.1	831.5	810.0	776.8	757.1	710.2	695.6	673.8	656.6	620.5	605.1	553.4	520.0	467.1	444.9	419.6	389.4	368.0	340.5	315.6	321.9	340.7	228.6	148.7	115.8	109.1	199.5	473.1	1377	7151	9999.9	1669	19.77	6.125	4.557	3.483	2.398	2.469	2.320	1.767	1.797	1.717	1.984	2.240	2.210	2.301	2.485	2.208	2.589	2.938	3.106	2.933	3.064	3.040	3.319	3.278	3.402	3.088	3.316	3.212	3.125	3.016	2.970	3.261	3.031	2.898	2.950	2.732	3.033	2.951	2.983	2.991	3.175	3.095	3.152
385.0	586.3	724.7	797.5	817.6	785.6	768.3	743.4	715.2	678.3	661.3	639.2	610.3	589.2	548.5	510.4	464.7	442.6	424.6	397.1	378.8	351.0	321.8	304.6	327.5	297.1	185.4	132.3	104.9	106.8	150.1	343.2	1941	8888	9365	279.9	12.66	5.672	3.942	2.939	2.591	2.272	2.018	1.876	1.941	2.179	2.090	2.273	2.353	2.323	2.287	2.460	2.735	2.996	2.888	3.075	2.970	3.187	3.312	3.218	3.024	3.203	3.244	3.139	3.318	3.200	3.198	2.923	3.169	2.832	2.925	3.008	3.027	3.072	3.064	3.010	2.859	3.206
390.0	570.1	719.8	789.5	797.6	781.3	753.2	731.9	698.9	667.4	640.9	629.5	601.8	571.7	534.1	496.3	459.9	440.7	422.9	404.4	387.0	364.2	336.8	315.1	298.1	301.6	260.5	175.5	125.5	102.8	95.14	121.6	466.8	2366	6537	7891	1189	20.17	5.750	4.049	3.109	2.720	2.054	2.119	2.025	2.011	2.032	2.209	2.304	2.565	2.296	2.472	2.834	3.064	3.034	2.950	3.012	3.113	3.392	3.136	3.013	3.317	3.194	2.991	3.142	3.063	3.059	2.925	2.997	2.770	2.967	2.925	3.012	3.059	2.900	2.830	2.838	2.903
395.0	573.3	700.0	756.9	757.4	758.0	743.3	711.5	682.7	663.0	630.3	614.4	585.1	558.7	523.7	493.1	456.4	435.6	416.4	402.0	390.6	370.4	348.3	323.3	298.7	276.2	282.5	247.0	161.8	121.4	99.98	86.91	148.0	558.1	1505	4040	9719	1944	25.53	5.396	3.931	3.490	2.490	2.332	2.125	2.012	2.020	2.129	2.456	2.364	2.242	2.195	2.706	2.900	3.054	2.862	2.818	3.148	3.147	3.153	3.179	3.187	3.097	3.075	3.007	3.019	3.067	2.719	2.925	2.915	2.758	2.651	2.907	2.997	3.082	2.763	3.060	2.873
400.0	568.6	670.7	709.3	749.0	740.3	719.4	694.1	676.1	649.6	629.2	603.8	577.5	552.4	511.9	486.4	444.3	427.8	413.8	397.6	388.8	367.7	352.4	330.9	305.5	273.3	262.0	277.7	209.5	140.9	113.4	88.60	85.53	162.0	363.0	997.3	5793	8613	1512	17.89	4.797	3.817	2.961	2.406	2.270	2.276	2.290	2.277	2.480	2.194	2.135	2.233	2.709	2.658	2.861	3.072	2.891	3.133	3.308	2.948	3.139	3.043	3.051	3.043	2.963	2.865	2.791	2.850	2.736	2.955	2.785	2.622	2.661	3.125	2.949	2.919	2.777	2.790
405.0	528.5	678.9	715.1	728.0	720.5	711.5	685.6	677.3	642.2	619.7	597.2	570.5	543.5	506.6	473.5	439.4	418.1	407.7	395.9	381.3	367.5	352.9	332.3	309.2	283.0	254.2	262.7	254.0	174.6	128.4	99.35	80.07	80.54	113.5	246.8	1515	6293	7365	253.3	11.43	4.585	3.104	2.757	2.473	2.321	2.213	2.256	2.332	2.303	2.259	2.286	2.759	2.853	2.778	2.706	2.919	3.055	2.970	3.175	3.151	2.946	2.916	2.973	2.895	2.742	2.964	2.964	2.626	2.867	2.792	2.917	2.748	2.963	2.632	2.877	2.919	2.919
410.0	497.2	618.1	689.6	700.3	685.5	680.8	669.8	658.2	630.4	607.5	591.0	568.6	532.6	497.4	460.1	426.5	406.7	392.1	382.5	372.8	362.1	348.9	332.2	311.4	287.4	258.3	243.0	248.3	227.6	162.0	117.0	91.14	72.90	65.46	84.24	360.0	1631	4874	6091	1117	18.27	4.519	3.497	2.936	2.567	2.294	2.352	2.391	2.300	2.184	2.254	2.782	2.789	2.773	2.747	2.975	2.810	2.971	2.978	2.967	2.927	3.027	2.873	2.886	2.828	2.770	2.765	2.607	2.799	2.660	2.579	2.625	2.870	2.665	2.703	2.736	2.607
415.0	486.7	617.6	648.5	657.8	654.7	658.1	650.2	634.7	613.8	591.0	577.5	549.1	513.4	479.4	434.8	401.7	384.2	375.2	364.7	358.6	348.6	339.3	328.7	309.6	287.7	263.1	238.5	225.1	232.2	210.9	145.1	104.1	81.05	62.95	54.59	106.0	381.8	1116	2951	6871	1741	22.60	4.551	3.305	3.052	2.685	2.402	2.321	2.249	2.154	2.147	2.666	2.590	2.620	2.630	3.042	2.834	2.900	2.982	3.013	2.683	2.935	2.879	2.717	2.664	2.736	2.623	2.599	2.688	2.682	2.460	2.424	2.555	2.481	2.525	2.614	2.557
