Sample:	'1
File name:	H2025090903Î÷ÐÁÐËºÓ.FD3
Run date:	'17:18:37, 09/10/2025
Operator:	Administrator
Comment:	'

Instrument
Model:	F-2700 FL Spectrophotometer
Serial number:	23C7-003
ROM Version:	4J14000 07

Instrument parameters
Measurement type:	3-D scan
Data mode:	Fluorescence
EX  Start WL:	220.0 nm
EX  End WL:	600.0 nm
EX Sampling interval:	5.0 nm
EM  Start WL:	230.0 nm
EM  End WL:	650.0 nm
EM Sampling interval:	5.0 nm
Scan speed:	12000 nm/min
EX Slit:	5.0 nm
EM Slit:	5.0 nm
PMT Voltage:	700 V
Response:	Auto 
Corrected spectra:	Off
Contour interval:	50.000

Peak integration
Integration method:	Rectangular
Sensitivity:	1
Threshold:	1.000

Peaks
No.	ApexEX/EM(nm)	Height(Data)
1	225.0/310.0	598.2
2	225.0/605.0	53.95
3	230.0/405.0	448.3
4	230.0/500.0	244.7
5	235.0/510.0	196.5
6	240.0/405.0	432.6
7	240.0/415.0	436.9
8	240.0/520.0	167.9
9	245.0/410.0	433.4
10	245.0/535.0	136.4
11	250.0/415.0	438.7
12	250.0/545.0	114.8
13	255.0/280.0	358.9
14	255.0/560.0	101.1
15	260.0/285.0	372.3
16	260.0/440.0	416.3
17	260.0/570.0	83.18
18	265.0/585.0	90.28
19	270.0/300.0	1071
20	270.0/600.0	97.58
21	275.0/305.0	1323
22	275.0/610.0	93.17
23	280.0/310.0	1170
24	280.0/375.0	385.2
25	280.0/620.0	74.44
26	285.0/635.0	45.85
27	300.0/335.0	361.3
28	305.0/340.0	331.7
29	310.0/350.0	287.4
30	315.0/355.0	287.6
31	320.0/360.0	304.3
32	325.0/370.0	283.6
33	330.0/375.0	277.4
34	335.0/380.0	288.5
35	340.0/385.0	265.5
36	350.0/400.0	233.3
37	355.0/405.0	230.3
38	415.0/485.0	46.59
39	430.0/505.0	30.42
40	505.0/275.0	2.132
41	510.0/280.0	2.267
42	520.0/285.0	2.498
43	530.0/290.0	2.820
44	545.0/300.0	5.728
45	550.0/305.0	6.297
46	560.0/310.0	6.159
47	570.0/315.0	5.361
48	575.0/290.0	46.82
49	575.0/320.0	4.302
50	580.0/325.0	3.629

Data points
	220.0	225.0	230.0	235.0	240.0	245.0	250.0	255.0	260.0	265.0	270.0	275.0	280.0	285.0	290.0	295.0	300.0	305.0	310.0	315.0	320.0	325.0	330.0	335.0	340.0	345.0	350.0	355.0	360.0	365.0	370.0	375.0	380.0	385.0	390.0	395.0	400.0	405.0	410.0	415.0	420.0	425.0	430.0	435.0	440.0	445.0	450.0	455.0	460.0	465.0	470.0	475.0	480.0	485.0	490.0	495.0	500.0	505.0	510.0	515.0	520.0	525.0	530.0	535.0	540.0	545.0	550.0	555.0	560.0	565.0	570.0	575.0	580.0	585.0	590.0	595.0	600.0
230.0	47.80	876.6	2803	1076	45.03	6.241	5.163	4.397	3.592	3.465	3.462	3.200	2.904	2.579	2.030	1.748	1.547	1.871	1.385	1.198	1.134	1.064	0.953	0.877	0.786	0.768	0.695	0.706	0.667	0.663	0.561	0.613	0.554	0.515	0.497	0.444	0.408	0.492	0.398	0.393	0.459	0.646	0.716	0.513	0.378	0.365	1.256	6.032	11.13	8.883	3.322	0.702	0.296	0.278	0.297	0.246	0.309	0.263	0.313	0.266	0.258	0.256	0.305	0.263	0.270	0.254	0.324	0.230	0.288	0.253	0.294	0.315	0.254	0.274	0.295	0.302	0.282
235.0	112.8	239.1	1302	2608	1236	72.01	6.111	5.062	4.365	3.905	3.855	3.487	2.878	2.776	2.344	1.530	1.434	2.199	1.235	1.183	1.200	0.983	0.855	0.960	0.796	0.926	0.648	0.700	0.726	0.572	0.509	0.593	0.532	0.499	0.473	0.397	0.426	0.353	0.406	0.392	0.410	0.426	0.577	0.692	0.742	0.482	0.576	1.656	3.764	7.059	9.271	9.783	5.523	1.162	0.330	0.269	0.294	0.296	0.293	0.293	0.242	0.218	0.260	0.248	0.253	0.341	0.325	0.256	0.283	0.256	0.305	0.323	0.286	0.321	0.267	0.271	0.304
240.0	138.4	143.6	345.0	1653	2962	393.1	31.37	4.812	4.558	4.164	3.942	3.496	2.918	2.561	2.296	2.087	1.578	2.052	1.208	1.274	1.088	0.968	0.943	0.995	0.811	0.834	0.851	0.789	0.732	0.588	0.489	0.577	0.515	0.516	0.439	0.413	0.422	0.339	0.419	0.409	0.391	0.392	0.434	0.506	0.746	0.708	0.666	0.731	1.098	2.050	4.495	10.81	13.54	10.00	3.683	0.613	0.285	0.288	0.261	0.313	0.243	0.267	0.290	0.248	0.294	0.300	0.299	0.247	0.325	0.272	0.312	0.280	0.314	0.252	0.273	0.306	0.317
245.0	88.25	179.5	143.0	471.5	2323	2864	302.0	15.17	5.941	5.154	4.695	3.837	3.156	2.485	2.278	1.947	1.741	2.069	1.163	1.429	1.310	1.107	1.085	0.969	0.919	0.721	0.700	0.714	0.772	0.689	0.625	0.615	0.631	0.470	0.529	0.427	0.412	0.358	0.356	0.397	0.391	0.361	0.359	0.335	0.507	0.548	0.801	0.763	0.643	0.674	1.265	3.549	8.531	15.09	15.65	8.652	2.331	0.427	0.345	0.365	0.339	0.274	0.304	0.327	0.309	0.342	0.287	0.282	0.266	0.266	0.299	0.290	0.307	0.256	0.293	0.304	0.324
250.0	38.67	103.9	181.9	186.6	648.6	2086	2903	1105	81.52	6.595	5.573	4.401	3.499	2.828	2.411	2.010	1.985	2.455	1.654	1.463	1.227	1.203	1.058	1.081	0.820	0.855	0.772	0.860	0.733	0.707	0.681	0.540	0.530	0.490	0.526	0.440	0.407	0.423	0.413	0.334	0.395	0.331	0.365	0.393	0.376	0.342	0.544	0.683	0.862	0.883	0.726	1.125	2.250	4.879	8.898	13.18	16.51	14.27	7.919	2.585	0.510	0.297	0.274	0.307	0.321	0.310	0.307	0.268	0.323	0.278	0.341	0.298	0.303	0.307	0.295	0.283	0.320
255.0	23.34	37.03	97.96	216.6	234.7	497.1	1671	4423	1646	99.05	8.015	5.850	3.953	3.593	2.581	2.217	2.038	2.974	1.566	1.413	1.276	1.079	1.119	1.055	1.036	0.824	0.763	0.786	0.762	0.732	0.775	0.612	0.588	0.552	0.525	0.515	0.477	0.407	0.452	0.329	0.338	0.405	0.385	0.429	0.334	0.350	0.355	0.496	0.495	0.731	0.904	1.177	0.908	1.351	2.251	3.298	6.393	14.68	24.04	22.87	12.96	2.628	0.436	0.360	0.300	0.305	0.298	0.307	0.265	0.276	0.260	0.281	0.307	0.288	0.326	0.247	0.276
260.0	24.21	24.01	39.96	150.1	234.5	160.3	440.4	2787	5236	1307	57.92	7.618	5.573	4.416	3.181	2.488	2.082	3.300	1.541	1.440	1.329	1.226	1.086	1.002	1.068	1.004	0.803	0.823	0.757	0.782	0.740	0.652	0.555	0.598	0.473	0.472	0.451	0.404	0.435	0.398	0.329	0.446	0.363	0.373	0.315	0.356	0.366	0.356	0.381	0.423	0.532	1.210	1.408	1.042	0.819	1.132	1.734	4.143	11.16	23.93	32.99	21.74	8.958	1.459	0.331	0.366	0.289	0.263	0.326	0.329	0.277	0.270	0.248	0.255	0.335	0.285	0.356
265.0	26.80	19.98	21.07	59.87	214.7	193.7	128.5	789.6	4059	5760	988.4	21.59	6.779	4.539	3.571	2.598	2.385	3.332	1.671	1.436	1.365	1.360	1.186	0.922	0.946	1.133	0.895	0.790	0.912	0.802	0.732	0.690	0.602	0.508	0.506	0.545	0.439	0.354	0.414	0.382	0.362	0.422	0.372	0.342	0.332	0.386	0.336	0.327	0.340	0.292	0.303	0.661	1.204	1.441	1.099	0.760	0.677	1.187	2.870	7.376	19.01	34.25	28.30	18.84	4.606	0.561	0.296	0.343	0.352	0.356	0.303	0.386	0.246	0.314	0.345	0.363	0.317
270.0	26.22	22.19	16.27	23.54	85.31	217.4	202.2	217.5	1126	4102	6350	2491	61.48	7.686	5.326	3.567	2.643	4.099	1.962	1.703	1.491	1.513	1.450	1.247	1.112	0.947	0.971	0.991	0.868	0.850	0.759	0.665	0.633	0.584	0.603	0.522	0.439	0.449	0.422	0.443	0.381	0.423	0.386	0.417	0.385	0.370	0.355	0.344	0.352	0.281	0.284	0.355	0.570	0.822	1.320	1.487	1.198	0.820	0.963	1.951	4.761	10.53	18.09	29.96	31.04	30.01	11.97	4.282	0.655	0.344	0.333	0.363	0.336	0.301	0.301	0.337	0.298
275.0	36.32	28.06	19.61	18.38	29.09	80.39	265.1	249.9	287.0	972.6	3394	8980	3574	71.91	7.967	4.957	3.534	4.804	2.042	2.117	1.877	1.608	1.546	1.375	1.196	1.063	1.000	0.878	0.889	0.805	0.820	0.697	0.608	0.695	0.618	0.563	0.465	0.480	0.407	0.480	0.461	0.459	0.426	0.457	0.411	0.419	0.445	0.384	0.393	0.334	0.269	0.268	0.373	0.416	0.612	0.835	1.498	2.132	1.490	1.011	1.437	2.761	4.407	7.358	11.49	28.90	50.66	28.13	18.25	4.109	0.526	0.355	0.366	0.362	0.314	0.385	0.378
280.0	55.45	47.63	32.54	22.86	18.45	31.83	138.6	358.9	198.3	256.1	904.2	5552	9195	868.7	39.42	6.622	4.948	5.928	2.588	2.316	2.124	1.704	1.488	1.395	1.373	1.335	1.153	0.922	0.900	0.778	0.787	0.715	0.761	0.692	0.644	0.647	0.511	0.611	0.418	0.520	0.495	0.625	0.477	0.476	0.454	0.444	0.480	0.427	0.462	0.313	0.286	0.333	0.339	0.303	0.396	0.441	0.775	1.552	2.267	1.881	1.120	1.116	1.308	2.056	3.089	7.870	21.35	41.20	62.49	26.96	12.25	1.449	0.433	0.396	0.306	0.339	0.328
285.0	97.48	95.48	65.07	35.85	23.42	24.79	58.18	267.1	372.3	163.1	296.7	1619	7464	7208	596.4	16.49	6.212	7.113	3.254	2.548	2.341	1.962	1.643	1.535	1.427	1.254	1.243	1.081	0.982	0.903	0.783	0.626	0.793	0.772	0.610	0.723	0.612	0.740	0.509	0.537	0.612	0.630	0.621	0.540	0.556	0.568	0.646	0.605	0.479	0.371	0.363	0.397	0.386	0.313	0.356	0.437	0.500	0.685	1.459	2.369	2.498	1.424	0.895	1.082	1.326	2.329	5.575	12.46	32.92	58.39	65.86	22.16	6.490	0.657	0.321	0.379	0.363
290.0	225.4	230.5	177.5	89.88	47.77	41.14	57.24	143.8	368.5	485.9	365.3	659.7	2223	6114	7369	2059	35.52	12.26	4.316	3.127	2.611	2.083	1.667	1.699	1.384	1.274	1.259	1.142	1.045	0.917	0.835	0.776	0.880	0.869	0.953	1.097	1.038	0.923	0.789	0.775	0.733	0.621	0.775	0.738	0.837	0.814	0.807	0.856	0.784	0.599	0.465	0.446	0.461	0.400	0.452	0.482	0.482	0.591	0.848	1.299	2.063	2.657	2.820	2.249	1.767	1.767	2.652	4.284	8.938	17.70	32.67	46.82	41.24	43.80	13.83	5.270	0.698
295.0	372.0	403.8	307.0	161.8	76.75	68.05	81.99	143.9	273.5	601.7	854.5	698.3	952.6	1658	3982	9999.9	2858	52.74	6.345	4.642	3.379	2.746	1.951	1.850	1.528	1.425	1.427	1.113	1.082	1.144	0.878	0.768	0.819	0.927	1.186	1.489	1.401	1.234	1.024	0.977	0.901	0.890	0.972	1.209	1.081	1.153	1.221	1.211	1.027	0.914	0.596	0.607	0.546	0.582	0.524	0.521	0.613	0.737	0.797	1.155	1.451	1.880	2.734	4.345	4.552	3.450	3.033	3.439	4.114	5.888	8.911	11.89	14.38	36.45	66.59	69.72	21.52
300.0	472.9	516.5	395.8	202.0	100.1	85.00	106.4	168.5	283.2	532.4	1071	1005	788.1	694.4	1086	5953	9999.9	2776	24.35	5.558	4.226	3.222	2.264	1.996	1.865	1.570	1.396	1.281	1.099	1.070	0.851	0.946	0.840	1.002	1.328	1.443	1.596	1.395	1.183	1.120	1.038	1.044	1.100	1.387	1.330	1.499	1.505	1.429	1.383	1.089	0.730	0.697	0.597	0.621	0.663	0.556	0.687	0.852	0.961	1.070	1.463	1.884	2.356	3.425	4.956	5.728	4.705	3.858	3.719	3.691	3.913	4.132	4.155	9.641	23.96	58.18	83.39
305.0	531.1	584.7	452.8	236.1	120.6	98.13	124.3	197.0	312.8	529.1	943.7	1323	905.5	522.4	379.4	1595	7568	9999.9	369.6	11.92	5.501	3.722	2.869	2.231	2.009	1.629	1.503	1.208	1.079	1.036	0.959	1.055	0.967	1.205	1.545	1.668	1.768	1.430	1.432	1.108	1.071	1.148	1.154	1.362	1.485	1.449	1.622	1.749	1.551	1.320	0.831	0.799	0.679	0.665	0.570	0.629	0.821	0.881	1.100	1.158	1.740	1.978	2.318	2.967	4.083	5.238	6.297	5.791	4.322	3.747	3.053	2.450	1.903	3.003	6.132	15.56	37.83
310.0	544.3	598.2	466.4	248.2	134.7	108.8	137.8	208.6	331.7	533.8	823.6	1150	1170	604.6	241.1	423.1	1956	9999.9	5983	1534	25.31	5.222	3.475	2.651	2.389	1.802	1.700	1.370	1.329	1.174	1.028	1.130	1.011	1.301	1.583	1.613	1.708	1.575	1.356	1.190	1.081	1.153	1.285	1.340	1.497	1.652	1.718	1.785	1.635	1.302	0.834	0.845	0.732	0.679	0.665	0.724	0.817	0.932	1.085	1.233	1.681	2.075	2.414	2.884	3.518	4.011	4.864	5.844	6.159	5.357	3.586	2.174	1.537	1.446	2.053	4.081	9.199
315.0	553.5	579.0	453.5	245.9	139.1	115.4	145.5	210.5	323.4	514.9	748.1	916.1	990.0	844.7	289.2	172.8	480.3	2319	3314	8475	2181	29.11	4.974	3.506	2.659	2.319	1.913	1.649	1.380	1.276	1.165	0.985	1.015	1.166	1.525	1.742	1.703	1.514	1.268	1.122	1.154	1.165	1.356	1.268	1.357	1.678	1.605	1.722	1.560	1.168	0.919	0.792	0.772	0.761	0.851	0.768	0.854	0.892	1.052	1.297	1.633	2.047	2.254	2.782	3.222	3.622	3.794	4.497	4.337	4.949	5.361	3.674	1.978	1.259	1.335	1.530	2.660
320.0	517.0	558.6	441.1	241.2	141.2	122.9	149.2	207.0	315.8	478.1	677.6	819.9	795.8	765.9	470.6	147.9	161.4	562.8	829.0	4945	7984	374.6	16.67	4.366	3.493	2.538	2.014	1.727	1.526	1.356	1.342	0.982	1.187	1.203	1.547	1.765	1.571	1.510	1.246	1.108	1.149	1.239	1.301	1.291	1.308	1.539	1.512	1.676	1.492	1.220	0.874	0.833	0.783	0.731	0.772	0.707	0.898	1.036	1.141	1.233	1.543	1.975	2.128	2.660	2.975	3.387	3.370	3.884	3.626	3.592	3.975	4.302	3.575	2.070	1.283	1.025	1.310
325.0	477.9	531.7	432.5	240.5	145.0	128.2	148.6	204.4	299.5	448.2	620.5	735.2	687.6	565.2	556.5	258.8	102.6	176.7	215.3	1286	6039	6399	286.8	8.899	4.217	3.251	2.356	1.938	1.662	1.476	1.199	1.097	1.021	1.189	1.402	1.642	1.675	1.507	1.179	1.050	1.073	1.120	1.212	1.187	1.270	1.528	1.450	1.705	1.584	1.205	0.929	0.804	0.794	0.769	0.882	0.805	0.957	0.889	1.027	1.243	1.423	1.823	2.101	2.473	2.927	3.242	3.257	3.464	3.476	3.000	3.028	3.024	3.629	3.277	2.238	1.216	1.105
330.0	432.4	491.8	414.1	254.5	158.2	136.1	154.5	202.7	281.5	405.5	549.2	645.1	609.2	454.9	380.9	391.8	215.7	111.5	88.82	316.5	1551	4630	4787	1288	21.25	4.294	3.200	2.323	1.831	1.671	1.511	1.275	1.083	1.141	1.291	1.431	1.396	1.288	1.138	1.129	1.050	1.030	1.132	1.199	1.341	1.511	1.456	1.543	1.501	1.186	0.959	0.932	0.952	0.790	0.848	0.871	1.011	0.945	1.075	1.232	1.434	1.689	1.981	2.251	2.608	2.736	3.029	3.105	2.958	2.782	2.576	2.224	2.345	2.488	2.797	2.636	2.270
335.0	406.7	457.9	398.1	258.9	177.0	162.4	172.6	201.5	272.3	373.2	490.4	568.8	544.9	415.3	296.8	273.9	361.3	197.2	76.74	112.7	376.7	1071	2638	7014	1978	26.63	4.412	3.228	2.227	1.879	1.571	1.362	1.154	1.267	1.221	1.332	1.259	1.291	1.073	0.995	1.102	1.133	1.152	1.235	1.243	1.313	1.485	1.431	1.499	1.305	0.908	1.028	0.911	0.994	0.854	0.844	1.087	0.989	1.172	1.160	1.427	1.739	1.825	2.032	2.267	2.397	2.645	2.684	2.658	2.528	2.368	2.118	1.858	1.901	1.833	1.865	2.898
340.0	373.6	453.1	396.1	274.3	200.1	182.1	186.2	216.3	268.0	352.8	450.2	519.3	501.8	396.6	284.2	224.9	289.7	331.7	121.8	78.51	125.3	270.4	660.7	4037	6781	340.6	16.40	3.918	2.823	2.397	1.705	1.487	1.406	1.217	1.210	1.323	1.354	1.194	1.049	1.117	1.099	1.052	1.017	1.135	1.170	1.262	1.471	1.545	1.418	1.273	0.963	1.097	1.128	0.960	1.006	0.935	1.028	0.958	1.133	1.251	1.467	1.669	1.718	1.898	2.192	2.196	2.468	2.457	2.638	2.604	2.185	2.182	1.823	1.903	1.614	1.467	2.057
345.0	374.3	422.0	392.6	287.5	219.9	202.9	200.4	225.4	262.8	338.2	421.6	474.3	468.6	378.6	287.2	222.6	215.7	326.4	236.4	97.07	80.27	103.6	180.5	1049	4883	5521	278.9	8.175	3.654	2.849	2.070	1.554	1.367	1.284	1.464	1.195	1.156	1.163	1.032	1.151	1.011	0.988	1.136	1.139	1.144	1.273	1.364	1.504	1.517	1.196	1.001	1.092	1.140	1.075	1.043	0.944	1.095	1.094	1.249	1.277	1.358	1.582	1.651	2.003	2.045	2.294	2.170	2.271	2.223	2.295	2.165	2.115	1.840	1.837	1.589	1.612	1.618
350.0	354.5	403.9	379.3	301.5	244.0	228.0	227.3	239.6	266.2	324.4	388.2	430.7	426.5	365.2	298.5	241.5	208.7	235.6	287.4	218.4	110.4	88.22	91.09	271.5	1254	3633	3818	1183	20.28	3.854	2.728	1.882	1.611	1.423	1.292	1.250	1.265	1.123	1.094	0.985	0.960	1.072	1.048	1.159	1.186	1.355	1.342	1.450	1.423	1.282	1.162	1.162	1.299	1.143	1.049	1.078	1.229	1.267	1.357	1.287	1.370	1.536	1.568	1.916	1.864	2.024	1.966	2.071	2.118	2.218	2.183	2.042	2.036	1.824	1.579	1.755	1.700
355.0	347.7	398.4	369.5	306.1	270.4	259.8	257.5	265.9	279.3	320.0	368.6	405.3	402.1	361.5	310.3	262.3	232.5	220.4	223.8	287.6	227.0	118.7	93.99	118.2	319.9	847.2	1896	5364	1900	26.04	3.882	2.484	1.836	1.467	1.317	1.254	1.225	1.203	1.103	0.976	1.047	1.081	1.023	1.194	1.118	1.307	1.264	1.437	1.344	1.233	1.192	1.236	1.313	1.373	1.352	1.203	1.286	1.334	1.288	1.311	1.437	1.633	1.783	1.707	1.834	1.925	1.915	2.014	2.220	2.073	2.064	1.922	2.071	1.862	1.822	1.824	1.696
360.0	334.4	381.1	374.6	322.8	293.5	286.4	282.4	287.9	295.1	322.2	360.8	389.4	391.0	360.8	320.9	281.3	253.4	233.7	219.3	245.1	304.3	184.8	115.1	97.69	124.8	226.9	474.5	2843	5537	329.2	17.09	3.611	2.248	1.843	1.360	1.359	1.229	1.161	1.150	1.065	1.033	0.982	1.085	1.193	1.123	1.347	1.192	1.468	1.357	1.244	1.214	1.411	1.425	1.461	1.430	1.300	1.438	1.410	1.371	1.446	1.526	1.541	1.793	1.553	1.747	1.690	1.934	1.846	2.099	2.025	2.024	1.922	2.053	1.955	2.030	1.932	1.786
365.0	331.9	367.6	368.8	341.3	316.3	313.4	300.5	298.5	302.1	326.3	362.3	382.0	385.7	362.1	328.5	299.5	273.4	256.3	234.4	228.4	282.8	275.4	154.7	110.5	94.93	99.64	140.4	725.8	3623	4826	280.5	8.745	2.959	2.385	1.683	1.501	1.189	1.210	1.128	1.160	1.023	1.122	1.138	1.080	1.175	1.356	1.310	1.416	1.362	1.336	1.129	1.405	1.497	1.396	1.371	1.326	1.451	1.584	1.405	1.560	1.638	1.604	1.784	1.646	1.785	1.702	1.913	2.057	1.972	2.052	2.017	1.911	1.958	1.984	1.995	2.010	2.059
370.0	339.6	373.8	381.0	350.8	341.7	334.9	326.5	319.6	323.6	338.7	360.0	381.1	383.9	364.5	337.0	313.6	295.9	282.3	263.2	248.2	249.3	283.6	255.5	157.8	111.6	89.77	79.85	196.6	914.2	2913	3286	1145	18.68	3.157	2.218	1.673	1.454	1.390	1.094	1.109	1.066	1.146	1.115	1.183	1.192	1.292	1.353	1.456	1.484	1.420	1.251	1.547	1.425	1.414	1.540	1.572	1.670	1.646	1.613	1.609	1.692	1.642	1.944	1.782	1.775	1.677	1.965	2.041	1.916	2.099	2.043	2.069	2.020	2.095	1.991	2.045	2.211
375.0	353.1	389.1	389.3	370.6	369.0	356.4	343.3	349.9	338.8	354.6	368.5	379.9	385.2	364.1	347.6	330.6	317.5	306.7	292.8	274.7	259.9	251.0	277.4	252.2	149.7	107.4	83.75	93.33	238.2	678.7	1425	4444	1822	24.31	3.118	2.050	1.713	1.494	1.282	1.084	1.210	1.166	1.249	1.257	1.196	1.263	1.436	1.413	1.581	1.406	1.309	1.559	1.613	1.468	1.625	1.490	1.657	1.690	1.729	1.767	1.785	1.738	1.725	1.773	1.816	1.788	1.954	1.932	1.930	2.101	2.144	2.184	2.061	2.150	2.079	2.149	2.150
380.0	353.2	394.1	394.5	385.3	379.1	379.9	367.9	361.0	352.4	369.0	377.9	383.6	382.3	370.2	355.8	339.0	327.1	321.5	308.6	291.8	274.2	255.4	250.7	288.5	209.8	130.7	98.42	80.84	98.26	182.7	352.9	2098	4451	1274	16.53	2.742	1.849	1.599	1.602	1.244	1.282	1.259	1.178	1.246	1.173	1.288	1.349	1.413	1.452	1.486	1.310	1.506	1.558	1.714	1.715	1.665	1.727	1.696	1.870	1.659	1.884	1.766	1.748	1.681	1.919	1.739	2.005	1.884	2.098	2.068	2.133	2.084	2.350	2.267	2.278	2.353	2.217
385.0	357.2	398.3	400.1	389.4	385.3	388.4	374.3	374.2	363.1	371.7	378.6	388.1	384.8	375.6	360.4	344.0	336.7	331.3	320.6	304.4	287.1	264.5	245.8	265.0	265.5	167.9	113.6	89.72	78.29	79.69	106.2	524.2	2528	3877	247.8	9.092	2.395	1.988	1.615	1.352	1.308	1.229	1.202	1.187	1.323	1.291	1.374	1.356	1.545	1.475	1.319	1.558	1.730	1.610	1.740	1.612	1.867	1.895	1.734	1.838	1.857	1.883	1.909	1.791	1.853	1.785	1.961	1.950	1.997	2.178	2.156	2.290	2.238	2.464	2.342	2.164	2.440
390.0	359.3	403.2	418.9	406.8	396.3	401.4	396.7	391.9	385.6	382.9	383.8	392.6	385.6	375.9	366.1	353.1	344.5	339.8	330.4	313.0	300.1	279.8	258.3	243.9	250.7	233.8	158.0	112.1	90.60	72.27	63.42	144.3	622.1	1971	2329	1024	16.78	2.939	1.830	1.537	1.414	1.332	1.266	1.387	1.427	1.350	1.364	1.505	1.560	1.404	1.399	1.614	1.722	1.785	1.849	1.727	1.844	1.941	1.901	1.861	1.831	1.882	1.927	1.926	1.820	1.753	2.021	1.974	2.067	2.079	2.151	2.178	2.191	2.485	2.377	2.317	2.518
395.0	360.0	409.8	420.7	419.7	419.0	407.0	411.9	405.1	397.1	392.4	393.4	400.7	386.3	379.7	365.6	357.6	346.9	345.8	338.3	321.5	308.7	292.0	272.0	250.6	231.2	232.4	226.3	150.7	111.4	89.12	69.22	69.55	165.3	459.4	859.7	2903	1541	23.02	2.788	2.002	1.676	1.517	1.401	1.435	1.393	1.446	1.449	1.435	1.539	1.526	1.416	1.575	1.697	1.685	1.762	1.916	1.860	2.040	1.941	1.811	1.819	1.933	1.867	1.993	1.956	1.882	1.890	2.122	2.003	2.245	2.009	2.029	2.144	2.406	2.364	2.389	2.523
400.0	365.5	408.6	431.8	420.3	425.8	419.3	421.1	417.3	403.0	399.9	402.5	402.3	392.3	381.2	368.7	355.0	346.0	344.1	339.0	324.2	313.6	293.6	281.4	257.1	232.7	218.3	233.3	201.2	133.7	103.2	80.63	63.71	69.57	125.3	213.3	1204	3044	1122	15.67	2.648	2.004	1.668	1.543	1.444	1.333	1.483	1.635	1.496	1.566	1.525	1.420	1.653	1.829	1.786	1.785	1.722	1.855	1.946	1.913	1.927	1.824	2.025	1.860	1.960	2.120	1.837	1.912	1.995	1.981	2.003	1.879	2.052	2.184	2.305	2.372	2.315	2.621
405.0	383.7	417.5	448.3	427.7	432.6	427.4	422.1	420.3	412.2	409.5	402.6	402.7	393.2	379.0	368.2	352.3	343.7	339.2	336.7	325.6	313.4	298.0	286.8	263.8	240.3	217.5	215.2	230.3	171.0	119.8	91.33	70.38	56.41	55.81	67.45	295.5	1489	2821	226.9	10.43	2.187	1.820	1.634	1.528	1.386	1.424	1.562	1.518	1.685	1.410	1.454	1.689	1.802	1.889	1.947	1.802	2.019	1.986	1.825	2.074	1.818	2.117	2.071	1.857	2.110	1.880	2.005	1.949	2.076	2.139	2.173	2.093	2.168	2.197	2.278	2.489	2.487
410.0	376.8	408.2	436.3	431.1	424.3	433.4	427.6	420.2	418.9	414.9	409.3	405.0	391.9	376.3	360.8	345.6	338.2	332.9	329.9	318.9	309.6	297.8	285.4	267.2	248.4	225.9	209.8	212.0	209.4	160.6	111.3	84.06	63.75	49.04	41.18	84.53	360.2	1265	1736	921.9	16.39	2.428	1.835	1.699	1.576	1.570	1.537	1.540	1.665	1.532	1.444	1.745	1.891	1.921	1.834	1.863	1.800	2.029	1.953	1.947	2.175	2.074	1.993	2.055	2.053	1.877	1.960	1.947	2.031	2.119	2.014	2.139	2.210	2.242	2.330	2.478	2.667
