Sample:	'1
File name:	t2025042303y277ге.FD3
Run date:	'10:33:06, 04/24/2025
Operator:	Administrator
Comment:	'

Instrument
Model:	F-2700 FL Spectrophotometer
Serial number:	23B8-004
ROM Version:	4J14000 07

Instrument parameters
Measurement type:	3-D scan
Data mode:	Fluorescence
EX  Start WL:	220.0 nm
EX  End WL:	600.0 nm
EX Sampling interval:	5.0 nm
EM  Start WL:	230.0 nm
EM  End WL:	650.0 nm
EM Sampling interval:	5.0 nm
Scan speed:	12000 nm/min
EX Slit:	5.0 nm
EM Slit:	5.0 nm
PMT Voltage:	700 V
Response:	Auto 
Corrected spectra:	Off
Contour interval:	50.000

Peak integration
Integration method:	Rectangular
Sensitivity:	1
Threshold:	1.000

Peaks
No.	ApexEX/EM(nm)	Height(Data)
1	225.0/580.0	48.05
2	225.0/625.0	27.70
3	230.0/345.0	966.4
4	230.0/565.0	53.25
5	230.0/575.0	52.38
6	230.0/585.0	50.53
7	230.0/640.0	29.48
8	235.0/510.0	244.6
9	240.0/265.0	337.2
10	240.0/390.0	783.6
11	240.0/520.0	220.4
12	245.0/270.0	334.5
13	245.0/535.0	183.0
14	250.0/275.0	436.1
15	250.0/545.0	144.3
16	255.0/280.0	534.1
17	255.0/560.0	129.2
18	260.0/290.0	511.9
19	260.0/575.0	104.3
20	265.0/585.0	105.7
21	270.0/300.0	949.6
22	270.0/600.0	88.86
23	275.0/305.0	1072
24	275.0/335.0	811.1
25	275.0/610.0	77.84
26	280.0/310.0	966.4
27	280.0/340.0	810.8
28	280.0/625.0	67.56
29	285.0/315.0	898.8
30	285.0/635.0	50.32
31	290.0/325.0	827.8
32	305.0/345.0	524.5
33	315.0/355.0	420.4
34	320.0/360.0	399.8
35	325.0/370.0	372.6
36	330.0/375.0	358.6
37	335.0/380.0	356.9
38	430.0/505.0	28.20
39	445.0/525.0	16.73
40	485.0/265.0	2.107
41	505.0/275.0	2.945
42	510.0/280.0	3.441
43	520.0/285.0	3.594
44	530.0/290.0	3.430
45	540.0/295.0	4.719
46	545.0/300.0	5.715
47	550.0/305.0	5.787
48	560.0/310.0	5.316
49	570.0/315.0	5.508
50	580.0/320.0	5.308
51	585.0/325.0	5.188

Data points
	220.0	225.0	230.0	235.0	240.0	245.0	250.0	255.0	260.0	265.0	270.0	275.0	280.0	285.0	290.0	295.0	300.0	305.0	310.0	315.0	320.0	325.0	330.0	335.0	340.0	345.0	350.0	355.0	360.0	365.0	370.0	375.0	380.0	385.0	390.0	395.0	400.0	405.0	410.0	415.0	420.0	425.0	430.0	435.0	440.0	445.0	450.0	455.0	460.0	465.0	470.0	475.0	480.0	485.0	490.0	495.0	500.0	505.0	510.0	515.0	520.0	525.0	530.0	535.0	540.0	545.0	550.0	555.0	560.0	565.0	570.0	575.0	580.0	585.0	590.0	595.0	600.0
230.0	26.96	578.8	1637	549.0	24.70	4.556	3.084	3.492	2.514	2.367	2.337	2.152	1.943	1.742	1.452	1.249	1.022	0.892	0.728	0.765	0.675	0.597	0.555	0.497	0.496	0.438	0.408	0.411	0.393	0.337	0.373	0.319	0.276	0.264	0.270	0.268	0.263	0.242	0.232	0.263	0.245	0.273	0.291	0.225	0.227	0.206	0.874	3.637	6.279	4.451	1.540	0.320	0.177	0.154	0.153	0.153	0.155	0.160	0.164	0.145	0.148	0.150	0.161	0.137	0.151	0.155	0.130	0.150	0.155	0.151	0.147	0.152	0.124	0.137	0.144	0.161	0.153
235.0	59.96	173.0	1125	2171	496.9	42.59	3.574	3.578	2.776	3.248	2.608	2.812	2.135	1.580	1.493	1.235	1.072	0.899	0.918	0.795	0.618	0.689	0.650	0.535	0.582	0.458	0.534	0.381	0.450	0.422	0.374	0.257	0.337	0.338	0.294	0.240	0.278	0.255	0.205	0.279	0.291	0.243	0.236	0.302	0.345	0.268	0.327	1.056	2.872	5.442	7.252	7.540	3.226	0.626	0.189	0.224	0.180	0.135	0.178	0.176	0.209	0.138	0.184	0.205	0.158	0.166	0.153	0.124	0.140	0.152	0.145	0.173	0.182	0.188	0.142	0.161	0.148
240.0	90.09	102.4	343.6	1951	2402	398.2	20.32	4.248	3.768	3.731	3.322	3.042	1.945	1.950	1.372	1.200	1.016	1.000	0.794	0.773	0.624	0.592	0.632	0.618	0.638	0.423	0.423	0.418	0.372	0.448	0.444	0.339	0.290	0.329	0.276	0.268	0.236	0.292	0.203	0.208	0.270	0.303	0.232	0.255	0.433	0.431	0.290	0.427	0.790	1.717	4.487	11.03	12.92	7.889	2.487	0.385	0.185	0.185	0.184	0.199	0.176	0.152	0.167	0.183	0.166	0.158	0.162	0.131	0.163	0.152	0.118	0.148	0.174	0.179	0.177	0.152	0.160
245.0	71.75	142.4	124.1	670.3	2650	2509	288.2	9.437	4.755	3.771	3.543	3.261	2.121	1.986	1.549	1.372	1.038	1.310	0.970	0.813	0.782	0.743	0.739	0.572	0.585	0.483	0.408	0.464	0.455	0.444	0.414	0.305	0.279	0.289	0.204	0.255	0.215	0.252	0.263	0.309	0.238	0.283	0.296	0.225	0.339	0.447	0.605	0.521	0.460	0.524	1.214	4.017	10.57	16.44	14.96	6.853	1.599	0.250	0.199	0.182	0.165	0.153	0.188	0.151	0.171	0.148	0.144	0.157	0.192	0.209	0.142	0.171	0.169	0.174	0.137	0.167	0.195
250.0	32.91	108.7	184.1	233.0	848.9	2501	3160	1036	59.58	5.365	4.361	3.690	2.603	2.222	1.663	1.620	1.323	1.270	1.055	1.007	0.759	0.785	0.721	0.571	0.552	0.531	0.507	0.510	0.451	0.447	0.397	0.345	0.316	0.316	0.305	0.304	0.263	0.246	0.262	0.310	0.267	0.253	0.351	0.222	0.272	0.289	0.396	0.615	0.819	0.745	0.590	1.112	2.696	5.563	10.35	15.12	19.09	15.48	7.701	1.621	0.262	0.176	0.197	0.221	0.171	0.198	0.167	0.156	0.174	0.191	0.158	0.183	0.153	0.161	0.161	0.165	0.183
255.0	25.73	40.92	144.8	296.8	271.8	634.6	2510	4918	1440	57.57	5.964	5.368	4.200	3.126	2.558	1.744	1.785	1.181	1.143	0.968	0.846	0.777	0.784	0.711	0.647	0.464	0.605	0.485	0.551	0.453	0.409	0.366	0.309	0.357	0.356	0.363	0.276	0.217	0.283	0.260	0.290	0.283	0.285	0.215	0.243	0.303	0.228	0.311	0.491	0.744	1.189	1.309	0.959	1.437	2.498	3.835	8.162	19.39	31.46	24.39	11.11	1.868	0.251	0.218	0.192	0.204	0.134	0.173	0.172	0.146	0.141	0.222	0.128	0.166	0.167	0.156	0.152
260.0	26.96	22.97	57.72	242.7	286.8	191.3	753.9	4101	5513	250.6	23.65	7.507	5.354	3.842	2.415	2.220	2.033	1.336	1.173	1.171	0.972	0.781	0.626	0.655	0.704	0.576	0.656	0.518	0.538	0.473	0.453	0.435	0.370	0.317	0.368	0.325	0.337	0.246	0.284	0.288	0.285	0.237	0.256	0.301	0.323	0.262	0.254	0.245	0.274	0.375	0.789	1.609	1.637	0.889	0.801	1.086	2.099	5.475	15.26	30.81	39.72	22.75	7.892	0.851	0.239	0.247	0.172	0.222	0.175	0.168	0.188	0.179	0.138	0.168	0.180	0.167	0.189
265.0	27.03	16.29	24.94	107.5	337.2	217.7	201.3	1363	5833	5311	195.9	13.17	6.428	4.201	3.266	2.839	1.985	1.565	1.176	1.375	1.128	0.877	0.794	0.692	0.750	0.626	0.776	0.584	0.601	0.493	0.442	0.401	0.416	0.392	0.356	0.326	0.320	0.247	0.285	0.335	0.250	0.283	0.300	0.324	0.356	0.266	0.264	0.268	0.252	0.248	0.328	0.776	1.765	2.107	1.247	0.573	0.696	1.416	3.802	9.789	24.85	41.52	31.43	19.37	4.109	0.392	0.252	0.225	0.185	0.166	0.205	0.207	0.164	0.197	0.207	0.184	0.216
270.0	33.19	32.09	29.50	43.12	157.1	334.5	258.1	351.4	1810	5298	6576	776.5	46.07	7.034	4.284	3.203	2.711	1.880	1.441	1.527	1.138	1.054	0.852	0.817	0.665	0.683	0.683	0.563	0.674	0.508	0.505	0.467	0.502	0.379	0.393	0.333	0.340	0.330	0.361	0.312	0.324	0.342	0.330	0.370	0.360	0.283	0.273	0.296	0.322	0.277	0.231	0.341	0.678	1.182	1.675	1.757	1.499	1.031	1.161	2.520	6.086	12.78	21.80	35.70	36.42	35.79	13.64	3.895	0.417	0.245	0.228	0.250	0.194	0.197	0.251	0.208	0.225
275.0	76.07	93.41	81.32	58.43	57.37	147.4	436.1	306.8	450.6	1313	4602	9462	1092	43.08	6.525	4.760	3.417	2.547	2.168	1.612	1.224	1.194	0.921	0.832	0.822	0.759	0.741	0.580	0.692	0.575	0.511	0.504	0.427	0.478	0.459	0.438	0.375	0.365	0.359	0.307	0.401	0.377	0.391	0.352	0.458	0.368	0.412	0.395	0.444	0.310	0.295	0.343	0.407	0.521	0.623	1.072	1.984	2.945	1.877	1.153	1.753	3.143	5.218	8.625	12.35	30.73	57.23	32.16	20.95	3.822	0.448	0.296	0.204	0.227	0.274	0.201	0.321
280.0	120.2	149.3	155.7	92.91	46.65	65.64	266.4	534.1	257.7	360.1	1304	7090	8872	773.5	18.69	6.019	4.285	3.112	2.414	1.871	1.351	1.192	1.236	0.899	0.843	0.822	0.775	0.678	0.732	0.702	0.473	0.545	0.541	0.493	0.504	0.512	0.437	0.468	0.512	0.350	0.407	0.387	0.403	0.436	0.542	0.426	0.569	0.520	0.470	0.416	0.439	0.392	0.320	0.401	0.380	0.463	0.900	2.086	3.441	2.714	1.390	1.215	1.607	2.362	3.285	7.933	21.27	41.65	66.57	31.31	15.92	1.940	0.380	0.367	0.248	0.243	0.291
285.0	166.9	221.6	223.9	134.5	65.36	50.94	118.2	452.1	504.8	206.1	394.3	2161	8863	7009	113.1	10.34	5.506	3.754	2.706	2.302	1.697	1.387	1.157	1.056	0.955	0.922	0.831	0.727	0.872	0.658	0.588	0.703	0.633	0.672	0.577	0.610	0.576	0.504	0.547	0.405	0.353	0.481	0.431	0.445	0.565	0.584	0.681	0.846	0.748	0.632	0.508	0.501	0.443	0.337	0.387	0.383	0.469	0.891	1.968	3.286	3.594	1.914	1.089	1.017	1.313	2.423	5.454	11.52	30.41	54.97	68.24	27.71	10.56	0.802	0.362	0.282	0.309
290.0	213.2	319.9	309.3	195.8	96.95	68.14	90.80	216.8	511.9	491.3	322.7	655.1	2601	6563	6820	441.0	27.36	5.816	3.582	2.626	2.009	1.819	1.395	1.307	1.136	1.001	0.887	0.817	0.875	0.620	0.703	0.658	0.731	0.665	0.600	0.669	0.577	0.669	0.567	0.545	0.428	0.405	0.481	0.547	0.662	0.769	0.858	1.061	0.971	0.886	0.666	0.646	0.571	0.495	0.506	0.444	0.559	0.611	0.962	1.464	2.447	3.208	3.430	2.582	1.606	1.487	2.272	3.496	7.904	14.87	27.62	39.13	51.40	43.79	18.91	8.809	1.303
295.0	270.4	401.1	394.8	258.8	138.4	107.8	118.7	171.1	289.6	625.1	748.5	449.0	802.7	1659	4324	8316	644.5	24.98	5.192	3.389	2.696	2.093	1.764	1.500	1.383	1.103	0.981	0.871	0.875	0.809	0.739	0.722	0.754	0.707	0.774	0.685	0.636	0.654	0.678	0.550	0.511	0.513	0.507	0.608	0.789	0.908	1.043	1.222	1.146	1.128	0.891	0.767	0.720	0.623	0.609	0.695	0.678	0.731	0.908	1.162	1.328	1.620	2.541	4.267	4.719	3.475	2.108	1.932	3.014	4.381	7.145	9.546	13.49	23.43	50.24	70.71	29.99
300.0	298.9	415.6	421.4	294.0	175.3	145.2	163.0	195.8	268.7	460.8	949.6	699.9	484.3	569.4	1208	5924	5684	476.2	11.07	4.769	3.249	2.517	2.129	1.601	1.450	1.153	1.175	0.986	0.967	0.815	0.732	0.749	0.717	0.810	0.806	0.695	0.709	0.622	0.623	0.566	0.553	0.521	0.554	0.669	0.859	0.966	1.031	1.386	1.416	1.269	1.009	0.939	0.796	0.752	0.764	0.743	0.780	0.953	1.183	1.143	1.157	1.392	1.908	2.622	4.309	5.715	4.286	2.743	2.433	2.423	3.044	3.338	3.971	6.299	15.00	37.29	60.66
305.0	316.8	433.8	452.0	322.7	219.7	179.1	204.8	242.5	319.6	431.9	758.2	1072	585.5	398.9	433.7	1730	6682	4677	70.78	7.265	4.202	2.990	2.277	1.746	1.383	1.380	1.209	1.025	0.990	0.817	0.800	0.807	0.698	0.660	0.799	0.754	0.680	0.801	0.617	0.599	0.574	0.700	0.647	0.702	0.862	0.943	1.181	1.377	1.499	1.284	1.087	1.097	1.054	0.925	0.767	1.014	0.985	1.258	1.302	1.424	1.633	1.621	1.981	2.396	3.187	4.365	5.787	5.597	3.803	2.548	2.284	2.078	2.267	2.366	4.205	9.465	20.46
310.0	286.7	452.1	477.1	354.5	243.4	220.2	241.8	299.7	366.9	464.6	627.7	909.7	966.4	542.9	318.0	509.5	1926	4757	4991	1219	19.50	4.609	2.894	2.250	1.923	1.538	1.207	1.076	1.190	1.000	0.961	0.735	0.668	0.747	0.765	0.830	0.738	0.720	0.723	0.617	0.592	0.622	0.678	0.750	0.834	1.016	1.162	1.370	1.400	1.305	1.107	1.188	1.061	1.037	1.020	1.065	1.206	1.339	1.480	1.666	1.764	1.923	2.144	2.427	2.934	3.285	3.751	4.751	5.316	5.080	3.992	2.613	2.183	1.979	2.038	2.995	5.406
315.0	291.1	455.0	482.1	389.9	283.5	257.6	284.9	339.3	412.1	504.7	621.9	734.1	854.5	898.8	425.8	282.3	538.0	1160	3137	6365	480.3	20.18	4.754	2.973	2.275	1.967	1.399	1.205	1.066	0.974	0.820	0.910	0.830	0.772	0.721	0.821	0.773	0.671	0.657	0.760	0.547	0.673	0.639	0.753	0.831	1.018	1.182	1.548	1.482	1.453	1.165	1.227	1.333	1.063	1.156	1.315	1.324	1.331	1.651	1.781	1.980	2.166	2.359	2.697	2.958	3.202	3.258	3.482	3.876	4.257	5.508	5.299	3.526	2.396	1.955	1.884	2.318
320.0	321.5	479.7	556.6	429.9	318.3	285.3	320.1	369.2	442.5	547.4	646.0	731.8	752.5	880.7	701.2	305.3	272.3	360.9	844.0	4262	4112	384.9	9.487	4.009	2.603	2.294	1.518	1.416	1.228	0.969	0.821	0.894	0.854	0.827	0.834	0.779	0.854	0.775	0.623	0.740	0.616	0.685	0.670	0.744	0.776	1.142	1.245	1.586	1.688	1.495	1.243	1.319	1.392	1.250	1.458	1.328	1.402	1.702	1.794	1.742	1.968	2.511	2.490	2.755	3.125	3.205	3.374	3.327	3.437	3.521	4.124	4.965	5.308	4.326	2.643	1.966	1.811
325.0	362.4	568.7	688.7	512.8	359.3	315.2	352.3	393.7	472.9	573.5	678.1	757.9	745.1	736.7	827.8	476.0	255.2	210.1	270.6	1207	4569	3660	56.57	6.129	3.593	2.608	1.920	1.660	1.302	1.121	1.046	0.936	0.886	0.789	0.764	0.699	0.785	0.803	0.684	0.573	0.578	0.751	0.715	0.834	0.902	1.108	1.372	1.887	2.140	1.802	1.553	1.681	1.504	1.421	1.319	1.443	1.579	1.810	1.925	2.035	2.126	2.565	2.657	2.919	3.009	3.512	3.396	3.569	3.561	3.487	3.616	3.883	4.380	5.188	4.411	3.047	2.010
330.0	392.0	649.2	835.4	682.2	454.1	360.7	382.0	421.9	494.6	596.6	703.5	783.4	776.3	706.4	687.2	651.3	410.3	221.4	172.8	349.0	1301	3470	3857	1089	17.77	3.534	2.516	1.868	1.602	1.305	1.160	1.019	0.894	0.791	0.841	0.743	0.731	0.754	0.704	0.716	0.613	0.734	0.780	0.889	1.052	1.298	1.686	2.191	2.466	2.390	2.101	2.099	1.891	1.593	1.544	1.585	1.727	1.974	2.027	2.169	2.287	2.483	2.818	2.996	3.151	3.678	3.609	3.794	3.693	3.788	3.757	3.614	3.788	3.892	4.239	4.276	3.981
335.0	421.6	697.6	923.5	797.5	547.4	431.8	418.3	454.1	516.7	623.8	719.9	811.1	797.4	728.5	641.7	566.7	600.9	363.6	193.8	189.8	358.4	836.7	2394	5103	408.6	19.20	3.527	2.627	2.057	1.580	1.408	1.266	0.963	0.934	0.879	0.727	0.758	0.709	0.730	0.605	0.647	0.761	0.782	0.949	1.247	1.370	1.762	2.309	2.722	2.633	2.405	2.324	2.275	1.847	1.845	1.825	1.832	1.983	2.118	2.145	2.356	2.471	2.670	3.025	3.262	3.473	3.675	3.762	3.857	4.142	3.953	3.758	3.696	3.688	3.445	3.532	3.960
340.0	427.7	711.9	964.4	879.0	616.5	477.8	449.1	467.0	530.0	638.5	719.2	810.7	810.8	746.9	646.2	532.2	550.4	521.3	257.9	174.3	167.2	242.6	635.5	3323	3414	348.2	9.603	3.372	2.553	1.760	1.478	1.327	1.088	0.978	1.089	0.793	0.708	0.760	0.653	0.683	0.672	0.830	0.751	0.830	1.217	1.429	1.850	2.413	2.900	2.808	2.550	2.677	2.404	2.093	2.007	1.954	1.999	1.978	2.108	2.157	2.527	2.495	2.780	3.032	3.441	3.247	3.992	3.687	4.119	3.964	3.823	3.916	3.591	3.700	3.383	3.391	3.318
345.0	430.9	714.8	966.4	911.7	657.1	514.8	465.4	479.3	539.8	627.0	721.4	792.9	791.8	745.6	655.8	527.8	470.6	524.5	388.1	203.9	142.9	126.6	192.5	925.8	3628	3135	51.36	5.471	2.946	2.156	1.601	1.428	1.080	0.881	0.929	0.773	0.671	0.781	0.584	0.714	0.717	0.756	0.774	0.861	1.154	1.468	1.817	2.471	2.936	2.794	2.767	2.819	2.685	2.383	2.044	2.030	2.120	2.118	2.337	2.226	2.558	2.626	2.860	2.963	3.280	3.492	3.680	3.577	3.923	3.915	3.756	3.813	3.674	3.992	3.471	3.469	3.321
350.0	409.0	703.5	955.6	900.5	696.7	554.8	499.0	502.7	550.6	625.2	700.9	769.3	767.0	734.8	653.1	543.0	462.2	432.1	448.7	337.0	182.2	129.6	115.3	258.4	1023	2722	3143	962.5	16.93	2.948	1.939	1.575	1.240	1.050	1.114	0.791	0.822	0.780	0.702	0.725	0.768	0.840	0.778	0.879	0.950	1.380	1.760	2.364	2.652	2.813	2.670	2.899	2.788	2.540	2.311	2.176	2.236	2.217	2.365	2.386	2.424	2.597	2.840	2.976	3.073	3.278	3.460	3.538	3.831	3.766	3.803	3.807	3.672	3.948	3.548	3.346	3.196
355.0	378.3	664.4	908.3	870.9	723.5	612.1	549.8	535.0	572.6	626.1	688.7	740.6	752.8	720.9	652.3	555.9	483.2	421.7	387.2	420.4	307.1	169.2	126.6	132.6	277.0	653.8	1810	3984	383.0	20.51	3.023	2.157	1.515	1.476	1.003	0.922	0.926	0.731	0.825	0.635	0.624	0.796	0.695	0.859	0.992	1.276	1.414	2.165	2.539	2.588	2.580	2.748	2.792	2.522	2.475	2.258	2.287	2.356	2.384	2.301	2.539	2.583	2.877	3.315	3.084	3.264	3.425	3.500	3.539	3.404	3.677	3.814	3.657	3.612	3.732	3.583	3.112
360.0	388.4	619.5	854.4	866.2	738.8	661.8	578.6	559.7	584.5	640.6	690.8	728.6	734.8	709.2	646.7	568.2	498.4	441.4	380.0	382.1	399.8	240.5	155.5	122.8	128.2	190.2	473.7	2521	3139	338.6	10.09	2.931	1.921	1.559	1.220	0.868	0.900	0.830	0.802	0.650	0.627	0.763	0.727	0.801	0.933	1.342	1.600	2.114	2.489	2.513	2.479	2.827	2.918	2.660	2.622	2.296	2.695	2.591	2.498	2.449	2.625	2.664	3.163	2.938	3.038	3.444	3.303	3.358	3.328	3.704	3.820	3.693	3.665	3.681	3.413	3.670	3.429
365.0	379.5	596.9	821.2	855.4	761.2	677.8	606.6	598.2	609.2	651.8	694.2	725.6	718.9	694.1	642.3	573.4	511.5	456.4	396.5	361.0	392.9	343.6	200.7	142.2	112.4	100.8	145.2	703.0	2987	2898	48.89	5.136	2.523	1.767	1.472	1.117	0.869	0.891	0.708	0.693	0.625	0.716	0.685	0.891	0.898	1.292	1.652	1.894	2.303	2.354	2.425	2.810	2.824	2.696	2.763	2.508	2.758	2.519	2.619	2.591	2.775	2.740	3.031	3.186	3.211	3.244	3.452	3.246	3.244	3.451	3.565	3.689	3.590	3.716	3.635	3.672	3.652
370.0	353.5	563.2	772.0	835.2	758.8	698.0	636.0	622.2	634.1	664.5	694.3	708.0	698.2	682.2	633.6	576.6	526.1	476.2	424.4	377.0	356.0	372.6	311.7	194.7	138.2	105.2	89.12	196.8	831.9	2348	2814	896.2	16.03	2.527	1.661	1.292	1.011	0.971	0.803	0.694	0.690	0.737	0.629	0.882	0.958	1.192	1.493	1.923	2.196	2.345	2.377	2.851	2.882	2.763	2.896	2.641	2.827	2.657	2.769	2.865	2.983	2.897	3.048	3.128	3.169	3.271	3.392	3.293	3.397	3.343	3.424	3.673	3.479	3.498	3.596	3.573	3.354
375.0	335.0	539.3	718.9	814.7	785.1	729.0	668.5	648.8	647.2	665.1	684.1	698.8	679.3	664.9	622.7	572.7	541.8	493.8	447.9	402.8	364.1	339.1	358.6	298.9	181.4	131.7	98.36	101.1	225.5	561.5	1563	3431	335.6	18.51	2.430	1.575	1.337	1.013	0.976	0.867	0.736	0.745	0.736	0.834	0.923	1.248	1.382	1.814	2.159	2.290	2.292	2.754	2.890	2.830	2.767	2.640	2.904	2.870	2.941	3.022	2.859	2.987	3.153	3.186	3.321	3.073	3.289	3.173	3.252	3.244	3.197	3.479	3.540	3.399	3.644	3.490	3.313
380.0	331.2	506.8	696.1	785.8	781.1	736.2	693.6	665.4	654.4	671.1	676.9	687.5	664.8	654.0	613.7	572.4	535.3	499.0	455.1	419.6	380.9	340.6	337.3	356.9	244.4	159.4	119.4	95.98	101.7	161.9	409.1	2130	2703	288.1	9.148	2.041	1.406	1.219	1.060	0.850	0.789	0.724	0.814	0.902	0.995	1.241	1.287	1.919	2.055	2.206	2.240	2.841	2.773	2.770	3.102	2.755	2.663	2.799	3.045	3.058	3.060	2.933	3.036	3.116	3.071	3.128	3.030	3.284	3.372	3.278	3.176	3.396	3.376	3.460	3.318	3.459	3.342
385.0	301.9	507.1	677.5	767.0	780.2	750.0	691.7	664.4	666.6	671.4	671.7	675.2	658.2	640.1	600.8	562.5	532.5	501.7	467.1	428.3	393.3	353.9	324.8	341.1	317.0	199.2	141.8	111.4	86.83	82.07	124.6	588.3	2362	2398	213.8	4.031	1.902	1.519	1.111	0.992	0.758	0.737	0.734	0.935	1.000	1.243	1.387	1.757	1.973	2.092	2.098	2.823	2.938	2.873	3.021	2.850	2.850	2.767	3.187	3.008	3.030	2.881	2.988	3.065	3.092	3.189	3.276	3.263	3.244	3.323	3.015	3.343	3.355	3.433	3.404	3.512	3.262
390.0	306.6	493.9	664.3	746.5	783.6	737.7	698.0	666.2	663.1	660.4	658.0	656.0	639.9	621.9	584.8	549.3	522.7	494.7	470.1	437.1	406.2	369.3	338.1	318.1	324.9	280.1	188.5	137.7	104.0	82.35	73.90	164.1	649.2	1784	2124	677.9	13.65	1.918	1.385	1.105	0.954	0.799	0.782	0.950	0.970	1.160	1.350	1.691	1.964	2.008	2.136	2.690	2.704	2.876	3.060	2.733	2.981	2.877	2.984	3.019	3.029	3.088	2.882	3.166	3.130	3.132	2.952	3.002	3.212	3.188	3.288	3.185	3.324	3.276	3.283	3.258	3.326
395.0	316.4	467.4	653.4	740.8	771.8	723.7	705.9	672.7	654.2	652.6	645.4	645.8	630.2	599.2	572.3	535.1	515.5	488.6	464.0	440.0	408.2	379.2	352.5	325.4	303.1	304.2	265.2	176.4	133.0	103.4	81.31	81.76	174.8	425.0	1149	2472	277.0	16.06	2.070	1.347	1.107	0.878	0.931	0.966	1.018	1.271	1.269	1.700	2.003	1.961	2.032	2.623	2.728	2.772	3.082	2.728	3.197	3.064	3.060	3.253	3.089	2.942	3.128	3.195	3.309	3.033	2.950	2.929	2.991	3.003	3.325	2.993	3.453	3.386	3.078	3.065	3.262
400.0	290.9	442.1	643.4	738.8	746.1	728.2	701.9	668.0	655.3	649.0	631.9	642.8	614.9	591.3	564.3	525.1	500.4	473.1	456.0	436.7	411.0	386.8	357.1	338.5	302.3	291.4	297.2	228.3	157.8	124.7	96.65	74.15	77.01	119.8	301.1	1528	2153	241.6	8.101	1.789	1.346	0.951	0.919	0.987	0.928	1.246	1.215	1.656	1.799	2.111	2.041	2.336	2.641	2.927	2.971	2.708	3.105	2.896	2.843	2.976	3.160	2.867	2.897	3.072	3.163	2.924	2.962	2.879	3.095	3.036	2.943	3.064	3.303	3.277	2.973	2.991	3.287
405.0	286.0	459.1	622.3	701.0	726.2	722.5	702.1	679.0	647.2	644.7	629.9	626.0	605.6	583.6	550.5	511.2	484.4	468.2	448.0	434.0	406.5	384.6	363.3	344.8	311.5	282.5	289.7	277.4	192.4	143.3	111.8	81.77	62.74	57.84	89.61	416.8	1718	1886	183.3	3.475	1.623	1.084	1.052	0.891	1.120	1.256	1.219	1.635	1.689	2.050	1.927	2.590	2.590	2.968	2.954	2.718	3.024	2.940	2.951	3.085	2.937	2.940	3.021	2.948	2.830	2.927	2.907	2.974	2.955	2.805	2.991	3.063	3.258	3.289	3.113	3.211	3.375
410.0	279.3	439.8	595.6	682.5	708.5	702.8	689.4	664.2	646.4	632.5	626.4	608.4	587.7	564.7	528.3	489.9	464.9	450.7	433.9	418.5	400.1	381.7	365.0	347.2	321.1	292.4	276.1	277.1	249.5	181.2	132.0	98.83	72.43	54.27	49.56	113.8	466.8	1317	1609	533.4	12.26	1.682	1.304	1.031	1.119	1.255	1.204	1.558	1.785	1.930	1.884	2.409	2.716	2.700	2.847	2.652	2.905	3.026	3.090	2.968	2.931	2.976	3.055	2.760	2.867	2.906	2.810	2.865	2.835	2.785	2.913	2.976	3.147	2.936	3.074	3.143	3.226
