Sample:	'1
File name:	L2025090904Î÷ËÄÂ·ÇÅ.FD3
Run date:	'15:11:41, 09/09/2025
Operator:	Administrator
Comment:	'

Instrument
Model:	F-2700 FL Spectrophotometer
Serial number:	3064-004
ROM Version:	4J14000 07

Instrument parameters
Measurement type:	3-D scan
Data mode:	Fluorescence
EX  Start WL:	220.0 nm
EX  End WL:	600.0 nm
EX Sampling interval:	5.0 nm
EM  Start WL:	230.0 nm
EM  End WL:	650.0 nm
EM Sampling interval:	5.0 nm
Scan speed:	12000 nm/min
EX Slit:	5.0 nm
EM Slit:	5.0 nm
PMT Voltage:	700 V
Response:	Auto 
Corrected spectra:	Off
Contour interval:	50.000

Peak integration
Integration method:	Rectangular
Sensitivity:	1
Threshold:	1.000

Peaks
No.	ApexEX/EM(nm)	Height(Data)
1	225.0/580.0	26.27
2	225.0/610.0	23.23
3	235.0/620.0	23.08
4	240.0/520.0	267.2
5	240.0/600.0	25.23
6	245.0/530.0	246.3
7	250.0/545.0	228.1
8	255.0/280.0	642.1
9	255.0/555.0	198.7
10	260.0/285.0	825.6
11	260.0/565.0	177.5
12	265.0/290.0	727.1
13	265.0/415.0	 1019
14	265.0/425.0	 1018
15	265.0/580.0	161.0
16	270.0/295.0	 1121
17	270.0/410.0	 1022
18	270.0/590.0	139.1
19	275.0/305.0	 1353
20	275.0/405.0	 1031
21	275.0/605.0	139.6
22	280.0/310.0	 1337
23	280.0/380.0	 1004
24	280.0/400.0	 1018
25	280.0/615.0	106.4
26	285.0/315.0	 1338
27	285.0/395.0	 1017
28	285.0/405.0	 1021
29	285.0/630.0	91.80
30	290.0/320.0	 1242
31	290.0/390.0	 1023
32	290.0/640.0	72.95
33	295.0/330.0	941.1
34	300.0/335.0	834.5
35	305.0/340.0	885.5
36	310.0/345.0	807.6
37	315.0/355.0	782.2
38	315.0/395.0	 1048
39	320.0/360.0	880.0
40	320.0/400.0	 1044
41	325.0/365.0	886.0
42	330.0/375.0	871.5
43	335.0/380.0	920.6
44	340.0/385.0	905.1
45	445.0/525.0	57.50
46	485.0/265.0	2.377
47	505.0/275.0	3.256
48	510.0/280.0	3.864
49	520.0/285.0	3.796
50	530.0/290.0	3.673
51	540.0/295.0	5.509
52	545.0/300.0	5.775
53	550.0/305.0	7.215
54	560.0/310.0	5.911
55	570.0/315.0	7.147
56	575.0/290.0	107.6
57	575.0/320.0	6.005
58	580.0/325.0	5.919

Data points
	220.0	225.0	230.0	235.0	240.0	245.0	250.0	255.0	260.0	265.0	270.0	275.0	280.0	285.0	290.0	295.0	300.0	305.0	310.0	315.0	320.0	325.0	330.0	335.0	340.0	345.0	350.0	355.0	360.0	365.0	370.0	375.0	380.0	385.0	390.0	395.0	400.0	405.0	410.0	415.0	420.0	425.0	430.0	435.0	440.0	445.0	450.0	455.0	460.0	465.0	470.0	475.0	480.0	485.0	490.0	495.0	500.0	505.0	510.0	515.0	520.0	525.0	530.0	535.0	540.0	545.0	550.0	555.0	560.0	565.0	570.0	575.0	580.0	585.0	590.0	595.0	600.0
230.0	22.23	 1183	 6630	 2851	152.2	8.566	8.774	5.389	5.283	6.710	5.271	3.964	4.302	5.219	3.799	3.639	3.296	2.872	2.949	2.668	2.479	2.348	2.688	2.182	2.136	1.627	1.698	1.600	1.553	1.711	1.600	1.493	1.469	1.241	1.251	1.305	1.137	0.999	1.035	0.685	0.901	0.766	0.889	0.660	0.578	0.545	2.090	7.594	12.26	8.853	3.331	0.713	0.329	0.363	0.251	0.212	0.271	0.230	0.243	0.182	0.239	0.109	0.082	0.158	0.213	0.086	0.039	0.115	0.030	0.022	0.037	0.019	0.011	0.014	0.006	0.013	0.014
235.0	49.94	292.9	 2989	 7326	 3454	227.9	12.59	5.231	7.716	8.269	6.498	4.765	4.995	5.329	3.820	3.815	3.316	2.909	3.095	2.710	2.154	3.097	2.141	2.432	2.091	1.464	1.884	1.590	1.480	1.775	1.515	1.625	1.559	1.381	1.088	1.166	1.263	1.107	0.933	0.738	0.721	0.876	0.896	0.942	1.005	0.482	0.967	2.314	4.793	8.557	11.99	11.53	5.571	1.236	0.376	0.339	0.322	0.277	0.337	0.239	0.212	0.225	0.077	0.204	0.043	0.250	0.176	0.137	0.083	0.058	0.044	-0.022	0.059	-0.028	-0.022	-0.010	-0.088
240.0	58.80	130.0	748.0	 4432	 7774	998.3	114.5	8.598	11.82	11.19	11.26	4.435	7.100	4.863	4.822	3.467	3.356	3.579	4.346	2.712	2.025	2.700	2.320	2.162	2.255	1.988	1.882	2.095	1.613	1.870	1.725	1.662	1.554	1.446	1.379	1.306	1.024	1.102	0.878	1.132	0.775	0.604	0.785	0.678	1.213	0.890	0.737	1.173	1.539	2.619	6.869	15.66	18.26	11.87	3.304	0.725	0.246	0.279	0.243	0.326	0.185	0.110	0.166	0.066	0.116	0.197	0.269	0.163	0.097	0.115	-0.002	-0.039	0.049	0.080	-0.032	0.069	0.022
245.0	34.84	122.3	229.0	 1166	 5550	 7694	835.9	54.45	10.60	12.78	9.476	5.843	7.511	6.577	4.627	3.501	3.794	3.545	3.268	3.187	2.414	2.653	2.594	2.220	2.169	2.663	1.414	2.367	1.889	2.201	1.585	1.724	1.475	1.254	1.359	1.495	1.079	1.140	0.845	1.028	0.604	0.738	0.738	0.788	1.028	0.786	1.284	1.197	0.883	1.050	1.981	5.579	13.52	21.95	21.26	11.14	2.467	0.446	0.191	0.332	0.244	0.225	0.060	0.149	0.152	0.281	0.145	0.161	0.100	0.099	0.040	0.068	0.151	0.073	0.087	0.016	0.091
250.0	19.13	64.63	176.2	368.5	 1474	 5137	9999.9	 3200	250.2	18.96	12.80	7.920	9.085	5.994	5.680	4.577	4.208	4.215	3.386	2.899	2.950	3.116	2.298	2.780	2.653	2.385	1.817	1.900	1.872	2.226	1.760	1.662	1.596	1.161	1.421	1.221	1.134	0.991	0.976	0.892	0.800	0.795	0.876	0.690	0.761	0.589	0.787	1.061	1.143	1.022	0.957	1.661	3.566	7.792	14.55	22.20	26.65	22.65	11.20	2.821	0.453	0.242	0.242	0.126	0.151	0.182	0.090	0.221	0.103	0.160	0.050	0.231	0.087	0.000	0.181	-0.081	0.070
255.0	20.15	30.67	87.13	296.9	465.0	 1200	 4343	9999.9	 4968	331.8	20.49	12.17	14.29	9.010	7.141	6.030	4.941	4.701	3.876	3.238	2.931	2.895	1.955	2.925	2.648	2.878	2.190	2.469	2.001	2.114	1.874	1.622	1.609	1.676	1.486	1.128	1.093	1.022	0.867	0.953	0.712	0.704	0.555	0.711	0.653	0.716	0.511	0.850	0.667	0.887	1.403	1.415	1.197	1.900	3.633	5.604	11.20	28.12	45.25	39.73	17.36	2.555	0.410	0.182	0.186	0.132	0.256	0.103	0.004	0.257	0.083	0.170	0.053	-0.010	0.009	0.076	0.117
260.0	23.82	36.63	45.88	185.3	386.0	369.2	 1079	 6255	9999.9	 4324	240.4	18.26	15.10	10.38	8.257	6.967	5.562	4.842	4.353	2.996	3.166	3.395	3.414	3.146	2.698	2.775	1.915	2.335	2.414	1.891	1.943	1.700	1.651	1.650	1.193	1.286	0.960	1.175	0.728	0.869	0.789	0.766	0.880	0.819	0.864	0.760	0.882	0.702	0.551	0.770	1.023	1.700	2.072	1.218	1.265	1.533	2.888	7.965	22.95	47.61	53.27	37.58	10.97	1.166	0.199	0.221	0.315	0.275	0.112	0.104	0.052	0.289	0.147	0.060	-0.008	0.066	0.000
265.0	23.80	28.35	38.92	74.11	300.2	370.0	304.6	 1713	9999.9	9999.9	 3575	89.60	21.71	12.91	9.779	8.417	7.820	6.200	5.331	4.142	4.152	3.656	3.669	3.010	2.952	2.635	2.747	2.343	2.822	1.997	2.081	1.718	1.638	1.583	1.161	1.208	1.110	1.406	0.838	1.004	1.006	0.805	0.832	0.718	0.987	0.802	0.600	0.687	0.558	0.585	0.551	1.095	1.756	2.377	1.511	0.917	1.184	2.113	5.790	16.06	38.36	71.79	51.94	29.98	5.172	0.486	0.302	0.197	0.075	0.211	0.061	0.177	0.149	0.043	0.037	0.092	-0.020
270.0	28.82	36.21	40.54	38.82	110.4	320.2	411.2	486.2	 2672	 9072	9999.9	 9449	196.7	23.49	15.02	9.852	7.970	7.395	5.819	5.407	3.903	3.725	3.994	3.358	3.336	2.719	2.931	2.604	2.696	2.467	2.326	2.224	1.816	1.868	1.456	1.404	1.324	1.155	1.039	0.869	1.018	0.737	0.722	0.767	0.801	0.666	0.613	0.739	0.765	0.663	0.542	0.761	0.786	1.200	1.829	2.017	1.844	1.477	1.796	3.917	9.600	22.81	39.22	62.64	63.02	62.07	20.79	5.429	0.498	0.217	0.273	0.197	0.141	0.106	0.210	0.020	0.200
275.0	35.79	55.04	53.55	35.21	46.45	115.2	401.1	575.1	686.5	 2112	 5023	9999.9	9999.9	240.5	23.55	15.30	11.54	8.227	7.001	6.788	4.754	4.385	3.514	3.470	3.502	3.370	3.337	2.750	2.835	2.825	2.448	2.200	1.918	2.320	1.781	1.222	1.224	1.424	1.186	1.252	0.920	1.000	0.876	1.022	0.878	0.804	0.739	0.729	0.674	0.648	0.627	0.703	0.614	0.666	0.818	1.322	2.706	3.256	2.135	1.595	2.592	5.536	9.142	15.18	25.87	67.97	116.6	53.25	28.86	4.368	0.497	0.299	0.270	0.437	0.179	0.178	0.097
280.0	57.65	73.62	59.83	42.33	36.82	56.68	176.0	642.1	524.8	555.3	 1282	 6621	9999.9	9999.9	149.1	21.65	14.42	10.63	8.189	7.669	5.084	5.325	4.319	4.261	4.273	3.914	3.918	3.157	2.901	2.898	2.622	2.377	2.212	1.965	1.748	1.612	1.446	1.114	1.124	1.028	0.897	1.086	0.990	1.039	0.998	1.000	0.934	0.732	0.876	0.769	0.672	0.609	0.552	0.495	0.507	0.628	1.427	2.067	3.864	2.834	1.752	1.765	2.573	4.053	6.391	18.68	51.96	98.44	140.7	49.32	18.53	1.034	0.616	0.400	0.156	0.217	0.231
285.0	104.5	78.39	87.61	57.39	41.53	51.11	78.84	350.5	825.6	380.1	397.5	 1753	9999.9	9999.9	 2114	85.70	20.55	12.94	10.42	9.102	6.015	6.244	4.625	5.180	3.927	3.537	3.582	3.489	3.352	3.098	2.700	2.437	2.321	2.326	1.843	1.621	1.423	1.190	1.127	1.015	0.990	1.014	0.884	0.856	0.935	0.959	0.911	0.944	0.913	0.866	0.658	0.613	0.498	0.547	0.544	0.759	0.890	1.364	2.161	3.537	3.796	2.443	1.225	1.449	2.133	4.727	12.75	30.02	81.26	136.9	149.1	40.08	8.012	0.615	0.215	0.364	0.272
290.0	121.7	120.1	133.1	92.15	67.97	70.38	76.48	158.6	503.7	727.1	428.6	608.3	 2699	 9483	9999.9	 8110	118.5	22.77	14.71	11.56	8.167	6.998	6.052	5.248	4.142	4.150	3.882	3.934	3.008	3.060	2.807	2.641	2.437	2.363	2.167	1.812	1.790	1.515	1.477	1.319	1.187	1.228	1.026	1.050	1.055	1.111	1.073	1.162	1.148	0.953	0.880	0.996	0.631	0.689	0.685	0.734	0.686	0.830	1.101	1.585	2.529	3.537	3.673	2.728	1.883	1.978	3.816	7.700	19.76	40.19	80.18	107.6	94.16	99.99	25.06	7.733	0.760
295.0	125.5	158.3	178.5	142.7	98.26	100.3	106.9	142.1	254.9	525.4	 1121	548.0	925.3	 2380	 4294	9999.9	9999.9	151.5	22.43	17.16	11.55	7.744	7.815	6.344	4.807	5.428	4.392	3.840	3.429	3.673	2.915	2.666	2.779	2.449	2.382	1.975	1.720	1.711	1.539	1.562	1.315	1.369	0.895	1.193	1.553	1.114	1.346	1.430	1.290	1.165	0.962	0.942	0.880	0.807	0.741	0.804	0.945	1.146	0.984	1.110	1.604	1.863	2.995	5.127	5.509	3.094	2.519	3.358	5.884	10.31	18.78	25.43	33.51	94.63	171.5	163.3	38.87
300.0	174.9	192.0	214.4	178.6	129.4	120.6	123.3	155.6	226.5	364.1	959.3	 1202	660.2	842.1	 1205	 5858	9999.9	 9317	109.3	22.59	14.28	12.04	8.574	7.307	5.717	4.778	4.738	4.147	3.794	3.981	3.396	2.928	2.844	2.491	2.233	1.961	2.205	1.889	1.758	1.431	1.426	1.395	1.241	1.414	1.547	1.515	1.364	1.389	1.249	1.170	1.028	1.079	0.932	0.980	0.925	0.788	0.941	1.300	1.163	1.133	1.442	1.691	1.931	2.716	5.096	5.775	4.522	2.830	3.425	3.909	5.312	6.849	8.680	24.08	66.10	156.0	210.7
305.0	182.0	223.1	270.1	192.7	150.3	137.8	157.4	183.2	233.4	351.1	639.4	 1353	 1038	585.5	540.0	 1544	 9139	9999.9	 6611	74.00	20.41	13.91	10.70	8.565	7.302	5.372	4.906	4.584	4.243	4.069	3.512	3.288	2.956	2.448	2.442	2.015	2.078	1.855	1.795	1.753	1.376	1.581	1.322	1.532	1.383	1.840	1.744	1.399	1.506	1.431	1.075	1.050	1.081	1.307	0.861	1.024	1.050	1.211	1.365	1.334	1.490	1.444	1.884	2.099	3.026	4.550	7.215	5.853	3.289	2.787	2.782	3.301	3.336	6.396	15.87	41.66	104.9
310.0	217.9	239.5	289.0	228.4	182.6	157.1	178.9	218.9	290.1	384.9	555.5	896.9	 1337	997.2	480.6	552.2	 2281	 8511	9999.9	9999.9	89.67	22.38	14.75	11.32	9.103	6.646	6.130	5.029	4.666	4.325	3.904	3.686	3.487	2.908	2.739	2.636	2.088	2.010	1.767	1.760	1.660	1.685	1.514	1.533	1.674	1.809	1.825	1.675	1.737	1.452	1.357	1.121	1.177	1.206	1.088	1.075	1.177	1.313	1.478	1.401	1.515	1.733	1.944	2.116	2.700	3.197	4.363	5.489	5.911	5.294	3.878	2.665	2.239	2.832	4.787	10.49	24.84
315.0	293.3	257.2	327.5	263.4	202.0	182.6	206.8	253.5	321.1	415.5	559.4	743.1	945.0	 1338	850.2	388.3	666.1	 2010	 3926	9999.9	 8484	116.5	22.28	15.09	9.877	7.848	7.490	5.862	5.277	4.656	4.040	3.717	3.413	3.385	2.732	2.645	2.438	2.267	1.656	2.042	1.715	1.522	1.705	1.701	1.745	1.822	1.510	1.671	1.585	1.612	1.308	1.117	1.423	1.228	1.055	1.477	1.223	1.615	1.563	1.457	1.517	1.705	2.090	2.221	2.554	3.082	3.500	3.560	4.512	5.229	7.147	5.275	2.883	2.342	2.161	3.614	6.436
320.0	268.7	293.9	354.6	285.8	216.8	198.8	226.4	274.1	343.8	454.2	591.3	738.2	817.1	 1025	 1242	541.8	338.6	574.5	989.6	 5823	9999.9	 7311	87.19	21.67	14.52	10.02	8.260	7.042	5.672	6.090	4.445	4.285	3.947	3.131	2.636	2.502	2.356	2.431	2.312	2.095	2.004	2.013	1.548	1.816	1.883	1.677	1.896	1.844	1.908	1.521	1.417	1.392	1.132	1.390	1.346	1.349	1.658	1.558	1.936	1.830	2.016	1.912	2.240	2.787	2.816	2.623	3.286	3.173	3.632	4.191	5.290	6.005	5.161	3.377	2.113	2.283	2.524
325.0	249.5	324.1	384.9	330.6	252.1	216.3	240.5	299.8	364.0	490.3	611.8	745.8	815.6	824.1	 1128	924.1	348.9	285.0	334.3	 1449	 9674	9999.9	 5566	61.72	20.74	12.81	9.956	8.228	6.454	6.878	5.688	5.038	4.055	3.141	3.073	2.617	2.774	2.490	2.170	1.922	2.083	2.001	1.715	1.631	1.891	1.530	2.135	2.163	1.923	1.698	1.434	1.465	1.377	1.216	1.333	1.401	1.811	1.774	1.739	1.967	1.938	2.064	2.288	2.909	2.811	3.086	3.051	3.354	3.553	3.297	4.268	4.510	5.919	5.652	4.043	2.551	1.972
330.0	245.8	343.6	442.7	397.7	301.9	256.9	274.1	334.7	413.0	520.0	648.3	766.6	855.5	817.8	845.6	941.1	735.8	342.2	235.1	445.3	 2362	 8704	9999.9	9999.9	353.6	21.21	14.19	10.64	8.315	7.338	6.109	5.356	4.437	3.663	3.276	2.796	2.710	2.365	2.313	2.049	2.032	2.191	2.020	1.949	2.019	1.947	2.296	2.379	2.049	1.816	1.911	1.954	1.304	1.404	1.454	1.682	1.638	1.674	1.838	2.094	2.023	2.354	2.511	2.763	3.037	3.219	3.474	3.193	3.433	3.742	3.800	3.841	3.784	4.512	5.188	5.101	4.233
335.0	239.2	359.8	470.3	445.4	345.9	320.4	325.1	355.3	447.9	565.5	688.0	815.4	882.8	857.9	795.1	717.8	834.5	707.4	306.1	274.8	655.0	 2049	 4281	9999.9	9999.9	95.27	21.62	14.80	10.29	9.073	7.200	6.470	5.922	4.606	3.776	3.000	2.489	2.327	2.182	2.214	2.180	2.256	2.145	1.942	1.841	2.277	2.238	2.616	2.431	2.226	1.940	2.126	1.825	1.576	1.745	1.688	1.647	1.822	1.928	2.283	2.040	2.489	2.601	2.831	3.205	3.732	3.615	3.385	4.101	4.151	3.903	3.983	3.809	3.886	3.800	3.977	4.935
340.0	253.0	342.1	468.0	476.4	411.5	372.4	362.0	396.8	486.2	568.7	697.6	823.0	885.9	867.6	806.8	686.8	675.1	885.5	528.8	291.2	325.1	596.9	 1086	 6785	9999.9	 6069	75.72	21.24	13.12	10.66	8.428	6.697	6.235	4.498	4.767	3.983	2.889	2.442	2.396	2.101	2.055	2.260	2.331	2.122	2.021	2.431	2.215	2.825	2.399	2.297	2.031	2.056	2.025	1.926	1.797	1.709	2.003	2.340	2.427	2.366	2.228	2.394	3.017	2.944	3.227	3.523	3.909	3.637	4.357	4.303	3.987	3.441	3.799	3.597	3.565	3.514	3.644
345.0	256.9	367.3	490.1	494.4	449.3	412.4	400.8	439.8	506.5	595.1	724.1	826.9	916.2	879.0	847.0	724.0	620.8	753.5	807.6	411.7	302.7	311.8	386.1	 1707	9999.9	9999.9	 4875	56.34	18.61	14.61	10.39	8.555	6.194	5.267	4.913	3.948	3.472	3.376	2.799	2.493	2.343	2.336	2.251	2.048	1.930	2.310	2.522	2.446	2.802	2.273	2.198	2.423	2.234	1.971	1.756	2.019	2.069	2.585	2.396	2.083	2.171	2.533	2.928	3.095	3.446	3.476	3.717	4.091	4.124	3.927	4.208	3.976	3.827	3.723	3.701	3.429	3.539
350.0	259.5	362.9	494.3	505.0	483.6	471.5	471.8	489.9	568.8	640.8	731.0	840.1	911.6	922.8	877.1	771.9	668.8	659.3	770.3	744.6	450.5	337.3	292.1	538.5	 2509	9999.9	9999.9	9999.9	314.1	21.44	14.18	10.96	8.003	5.807	5.397	4.134	3.681	3.255	2.964	2.536	2.571	2.643	2.365	2.194	2.138	2.486	2.563	2.753	2.783	2.279	2.303	2.654	2.112	2.360	1.843	2.259	2.294	2.258	2.361	2.199	2.708	2.885	3.183	3.162	3.524	3.482	3.652	3.744	3.942	3.829	4.131	4.108	4.050	3.859	3.718	3.648	4.015
355.0	244.3	369.3	495.6	515.8	561.6	543.5	534.9	554.0	615.0	691.4	769.4	864.1	926.4	928.6	914.9	828.8	737.4	701.8	699.1	782.2	775.2	477.0	352.3	347.8	732.7	 2357	 5092	9999.9	9999.9	86.84	23.02	15.20	10.23	7.849	7.158	4.537	4.243	3.733	3.258	2.771	2.673	2.388	2.291	2.570	2.621	2.792	2.385	2.748	2.704	2.532	2.561	2.648	2.519	2.521	2.428	2.524	2.544	2.328	2.796	2.878	2.719	3.142	2.981	3.324	3.358	3.838	3.707	3.711	3.835	4.120	4.087	4.298	4.670	4.213	4.344	4.005	4.825
360.0	239.9	354.3	489.3	563.8	571.0	597.7	596.7	606.1	668.0	710.5	801.4	874.0	947.4	939.8	917.0	859.9	789.5	755.4	721.5	723.1	880.0	695.5	436.9	355.5	379.2	689.5	 1291	 8084	9999.9	 5481	69.55	19.31	13.95	9.185	7.301	5.529	4.355	3.413	3.507	2.986	2.592	2.849	2.190	2.228	2.500	2.661	2.388	2.753	2.805	2.587	2.606	2.864	2.739	2.467	2.854	2.620	2.805	2.845	2.941	2.840	2.820	3.365	3.377	3.290	3.145	3.730	3.935	3.710	4.022	4.424	4.125	4.609	4.228	4.886	4.420	4.319	4.330
365.0	250.4	355.6	491.8	592.4	600.9	613.5	611.2	642.0	689.5	749.9	821.2	882.5	951.8	952.6	947.7	886.8	840.7	809.5	774.5	752.9	819.7	886.0	586.5	423.9	350.6	363.0	438.3	 2052	9999.9	9999.9	 4414	49.81	18.04	11.24	7.949	6.882	4.941	4.089	3.756	3.095	3.041	2.726	2.492	2.693	2.592	2.588	2.619	2.905	2.648	2.612	2.519	2.903	2.624	2.862	2.812	2.995	3.167	3.306	2.952	3.281	2.900	3.460	2.914	3.518	3.411	3.780	3.789	4.121	3.953	4.277	4.267	4.417	4.354	4.458	4.561	5.015	4.330
370.0	266.3	366.7	504.1	593.4	672.6	673.3	697.1	709.4	752.6	798.7	855.5	910.6	957.8	968.5	966.7	927.9	904.0	869.1	856.5	819.2	814.7	865.4	844.0	598.7	428.4	356.1	306.2	613.8	 2607	9999.9	9999.9	9999.9	261.7	17.63	12.09	8.306	6.100	5.327	4.347	3.762	3.246	2.852	2.718	2.720	2.635	2.895	2.787	3.040	2.717	2.755	2.699	3.026	2.845	3.055	2.966	3.022	3.415	3.595	3.064	3.436	3.264	3.501	3.573	3.809	3.641	3.656	4.035	4.329	4.173	4.418	4.540	4.802	4.678	4.339	4.880	5.104	4.796
375.0	280.6	356.8	532.6	624.4	704.7	717.9	758.6	771.7	804.2	855.6	910.5	957.9	985.0	982.2	976.7	960.0	946.7	923.7	922.4	898.6	880.7	845.7	871.5	857.6	579.3	436.3	348.4	347.9	735.6	 2349	 6215	9999.9	9999.9	70.12	19.15	12.16	8.173	6.787	5.111	4.345	3.403	3.326	3.173	2.801	2.706	2.687	3.292	2.808	2.611	2.922	3.127	3.229	2.921	3.388	3.449	3.394	3.692	3.679	3.674	3.792	3.240	3.460	3.650	3.578	3.974	4.058	3.905	3.905	4.699	4.560	4.232	4.489	5.225	4.471	4.882	5.011	5.338
380.0	265.8	378.8	517.0	625.5	727.5	758.0	799.0	789.7	818.8	888.6	927.3	966.2	 1004	984.2	999.5	974.8	963.9	973.1	964.9	951.3	925.4	885.8	854.0	920.6	769.1	520.0	406.7	330.7	350.1	660.8	 1556	 9940	9999.9	 4483	54.02	16.99	11.16	9.094	5.488	4.547	4.227	3.433	3.657	2.960	2.954	3.318	3.016	3.176	3.119	2.997	2.750	3.568	3.428	3.625	3.524	3.606	3.867	3.863	3.949	3.633	3.830	3.780	3.439	3.766	3.614	4.505	3.705	4.245	4.496	4.793	4.474	4.598	4.945	4.935	4.759	5.007	5.860
385.0	277.4	385.8	543.8	623.7	742.2	777.3	837.9	852.5	874.2	892.9	941.4	977.5	985.4	 1003	 1009	987.2	984.7	993.0	 1003	997.8	964.2	930.0	870.2	871.9	905.1	647.3	472.7	374.4	300.8	315.0	466.6	 2539	9999.9	9999.9	 3447	38.44	14.26	9.756	6.648	5.335	4.340	3.700	3.742	3.313	3.461	3.251	3.321	2.902	3.338	2.911	2.716	3.106	3.462	3.584	3.751	3.309	3.931	3.588	3.377	4.012	3.658	3.959	4.026	4.060	4.235	4.030	4.372	4.647	4.199	4.292	4.627	4.851	4.749	4.886	5.364	5.109	5.299
390.0	299.3	388.6	551.4	661.2	770.8	814.6	866.0	889.2	903.0	913.7	951.9	997.8	998.9	 1016	 1023	991.6	 1003	 1014	 1020	 1016	 1003	980.3	919.2	863.1	871.8	828.0	615.9	459.4	360.0	291.7	267.3	683.2	 2707	9999.9	9999.9	9999.9	44.79	14.56	9.497	7.280	5.656	4.265	4.190	3.808	3.531	3.306	3.248	3.376	3.463	3.180	2.908	3.625	3.508	3.690	3.436	3.642	3.875	3.798	3.669	3.633	3.832	3.955	4.209	3.967	4.352	4.043	4.367	4.325	4.523	4.482	4.830	5.044	4.426	4.823	4.865	4.986	5.545
395.0	307.8	401.6	540.2	653.9	806.5	815.8	883.8	910.6	930.7	946.0	991.8	 1002	 1010	 1017	 1014	 1003	998.7	 1027	 1036	 1048	 1037	 1011	964.7	909.9	841.8	836.1	803.8	590.0	437.9	340.8	271.3	309.8	713.6	 2327	 6271	9999.9	9999.9	57.81	14.83	9.342	6.880	5.629	4.462	3.934	3.716	3.412	3.544	3.519	3.376	3.259	2.993	3.397	3.727	3.623	3.819	3.904	4.590	4.027	4.037	3.765	4.065	3.946	4.308	3.843	4.599	4.424	4.086	3.834	4.119	4.491	4.649	5.361	4.787	4.910	4.995	5.759	5.411
400.0	314.5	400.9	547.9	662.5	792.1	849.4	888.6	935.8	947.0	974.4	991.6	 1004	 1018	 1014	 1014	 1004	985.5	 1024	 1028	 1041	 1044	 1023	977.9	933.4	856.2	823.5	836.1	726.1	502.1	396.7	313.2	254.9	290.0	612.5	 1552	 9382	9999.9	 3628	43.24	12.00	8.442	6.860	5.428	4.406	4.110	3.711	3.701	3.560	3.392	3.179	3.137	3.700	3.867	3.777	3.759	3.950	4.206	4.236	4.443	4.313	4.174	3.921	4.443	4.364	4.584	4.628	3.684	4.180	4.284	4.830	4.284	4.923	4.676	4.909	5.203	5.167	5.604
405.0	297.8	392.8	548.3	655.8	795.1	854.4	895.8	938.3	986.9	992.2	 1006	 1031	 1001	 1021	995.1	999.5	997.7	 1011	 1025	 1034	 1035	 1021	985.2	944.5	885.2	821.3	794.0	805.9	602.5	451.0	353.7	271.9	219.8	246.2	429.2	 2423	9999.9	9999.9	 2718	30.12	10.25	7.702	6.436	4.706	4.536	3.607	3.615	3.235	3.588	3.283	3.358	3.625	3.782	3.771	4.126	3.825	3.921	4.116	4.392	4.002	4.100	4.359	4.334	4.464	4.265	4.083	3.761	4.661	4.329	4.607	4.114	4.679	4.769	4.807	5.057	5.288	5.798
410.0	307.1	380.7	541.0	667.7	790.8	843.1	887.3	953.4	980.5	995.6	 1022	 1015	 1001	 1000	998.0	978.9	971.7	990.2	 1009	 1011	 1020	 1008	979.0	947.4	897.7	845.4	786.8	767.5	723.3	558.6	408.6	314.0	239.8	192.9	196.8	616.1	 2636	 9863	9999.9	 6836	37.17	11.05	8.022	6.133	4.897	4.136	3.774	3.693	3.594	3.274	3.272	3.725	4.043	3.628	3.801	3.853	4.097	4.327	4.038	3.969	4.431	4.196	4.087	4.395	4.327	4.240	4.349	4.259	4.236	4.596	4.722	4.432	4.403	4.573	4.928	5.434	5.766
