Sample:	'1
File name:	G2025070712ÈýÁúÅÅ¹µ.FD3
Run date:	'11:04:37, 07/08/2025
Operator:	Administrator
Comment:	'

Instrument
Model:	F-2700 FL Spectrophotometer
Serial number:	23B8-004
ROM Version:	4J14000 07

Instrument parameters
Measurement type:	3-D scan
Data mode:	Fluorescence
EX  Start WL:	220.0 nm
EX  End WL:	600.0 nm
EX Sampling interval:	5.0 nm
EM  Start WL:	230.0 nm
EM  End WL:	650.0 nm
EM Sampling interval:	5.0 nm
Scan speed:	12000 nm/min
EX Slit:	5.0 nm
EM Slit:	5.0 nm
PMT Voltage:	700 V
Response:	Auto 
Corrected spectra:	Off
Contour interval:	50.000

Peak integration
Integration method:	Rectangular
Sensitivity:	1
Threshold:	1.000

Peaks
No.	ApexEX/EM(nm)	Height(Data)
1	225.0/620.0	19.80
2	230.0/300.0	141.7
3	230.0/505.0	118.9
4	230.0/590.0	21.44
5	235.0/260.0	292.4
6	235.0/350.0	729.8
7	235.0/515.0	134.5
8	240.0/265.0	395.3
9	240.0/525.0	138.6
10	245.0/270.0	412.1
11	245.0/540.0	131.4
12	245.0/630.0	12.13
13	250.0/275.0	536.7
14	250.0/550.0	115.6
15	255.0/285.0	598.2
16	255.0/565.0	110.7
17	260.0/290.0	562.7
18	260.0/575.0	100.5
19	265.0/295.0	687.2
20	265.0/585.0	83.90
21	270.0/300.0	852.4
22	270.0/600.0	75.88
23	275.0/305.0	781.6
24	275.0/340.0	494.3
25	275.0/610.0	60.24
26	280.0/625.0	54.70
27	285.0/320.0	706.4
28	285.0/640.0	39.59
29	290.0/325.0	649.5
30	300.0/335.0	475.7
31	305.0/345.0	407.1
32	310.0/350.0	316.7
33	315.0/355.0	292.8
34	320.0/360.0	271.8
35	325.0/370.0	227.8
36	330.0/375.0	217.0
37	335.0/380.0	220.3
38	340.0/385.0	188.9
39	350.0/400.0	161.6
40	355.0/405.0	141.3
41	365.0/420.0	117.9
42	370.0/425.0	106.3
43	380.0/440.0	79.29
44	385.0/445.0	69.54
45	395.0/460.0	48.82
46	400.0/465.0	41.64
47	410.0/480.0	27.76
48	415.0/485.0	24.48
49	425.0/500.0	17.88
50	430.0/505.0	15.57
51	440.0/520.0	11.49
52	445.0/525.0	9.536
53	450.0/535.0	7.709
54	455.0/540.0	6.798
55	470.0/560.0	3.453
56	475.0/350.0	2.836
57	485.0/265.0	2.252
58	495.0/270.0	2.296
59	505.0/275.0	3.378
60	510.0/280.0	4.069
61	515.0/285.0	3.983
62	530.0/290.0	3.594
63	540.0/295.0	4.851
64	545.0/300.0	5.353
65	550.0/305.0	5.115
66	560.0/310.0	4.372
67	570.0/315.0	4.835
68	580.0/320.0	4.372
69	585.0/325.0	4.484

Data points
	220.0	225.0	230.0	235.0	240.0	245.0	250.0	255.0	260.0	265.0	270.0	275.0	280.0	285.0	290.0	295.0	300.0	305.0	310.0	315.0	320.0	325.0	330.0	335.0	340.0	345.0	350.0	355.0	360.0	365.0	370.0	375.0	380.0	385.0	390.0	395.0	400.0	405.0	410.0	415.0	420.0	425.0	430.0	435.0	440.0	445.0	450.0	455.0	460.0	465.0	470.0	475.0	480.0	485.0	490.0	495.0	500.0	505.0	510.0	515.0	520.0	525.0	530.0	535.0	540.0	545.0	550.0	555.0	560.0	565.0	570.0	575.0	580.0	585.0	590.0	595.0	600.0
230.0	31.21	357.4	916.0	283.5	16.09	6.003	4.589	3.425	3.477	2.985	2.556	2.718	2.110	1.855	1.443	1.393	1.155	1.091	1.011	0.847	0.787	0.772	0.712	0.622	0.594	0.618	0.563	0.498	0.536	0.565	0.510	0.474	0.461	0.437	0.432	0.364	0.391	0.386	0.381	0.360	0.344	0.401	0.398	0.328	0.320	0.322	0.639	2.034	3.276	2.358	1.005	0.389	0.252	0.269	0.255	0.271	0.249	0.278	0.270	0.266	0.287	0.273	0.293	0.280	0.266	0.309	0.280	0.308	0.285	0.289	0.252	0.294	0.266	0.284	0.302	0.306	0.316
235.0	34.49	105.7	715.4	1349	396.8	25.05	5.387	4.630	4.064	3.246	3.212	3.043	2.083	1.802	1.552	1.644	1.244	1.146	0.982	0.977	0.830	0.853	0.760	0.689	0.579	0.628	0.566	0.550	0.466	0.477	0.533	0.439	0.508	0.514	0.381	0.374	0.384	0.462	0.394	0.412	0.369	0.365	0.409	0.337	0.341	0.326	0.356	0.737	1.504	3.130	4.893	5.220	2.284	0.734	0.309	0.250	0.282	0.313	0.271	0.263	0.243	0.271	0.283	0.322	0.297	0.291	0.337	0.258	0.283	0.276	0.281	0.300	0.235	0.287	0.331	0.284	0.353
240.0	58.90	54.72	253.3	1420	1835	316.9	13.09	4.585	3.577	4.573	4.061	3.068	2.348	1.708	1.412	1.320	1.146	1.113	1.019	0.920	0.819	0.831	0.673	0.707	0.688	0.613	0.611	0.538	0.497	0.563	0.680	0.467	0.451	0.436	0.416	0.366	0.425	0.485	0.428	0.361	0.364	0.350	0.345	0.363	0.376	0.363	0.420	0.472	0.542	1.097	3.232	8.485	9.624	6.165	2.178	0.473	0.287	0.318	0.266	0.258	0.293	0.252	0.313	0.284	0.401	0.270	0.312	0.294	0.288	0.303	0.253	0.291	0.265	0.288	0.319	0.330	0.335
245.0	57.23	82.40	90.34	559.7	2371	1936	221.8	8.254	4.617	4.115	3.619	3.124	2.338	1.883	1.789	1.544	1.576	1.090	0.967	0.884	0.806	0.714	0.812	0.660	0.742	0.579	0.590	0.526	0.553	0.599	0.625	0.517	0.494	0.409	0.384	0.349	0.493	0.479	0.421	0.400	0.380	0.377	0.370	0.374	0.341	0.512	0.506	0.462	0.359	0.470	0.966	3.235	7.875	13.18	11.97	5.863	1.451	0.345	0.263	0.281	0.284	0.350	0.289	0.281	0.324	0.289	0.305	0.261	0.293	0.281	0.295	0.300	0.284	0.285	0.310	0.303	0.338
250.0	37.34	81.08	157.5	191.3	861.5	2377	2376	714.0	32.49	5.106	3.781	3.812	2.616	2.549	1.880	1.470	1.638	1.233	1.027	0.992	0.754	0.878	0.800	0.806	0.662	0.656	0.598	0.518	0.576	0.583	0.529	0.519	0.442	0.396	0.402	0.414	0.429	0.357	0.378	0.403	0.343	0.354	0.362	0.369	0.346	0.433	0.422	0.595	0.747	0.681	0.594	1.014	2.164	4.696	8.583	12.63	15.03	11.91	5.819	1.425	0.385	0.317	0.272	0.294	0.314	0.294	0.305	0.306	0.305	0.321	0.299	0.292	0.294	0.286	0.295	0.333	0.317
255.0	31.29	35.59	152.8	270.8	262.3	656.8	2537	3807	274.2	25.77	5.868	4.645	3.421	2.802	2.285	1.710	1.418	1.230	1.289	1.243	0.807	0.868	0.764	0.649	0.624	0.652	0.578	0.638	0.512	0.628	0.515	0.570	0.498	0.355	0.429	0.391	0.385	0.466	0.438	0.429	0.383	0.423	0.386	0.392	0.368	0.389	0.273	0.388	0.536	0.830	1.217	1.188	1.073	1.407	2.258	3.331	6.740	15.63	23.72	19.39	8.260	1.458	0.380	0.321	0.309	0.278	0.302	0.333	0.295	0.341	0.297	0.274	0.325	0.293	0.301	0.315	0.359
260.0	30.84	24.19	70.74	292.4	277.5	189.8	868.5	3830	2218	216.7	13.70	5.225	3.830	2.994	2.472	2.034	1.678	1.372	1.259	1.225	0.941	0.791	0.811	0.858	0.714	0.574	0.709	0.642	0.529	0.631	0.613	0.534	0.510	0.479	0.491	0.417	0.457	0.380	0.399	0.374	0.353	0.462	0.416	0.416	0.385	0.396	0.369	0.341	0.369	0.452	0.949	1.684	1.733	1.072	0.885	1.004	1.921	4.661	12.32	23.10	27.94	18.48	5.639	0.789	0.311	0.289	0.298	0.312	0.348	0.350	0.294	0.246	0.281	0.298	0.346	0.318	0.347
265.0	28.68	24.13	28.56	163.5	395.3	203.7	233.1	1476	4632	1887	158.6	7.737	5.085	3.757	2.782	2.422	1.708	1.355	1.253	1.272	1.057	0.966	0.968	0.853	0.741	0.626	0.668	0.642	0.629	0.631	0.558	0.518	0.482	0.458	0.507	0.430	0.466	0.391	0.352	0.346	0.419	0.416	0.417	0.373	0.345	0.338	0.324	0.336	0.319	0.291	0.490	1.028	2.073	2.252	1.474	0.707	0.788	1.352	3.237	7.672	18.34	31.59	28.49	14.84	3.017	0.460	0.393	0.356	0.335	0.374	0.325	0.263	0.326	0.332	0.329	0.276	0.292
270.0	29.73	23.07	22.94	58.23	231.5	412.1	248.0	380.5	1691	4020	3769	634.5	25.41	5.117	3.717	2.751	1.989	1.693	1.325	1.279	1.220	0.995	0.890	0.793	0.771	0.696	0.689	0.698	0.692	0.693	0.589	0.543	0.573	0.449	0.506	0.435	0.500	0.440	0.387	0.362	0.398	0.368	0.461	0.390	0.371	0.344	0.303	0.353	0.312	0.303	0.363	0.527	0.876	1.453	2.191	2.296	1.836	1.090	1.094	2.082	4.669	9.935	16.84	25.23	27.85	20.22	11.13	2.849	0.475	0.344	0.392	0.308	0.336	0.327	0.320	0.334	0.333
275.0	35.93	38.87	34.57	35.28	76.17	233.8	536.7	284.1	420.2	1085	3980	6022	803.1	17.99	5.195	3.139	2.440	1.839	1.453	1.679	1.197	1.066	0.921	1.011	0.743	0.744	0.731	0.695	0.739	0.651	0.711	0.544	0.557	0.551	0.525	0.457	0.479	0.475	0.467	0.346	0.404	0.402	0.433	0.417	0.430	0.401	0.399	0.408	0.326	0.356	0.304	0.397	0.517	0.594	0.896	1.552	2.863	3.378	2.120	1.132	1.436	2.582	4.183	6.273	9.796	20.57	37.85	29.83	16.02	2.679	0.498	0.336	0.285	0.352	0.397	0.355	0.310
280.0	44.06	50.83	53.90	41.86	44.46	98.04	409.2	546.0	204.7	299.3	1260	5743	5131	131.7	10.22	4.374	2.974	2.516	1.707	1.692	1.313	1.050	1.182	0.821	0.837	0.943	0.734	0.635	0.743	0.636	0.645	0.624	0.604	0.538	0.540	0.488	0.498	0.518	0.448	0.418	0.445	0.381	0.393	0.362	0.430	0.444	0.429	0.440	0.482	0.401	0.385	0.394	0.418	0.447	0.491	0.756	1.495	2.657	4.069	3.006	1.331	1.063	1.419	1.874	2.622	5.658	15.08	30.79	42.50	27.05	9.783	1.079	0.395	0.357	0.341	0.311	0.358
285.0	50.09	70.60	71.20	55.06	47.22	56.55	180.4	598.2	310.2	153.2	357.1	1988	6497	3689	90.92	5.887	3.971	2.847	1.845	1.662	1.478	1.442	1.042	1.000	0.808	0.958	0.812	0.741	0.715	0.640	0.710	0.629	0.659	0.623	0.623	0.545	0.540	0.578	0.471	0.443	0.416	0.398	0.387	0.383	0.443	0.512	0.505	0.501	0.485	0.450	0.409	0.490	0.374	0.453	0.410	0.625	0.737	1.164	2.476	3.983	3.770	1.829	1.007	1.011	1.148	1.924	4.041	8.810	20.39	37.11	34.78	21.32	4.948	0.564	0.428	0.332	0.280
290.0	61.19	87.88	99.58	79.18	60.20	56.18	91.98	265.7	562.7	438.7	208.4	543.9	2123	4711	3253	371.9	15.18	3.936	2.705	2.164	1.761	1.432	1.200	1.118	0.960	1.046	0.882	0.753	0.725	0.816	0.826	0.604	0.637	0.686	0.657	0.561	0.548	0.520	0.509	0.513	0.455	0.427	0.401	0.414	0.443	0.537	0.476	0.533	0.635	0.522	0.485	0.559	0.460	0.511	0.493	0.574	0.599	0.771	1.131	1.770	2.774	3.553	3.594	2.417	1.363	1.225	1.577	2.667	5.332	10.38	16.93	26.32	28.86	27.22	14.02	4.352	0.668
295.0	75.13	98.39	124.1	107.4	75.09	72.02	82.25	130.3	270.1	687.2	516.2	261.0	570.0	1218	3389	4869	478.9	10.30	3.752	2.566	2.148	1.825	1.385	1.335	1.059	1.081	0.980	0.719	0.942	0.754	0.880	0.732	0.684	0.666	0.729	0.573	0.574	0.523	0.554	0.519	0.412	0.477	0.424	0.454	0.454	0.542	0.474	0.583	0.734	0.599	0.562	0.631	0.658	0.553	0.556	0.555	0.665	0.772	0.819	0.923	1.205	1.643	2.642	4.286	4.851	2.746	1.400	1.362	2.038	3.059	4.368	6.517	8.402	17.37	34.01	34.66	20.59
300.0	73.11	107.1	141.7	122.2	91.24	83.53	95.40	115.1	173.8	431.5	852.4	386.0	255.2	356.3	1027	4561	3939	77.93	6.183	3.417	2.372	1.973	1.457	1.464	1.091	1.181	1.021	0.862	0.893	0.833	0.902	0.713	0.639	0.673	0.631	0.648	0.636	0.573	0.490	0.447	0.445	0.476	0.432	0.462	0.405	0.511	0.551	0.596	0.694	0.692	0.630	0.702	0.723	0.643	0.677	0.613	0.749	0.747	0.834	0.891	0.901	1.144	1.554	2.362	4.076	5.353	3.604	1.771	1.393	1.455	1.698	2.191	2.556	4.717	11.06	24.76	40.80
305.0	70.88	120.6	135.9	130.6	106.5	101.1	120.8	141.5	179.8	288.6	689.8	781.6	282.5	194.1	311.0	1531	4977	2866	57.44	4.477	2.944	2.172	1.754	1.537	1.356	1.126	1.137	1.044	0.793	0.707	0.869	0.783	0.688	0.732	0.601	0.685	0.639	0.504	0.507	0.436	0.472	0.439	0.456	0.428	0.406	0.457	0.522	0.589	0.681	0.703	0.627	0.781	0.727	0.716	0.712	0.717	0.780	0.811	0.991	0.981	1.033	1.199	1.209	1.548	2.451	3.836	5.115	4.615	2.373	1.512	1.165	1.376	1.405	1.951	3.152	6.670	15.94
310.0	78.02	113.0	146.8	141.1	120.7	122.7	142.3	174.5	218.2	284.7	433.8	731.3	680.1	286.7	189.6	430.2	1600	3514	2417	267.9	11.74	3.020	2.061	1.629	1.464	1.270	1.179	0.949	0.867	0.844	0.754	0.779	0.739	0.710	0.624	0.616	0.582	0.603	0.540	0.458	0.502	0.471	0.471	0.436	0.456	0.433	0.564	0.614	0.627	0.722	0.726	0.814	0.787	0.756	0.744	0.765	0.907	0.955	1.088	1.095	1.271	1.353	1.483	1.698	2.024	2.287	3.008	3.966	4.372	4.057	2.624	1.738	1.330	1.482	1.693	2.283	4.378
315.0	75.32	124.2	155.7	153.0	136.9	135.6	164.3	200.5	244.0	310.9	374.5	464.4	669.1	635.5	237.2	203.8	438.1	901.4	2447	3785	371.4	8.328	2.820	2.096	1.568	1.414	1.267	1.084	1.065	0.880	0.761	0.710	0.798	0.797	0.574	0.691	0.559	0.572	0.502	0.459	0.496	0.517	0.424	0.450	0.470	0.480	0.593	0.630	0.652	0.692	0.596	0.770	0.800	0.831	0.786	0.886	0.977	1.017	1.229	1.195	1.258	1.418	1.661	1.784	1.894	2.129	2.272	2.513	2.798	3.799	4.835	4.338	2.503	1.584	1.518	1.414	1.969
320.0	79.18	134.7	178.5	175.5	157.5	149.2	175.9	215.6	265.2	328.7	380.5	418.6	482.6	706.4	453.8	184.5	196.1	271.8	717.2	3308	3101	60.74	5.215	2.546	2.217	1.628	1.521	1.158	1.123	0.811	0.866	0.834	0.759	0.861	0.700	0.704	0.625	0.498	0.532	0.436	0.506	0.499	0.532	0.469	0.482	0.500	0.543	0.731	0.737	0.830	0.793	0.879	0.838	0.872	0.852	0.846	1.020	1.203	1.287	1.263	1.307	1.529	1.707	1.793	2.055	2.218	2.197	2.353	2.356	2.598	3.332	4.344	4.372	3.061	1.894	1.427	1.458
325.0	103.3	186.7	264.0	258.7	198.2	171.5	190.6	231.2	283.5	352.1	407.0	438.5	436.1	532.7	649.5	293.5	161.6	143.9	211.9	1056	3579	2324	47.24	3.824	2.434	1.923	1.576	1.361	0.992	0.957	0.958	0.887	0.859	0.731	0.651	0.749	0.658	0.609	0.552	0.508	0.441	0.527	0.522	0.474	0.553	0.635	0.651	0.928	0.930	1.035	0.956	1.156	1.056	0.903	0.981	0.913	1.115	1.260	1.266	1.251	1.453	1.701	1.623	1.926	2.168	2.229	2.352	2.256	2.413	2.520	2.503	2.937	3.923	4.484	3.724	2.117	1.509
330.0	135.1	247.0	422.5	459.9	315.1	219.4	211.9	252.4	306.1	374.2	434.9	477.0	469.3	449.9	512.7	509.3	275.9	141.5	118.3	285.1	1107	2564	2439	226.2	11.25	2.696	2.067	1.575	1.132	1.070	0.934	0.958	0.882	0.755	0.765	0.701	0.676	0.619	0.657	0.507	0.446	0.542	0.539	0.515	0.658	0.717	0.807	1.229	1.402	1.530	1.694	1.865	1.474	1.236	1.119	1.145	1.170	1.332	1.358	1.390	1.637	1.808	1.833	1.988	2.344	2.360	2.386	2.464	2.681	2.672	2.727	2.722	2.755	3.218	3.706	4.062	3.340
335.0	141.7	302.9	530.9	593.7	432.2	270.1	230.6	268.5	318.3	386.9	451.8	492.7	488.5	444.5	394.6	418.0	475.7	226.9	113.3	125.9	292.6	644.3	1920	3068	343.6	9.046	2.590	1.846	1.533	1.225	1.206	0.960	0.906	0.880	0.779	0.744	0.658	0.635	0.553	0.545	0.477	0.513	0.578	0.601	0.723	0.699	0.902	1.208	1.618	1.801	2.082	2.314	2.170	1.613	1.446	1.247	1.368	1.388	1.530	1.414	1.711	1.739	2.203	2.371	2.155	2.356	2.627	2.674	2.707	2.744	2.776	2.540	2.573	2.556	2.497	2.854	3.372
340.0	141.0	315.0	579.6	667.8	488.6	310.2	259.4	281.6	326.3	391.7	455.3	494.3	482.3	445.7	375.6	333.7	423.3	374.8	141.7	97.56	118.6	187.2	545.1	2500	2662	53.48	4.539	2.179	1.749	1.392	1.402	0.994	0.975	0.969	0.771	0.753	0.717	0.721	0.579	0.626	0.508	0.544	0.543	0.620	0.607	0.812	0.975	1.240	1.738	1.810	2.331	2.807	2.422	1.951	1.640	1.292	1.487	1.602	1.463	1.598	1.769	1.805	2.096	2.239	2.168	2.224	2.496	2.793	2.848	2.738	2.586	2.595	2.665	2.361	2.336	2.201	2.465
345.0	144.7	320.3	603.6	707.4	530.9	342.5	281.8	286.5	333.6	390.0	439.7	488.4	479.6	436.0	374.1	305.2	307.0	407.1	246.0	106.1	87.77	92.30	158.7	765.1	2784	2070	44.99	3.135	2.079	1.578	1.400	1.074	1.057	0.954	0.724	0.772	0.684	0.651	0.582	0.562	0.520	0.530	0.518	0.506	0.645	0.786	0.906	1.396	1.795	2.034	2.508	2.819	2.482	1.985	1.750	1.488	1.363	1.400	1.513	1.620	1.663	1.841	2.268	2.108	2.172	2.506	2.312	2.554	2.470	2.745	2.576	2.734	2.493	2.307	2.338	1.975	2.037
350.0	141.2	291.4	574.6	729.8	559.3	377.6	302.2	298.3	335.0	384.4	429.2	455.4	452.5	418.7	363.6	294.2	252.7	273.1	316.7	209.3	101.4	81.08	80.06	201.4	824.0	1963	1988	209.4	12.14	2.162	1.593	1.245	0.997	0.961	0.823	0.732	0.762	0.659	0.549	0.540	0.470	0.509	0.488	0.520	0.576	0.689	0.920	1.348	1.653	2.044	2.450	2.836	2.531	2.179	1.769	1.605	1.566	1.471	1.692	1.631	1.750	1.965	1.962	2.174	2.165	2.352	2.353	2.393	2.412	2.514	2.491	2.453	2.400	2.309	2.277	1.960	2.072
355.0	123.3	274.9	511.6	680.4	557.1	404.9	331.2	325.8	348.5	381.2	411.8	426.7	420.5	389.7	340.5	283.9	235.9	208.8	217.8	292.8	186.8	92.27	71.54	83.97	209.9	472.5	1322	2433	335.5	10.92	2.126	1.455	1.122	1.099	0.914	0.829	0.731	0.644	0.509	0.550	0.417	0.533	0.509	0.520	0.528	0.679	0.839	1.149	1.615	1.806	2.200	2.835	2.527	2.128	2.013	1.783	1.776	1.515	1.611	1.688	1.912	1.920	2.052	2.212	2.072	2.166	2.269	2.322	2.347	2.405	2.373	2.319	2.319	2.154	2.158	2.059	2.055
360.0	115.0	257.2	470.7	626.3	539.0	417.1	344.7	337.7	355.4	389.1	401.9	408.4	393.5	371.2	323.5	275.0	229.5	197.4	179.4	232.1	271.8	136.0	76.29	62.88	78.25	128.1	353.3	1754	2280	265.4	5.119	1.897	1.411	1.390	0.882	0.832	0.701	0.683	0.665	0.536	0.461	0.512	0.499	0.546	0.520	0.649	0.845	0.986	1.429	1.591	1.964	2.695	2.398	2.160	1.835	1.708	1.884	1.625	1.597	1.780	1.704	2.030	2.029	2.177	2.042	2.149	2.086	2.157	2.267	2.323	2.350	2.101	2.138	2.187	2.067	2.114	1.812
365.0	110.4	232.6	439.8	587.3	534.8	413.7	349.9	340.2	355.5	381.6	391.1	388.8	369.9	353.1	311.4	268.0	225.5	194.4	171.1	172.6	255.1	221.8	98.48	65.00	55.26	55.96	98.76	502.0	2074	1958	45.82	3.213	1.736	1.273	0.895	0.861	0.836	0.663	0.652	0.591	0.514	0.522	0.472	0.569	0.466	0.640	0.765	1.027	1.364	1.500	1.907	2.440	2.424	2.198	1.907	1.815	1.972	1.713	1.722	1.841	1.861	1.861	2.062	2.405	2.125	1.974	2.111	1.919	2.049	2.242	1.972	2.034	2.084	2.258	1.928	2.052	2.088
370.0	101.7	201.8	386.3	525.5	508.0	412.1	359.1	340.8	346.9	364.4	372.6	364.4	348.9	325.4	287.4	253.7	221.4	193.4	170.1	156.4	178.4	227.8	186.9	90.69	58.89	47.54	47.98	130.2	584.6	1595	1764	195.9	12.22	1.722	1.236	0.958	0.911	0.759	0.709	0.555	0.524	0.518	0.559	0.454	0.466	0.614	0.701	0.891	1.283	1.438	1.731	2.268	2.174	2.094	1.892	1.881	1.891	1.786	1.745	1.839	1.819	1.795	1.901	2.096	2.072	1.952	2.005	1.958	2.042	2.039	1.878	1.940	1.988	2.026	1.877	1.858	1.894
375.0	92.65	176.0	342.8	466.3	467.6	406.2	353.7	338.1	337.9	356.1	358.8	346.1	324.6	297.9	271.4	236.8	215.2	192.5	172.5	156.9	149.2	160.6	217.0	174.2	81.81	56.28	45.72	55.32	148.7	378.2	1040	2053	308.0	12.10	1.759	1.099	0.950	0.748	0.748	0.708	0.544	0.463	0.573	0.422	0.506	0.655	0.801	0.926	1.208	1.315	1.494	1.958	1.938	2.105	1.832	1.798	1.835	1.821	1.759	1.851	1.734	1.801	1.919	2.065	1.968	1.899	1.916	1.916	2.078	2.068	1.853	2.055	1.788	1.881	1.753	1.838	1.763
380.0	83.12	159.2	303.8	424.2	449.7	391.7	349.7	330.0	330.5	346.3	338.1	338.7	312.4	282.7	253.4	228.1	206.9	188.9	173.6	159.5	144.6	139.8	170.7	220.3	129.5	69.48	53.32	45.44	56.75	101.4	272.2	1377	1861	234.3	4.703	1.362	1.068	0.873	0.779	0.608	0.586	0.510	0.554	0.388	0.553	0.560	0.626	0.846	1.106	1.115	1.420	1.813	1.844	1.973	1.785	1.801	1.832	1.769	1.781	1.895	1.817	1.808	1.834	1.861	2.044	1.895	1.874	2.079	1.757	2.007	1.894	1.784	1.850	1.708	1.594	1.708	1.700
385.0	86.54	145.7	275.1	393.5	418.1	392.1	349.6	323.5	322.2	334.0	323.3	315.6	297.1	267.2	245.9	218.1	197.8	183.4	169.7	157.2	145.9	134.4	137.6	188.2	188.9	94.66	60.14	46.66	41.32	42.35	75.40	382.8	1565	1521	37.92	2.231	1.198	0.942	0.797	0.527	0.636	0.515	0.537	0.437	0.545	0.608	0.629	0.819	1.036	1.107	1.220	1.922	1.948	1.874	1.846	1.747	1.907	1.774	1.864	1.762	1.747	1.745	1.756	1.690	1.926	1.782	1.807	1.804	1.727	1.919	1.573	1.695	1.734	1.817	1.602	1.535	1.663
390.0	68.95	134.2	246.6	355.0	390.8	374.8	337.6	312.4	302.3	309.5	296.6	288.6	276.4	249.2	226.4	205.7	188.0	175.0	164.6	155.0	144.6	133.5	126.9	136.4	170.2	155.7	84.10	52.84	41.03	33.94	35.15	98.16	426.8	1143	1281	156.9	10.45	1.369	0.926	0.700	0.704	0.560	0.511	0.507	0.524	0.575	0.636	0.786	0.921	1.030	1.200	1.668	1.674	1.786	1.737	1.653	1.780	1.713	1.699	1.643	1.803	1.825	1.729	1.715	1.791	1.706	1.751	1.696	1.583	1.693	1.554	1.537	1.759	1.587	1.536	1.523	1.647
395.0	69.35	121.6	222.3	311.2	351.7	338.0	321.8	298.3	290.2	287.8	279.5	270.1	254.2	232.3	209.4	193.4	177.6	167.3	158.2	151.7	142.2	134.6	125.3	120.8	122.6	154.3	143.4	70.80	47.30	36.55	29.94	37.74	106.6	269.1	723.3	1461	255.1	10.28	1.375	0.983	0.743	0.629	0.531	0.489	0.491	0.576	0.589	0.844	0.828	0.988	1.227	1.556	1.643	1.746	1.683	1.523	1.747	1.705	1.652	1.519	1.640	1.661	1.580	1.666	1.689	1.594	1.552	1.477	1.528	1.548	1.385	1.502	1.391	1.516	1.494	1.478	1.466
400.0	70.18	118.9	202.7	300.2	330.3	337.8	305.3	288.5	276.8	272.7	269.6	256.3	243.7	221.1	199.8	183.5	169.0	161.0	151.7	145.6	140.6	133.7	124.7	115.6	109.7	122.7	161.6	107.7	56.00	41.65	31.56	27.53	37.69	69.72	186.0	945.0	1336	195.3	3.847	1.180	0.813	0.659	0.720	0.498	0.603	0.561	0.586	0.733	0.703	0.973	1.106	1.430	1.541	1.630	1.568	1.593	1.752	1.539	1.542	1.599	1.573	1.586	1.453	1.486	1.485	1.412	1.486	1.391	1.410	1.497	1.333	1.457	1.382	1.448	1.458	1.474	1.399
405.0	58.78	114.4	194.1	280.3	313.6	322.0	299.0	274.8	267.9	268.7	256.2	247.0	232.9	210.1	189.1	174.3	162.6	154.6	148.8	140.6	137.5	130.8	124.8	114.5	108.1	104.4	131.9	141.3	78.28	46.99	35.43	27.62	23.62	26.46	49.68	258.8	1085	1105	33.38	1.962	0.955	0.800	0.669	0.544	0.622	0.545	0.609	0.607	0.760	0.875	1.061	1.304	1.366	1.509	1.466	1.466	1.684	1.471	1.492	1.667	1.561	1.492	1.519	1.532	1.622	1.332	1.392	1.391	1.399	1.519	1.360	1.425	1.319	1.460	1.374	1.340	1.496
410.0	63.25	101.3	181.6	260.3	291.6	297.1	291.0	268.2	254.1	249.9	243.1	230.1	215.3	197.6	176.7	163.0	152.5	145.9	139.9	134.2	131.4	124.9	119.8	112.7	105.0	96.49	99.82	122.8	120.4	68.49	41.67	31.37	23.70	20.06	21.10	65.49	293.4	817.8	936.3	144.0	8.997	1.036	0.786	0.629	0.614	0.578	0.547	0.571	0.712	0.817	0.970	1.408	1.271	1.425	1.456	1.438	1.503	1.504	1.480	1.509	1.407	1.420	1.562	1.509	1.319	1.355	1.408	1.374	1.344	1.422	1.271	1.261	1.248	1.254	1.267	1.287	1.341
