Sample:	'1
File name:	t2025070202ºêË³ÇåË®³Ø.FD3
Run date:	'09:16:52, 07/03/2025
Operator:	Administrator
Comment:	'

Instrument
Model:	F-2700 FL Spectrophotometer
Serial number:	23B8-004
ROM Version:	4J14000 07

Instrument parameters
Measurement type:	3-D scan
Data mode:	Fluorescence
EX  Start WL:	220.0 nm
EX  End WL:	600.0 nm
EX Sampling interval:	5.0 nm
EM  Start WL:	230.0 nm
EM  End WL:	650.0 nm
EM Sampling interval:	5.0 nm
Scan speed:	12000 nm/min
EX Slit:	5.0 nm
EM Slit:	5.0 nm
PMT Voltage:	700 V
Response:	Auto 
Corrected spectra:	Off
Contour interval:	50.000

Peak integration
Integration method:	Rectangular
Sensitivity:	1
Threshold:	1.000

Peaks
No.	ApexEX/EM(nm)	Height(Data)
1	225.0/585.0	35.63
2	225.0/600.0	27.76
3	225.0/615.0	29.13
4	230.0/250.0	250.4
5	230.0/350.0	1017
6	230.0/500.0	307.8
7	230.0/605.0	27.37
8	235.0/260.0	347.1
9	235.0/370.0	1085
10	235.0/515.0	266.3
11	240.0/265.0	453.9
12	240.0/380.0	1083
13	240.0/525.0	230.9
14	245.0/270.0	495.7
15	245.0/540.0	206.8
16	250.0/275.0	658.3
17	250.0/550.0	169.8
18	255.0/285.0	671.3
19	255.0/565.0	137.9
20	260.0/290.0	592.8
21	260.0/575.0	116.5
22	265.0/295.0	728.7
23	265.0/585.0	97.55
24	270.0/300.0	954.3
25	270.0/600.0	87.20
26	275.0/305.0	950.3
27	275.0/330.0	557.0
28	275.0/610.0	74.89
29	280.0/340.0	557.8
30	280.0/625.0	62.57
31	285.0/320.0	826.6
32	285.0/635.0	46.13
33	290.0/325.0	744.3
34	300.0/335.0	549.5
35	305.0/345.0	482.4
36	310.0/350.0	403.6
37	315.0/355.0	396.4
38	320.0/365.0	389.0
39	325.0/370.0	370.5
40	330.0/375.0	362.9
41	335.0/380.0	356.2
42	345.0/395.0	291.1
43	350.0/400.0	281.9
44	365.0/420.0	211.1
45	395.0/460.0	77.90
46	415.0/485.0	39.15
47	425.0/500.0	26.94
48	440.0/520.0	16.09
49	455.0/540.0	8.594
50	475.0/260.0	1.983
51	480.0/375.0	4.101
52	485.0/265.0	2.355
53	495.0/270.0	2.440
54	495.0/385.0	4.400
55	505.0/275.0	3.746
56	505.0/400.0	4.306
57	510.0/280.0	4.265
58	515.0/285.0	4.261
59	530.0/290.0	3.595
60	540.0/295.0	4.853
61	545.0/300.0	5.234
62	550.0/305.0	5.704
63	560.0/310.0	5.086
64	570.0/315.0	5.117
65	575.0/320.0	5.091
66	585.0/325.0	5.216

Data points
	220.0	225.0	230.0	235.0	240.0	245.0	250.0	255.0	260.0	265.0	270.0	275.0	280.0	285.0	290.0	295.0	300.0	305.0	310.0	315.0	320.0	325.0	330.0	335.0	340.0	345.0	350.0	355.0	360.0	365.0	370.0	375.0	380.0	385.0	390.0	395.0	400.0	405.0	410.0	415.0	420.0	425.0	430.0	435.0	440.0	445.0	450.0	455.0	460.0	465.0	470.0	475.0	480.0	485.0	490.0	495.0	500.0	505.0	510.0	515.0	520.0	525.0	530.0	535.0	540.0	545.0	550.0	555.0	560.0	565.0	570.0	575.0	580.0	585.0	590.0	595.0	600.0
230.0	35.38	557.0	1181	310.0	10.59	2.207	1.853	1.404	1.419	1.204	1.156	1.135	0.984	0.655	0.757	0.637	0.486	0.378	0.358	0.300	0.306	0.232	0.284	0.276	0.270	0.247	0.250	0.180	0.180	0.159	0.164	0.148	0.188	0.149	0.165	0.140	0.136	0.139	0.111	0.117	0.190	0.288	0.334	0.201	0.127	0.134	0.675	2.764	4.070	2.685	0.925	0.193	0.106	0.091	0.077	0.082	0.106	0.064	0.079	0.068	0.075	0.080	0.067	0.097	0.084	0.065	0.073	0.054	0.040	0.055	0.067	0.063	0.065	0.063	0.067	0.081	0.074
235.0	105.0	169.1	814.7	1149	312.5	12.46	2.623	1.915	1.148	1.272	1.158	1.230	1.003	0.859	0.485	0.589	0.453	0.364	0.368	0.302	0.291	0.272	0.247	0.317	0.172	0.220	0.214	0.193	0.124	0.171	0.128	0.120	0.177	0.133	0.079	0.109	0.169	0.121	0.115	0.134	0.156	0.196	0.317	0.377	0.323	0.200	0.251	0.787	1.771	3.146	4.118	4.083	1.558	0.340	0.088	0.069	0.086	0.094	0.098	0.073	0.077	0.103	0.073	0.096	0.063	0.092	0.060	0.059	0.075	0.057	0.087	0.086	0.057	0.113	0.104	0.083	0.079
240.0	169.5	115.6	264.4	1104	1156	224.8	7.183	1.821	1.767	1.754	1.404	1.664	1.130	0.901	0.706	0.684	0.642	0.501	0.441	0.346	0.347	0.279	0.261	0.298	0.217	0.270	0.226	0.173	0.156	0.190	0.165	0.160	0.188	0.189	0.088	0.128	0.126	0.139	0.093	0.147	0.139	0.141	0.168	0.321	0.480	0.478	0.284	0.295	0.556	1.106	2.578	5.715	6.036	3.841	1.132	0.130	0.054	0.096	0.093	0.064	0.063	0.057	0.078	0.082	0.078	0.078	0.061	0.096	0.073	0.065	0.069	0.098	0.062	0.077	0.063	0.093	0.064
245.0	134.6	214.4	115.1	416.8	1429	1051	129.3	3.433	2.101	1.640	2.006	1.596	1.138	0.907	0.718	0.680	0.506	0.435	0.493	0.499	0.387	0.401	0.279	0.262	0.250	0.223	0.154	0.204	0.222	0.154	0.124	0.214	0.174	0.160	0.130	0.174	0.112	0.124	0.160	0.123	0.148	0.105	0.116	0.173	0.321	0.492	0.713	0.560	0.275	0.339	0.723	2.149	4.869	7.586	6.812	3.227	0.602	0.126	0.119	0.079	0.066	0.153	0.067	0.076	0.050	0.122	0.059	0.086	0.089	0.075	0.059	0.099	0.071	0.050	0.067	0.082	0.070
250.0	52.18	177.6	250.4	174.5	508.8	1283	1093	187.6	14.46	1.934	2.293	1.579	1.326	0.991	0.804	0.884	0.629	0.541	0.417	0.444	0.352	0.390	0.317	0.285	0.320	0.262	0.230	0.200	0.170	0.165	0.178	0.194	0.151	0.151	0.139	0.193	0.126	0.133	0.175	0.180	0.134	0.096	0.124	0.158	0.160	0.229	0.482	0.830	0.960	0.741	0.480	0.627	1.288	2.662	4.824	6.815	8.225	6.675	3.180	0.714	0.121	0.096	0.092	0.090	0.056	0.087	0.068	0.076	0.085	0.068	0.075	0.072	0.123	0.060	0.074	0.055	0.088
255.0	21.34	53.94	220.3	329.0	192.0	369.7	1318	1927	236.1	12.61	2.713	2.000	1.799	1.267	1.144	0.691	0.655	0.469	0.324	0.444	0.423	0.370	0.432	0.364	0.263	0.231	0.194	0.188	0.240	0.190	0.186	0.210	0.123	0.131	0.141	0.152	0.134	0.159	0.127	0.163	0.159	0.132	0.139	0.138	0.112	0.131	0.212	0.302	0.531	0.936	1.408	1.126	0.659	0.744	1.253	1.821	3.666	8.342	12.69	10.89	4.146	0.653	0.123	0.073	0.103	0.087	0.092	0.081	0.094	0.074	0.112	0.074	0.110	0.078	0.062	0.154	0.098
260.0	16.12	21.52	82.80	347.1	289.9	141.9	478.3	1977	1829	178.1	7.120	2.680	2.443	1.297	1.090	0.930	0.644	0.565	0.372	0.555	0.378	0.442	0.364	0.322	0.293	0.267	0.263	0.267	0.175	0.177	0.180	0.183	0.167	0.162	0.140	0.150	0.148	0.140	0.135	0.176	0.145	0.162	0.138	0.078	0.158	0.133	0.145	0.146	0.245	0.422	0.941	1.983	1.806	0.952	0.606	0.676	1.075	2.496	6.583	12.36	15.01	9.726	2.951	0.314	0.085	0.104	0.086	0.112	0.094	0.064	0.095	0.083	0.095	0.100	0.058	0.113	0.068
265.0	17.12	13.10	31.80	182.5	453.9	236.1	166.4	793.0	2554	1555	118.9	4.058	2.717	1.939	1.210	0.995	0.859	0.606	0.454	0.543	0.362	0.480	0.394	0.351	0.367	0.275	0.228	0.222	0.249	0.163	0.278	0.169	0.228	0.142	0.202	0.154	0.182	0.136	0.155	0.138	0.156	0.183	0.130	0.119	0.133	0.145	0.206	0.151	0.143	0.189	0.378	1.137	2.043	2.355	1.332	0.589	0.644	0.795	1.766	4.135	9.840	15.39	15.58	7.521	1.415	0.173	0.094	0.126	0.133	0.071	0.076	0.056	0.084	0.133	0.072	0.108	0.099
270.0	28.16	14.76	20.42	73.13	283.6	495.7	281.9	250.4	924.7	2220	2170	449.1	13.11	2.868	1.894	1.368	1.110	0.862	0.588	0.536	0.446	0.386	0.491	0.333	0.323	0.329	0.290	0.291	0.296	0.265	0.241	0.186	0.224	0.201	0.225	0.156	0.201	0.207	0.177	0.170	0.176	0.155	0.153	0.146	0.137	0.149	0.161	0.155	0.162	0.129	0.179	0.439	0.866	1.440	2.216	2.440	2.090	1.122	0.860	1.236	2.628	4.927	8.944	13.11	14.65	12.45	5.962	1.344	0.200	0.100	0.095	0.067	0.095	0.119	0.102	0.097	0.101
275.0	66.62	42.72	33.72	49.23	142.0	344.6	658.3	293.4	261.3	618.5	2104	3151	154.5	10.44	2.663	1.694	1.342	1.193	0.875	0.642	0.543	0.428	0.398	0.453	0.357	0.387	0.282	0.355	0.189	0.231	0.251	0.215	0.243	0.275	0.265	0.240	0.315	0.263	0.262	0.212	0.187	0.205	0.242	0.233	0.201	0.234	0.227	0.176	0.166	0.175	0.187	0.345	0.481	0.758	1.164	1.835	3.223	3.746	2.367	0.977	0.910	1.435	2.254	3.337	5.145	11.03	19.49	19.09	7.794	1.173	0.134	0.117	0.127	0.088	0.176	0.118	0.101
280.0	115.4	87.10	60.65	56.87	114.6	208.9	525.0	620.3	190.7	204.2	692.2	2961	2587	113.3	5.545	2.293	1.440	1.408	0.867	0.862	0.593	0.538	0.467	0.433	0.427	0.437	0.298	0.409	0.304	0.216	0.255	0.225	0.293	0.386	0.314	0.302	0.399	0.376	0.305	0.279	0.263	0.238	0.328	0.293	0.326	0.389	0.341	0.371	0.270	0.226	0.275	0.314	0.373	0.618	0.769	1.033	1.713	2.821	4.265	3.224	1.219	0.719	0.855	1.144	1.490	3.044	7.666	16.12	21.91	16.42	5.413	0.528	0.165	0.115	0.153	0.110	0.096
285.0	173.7	152.3	101.0	77.15	103.2	157.2	282.3	671.3	313.1	148.9	243.3	1068	3326	1089	71.29	3.396	1.763	1.525	1.021	0.858	0.769	0.624	0.602	0.495	0.464	0.405	0.330	0.330	0.257	0.286	0.265	0.279	0.367	0.413	0.366	0.418	0.436	0.386	0.378	0.359	0.335	0.352	0.369	0.338	0.446	0.514	0.437	0.489	0.332	0.325	0.284	0.274	0.395	0.481	0.592	0.743	0.975	1.341	2.474	4.261	4.002	1.889	0.788	0.734	0.767	1.208	2.180	4.674	10.52	19.08	21.38	11.90	2.791	0.224	0.153	0.137	0.109
290.0	237.9	217.4	157.9	104.0	104.0	132.7	168.3	321.0	592.8	476.1	208.6	359.2	1123	2188	1819	293.1	8.278	2.157	1.520	1.160	0.979	0.833	0.563	0.547	0.405	0.369	0.374	0.370	0.321	0.286	0.328	0.261	0.359	0.377	0.446	0.516	0.584	0.517	0.474	0.369	0.375	0.469	0.450	0.466	0.592	0.636	0.650	0.662	0.523	0.424	0.404	0.347	0.408	0.515	0.568	0.681	0.786	0.844	1.075	1.841	2.879	3.443	3.595	2.535	1.264	0.980	1.140	1.725	3.033	5.524	9.324	13.80	15.78	14.03	7.853	2.414	0.263
295.0	283.5	271.0	205.4	135.8	111.5	128.3	139.2	177.2	297.9	728.7	604.2	251.0	376.7	611.2	1711	2483	89.81	6.510	2.050	1.249	1.259	1.016	0.761	0.618	0.518	0.428	0.449	0.313	0.331	0.338	0.288	0.317	0.380	0.447	0.374	0.582	0.690	0.515	0.631	0.429	0.504	0.579	0.538	0.556	0.663	0.764	0.716	0.826	0.696	0.644	0.454	0.558	0.426	0.531	0.544	0.652	0.731	0.680	0.724	0.978	1.224	1.522	2.405	4.517	4.853	2.752	1.365	1.161	1.493	1.914	2.575	3.532	4.556	8.746	16.97	19.98	10.60
300.0	289.3	313.5	229.5	165.1	129.5	142.3	155.4	174.6	230.0	489.4	954.3	465.2	241.7	248.4	557.7	2251	1982	70.11	4.277	1.625	1.286	1.185	0.858	0.638	0.673	0.590	0.523	0.295	0.355	0.286	0.237	0.278	0.406	0.400	0.523	0.705	0.693	0.577	0.556	0.527	0.590	0.487	0.545	0.598	0.779	0.816	0.804	0.832	0.790	0.686	0.492	0.649	0.557	0.640	0.514	0.629	0.760	0.874	0.957	0.991	1.058	1.255	1.420	2.566	4.249	5.234	3.750	1.930	1.398	1.469	1.350	1.526	1.636	2.595	5.736	13.04	21.05
305.0	320.2	337.7	275.1	200.0	163.1	173.8	201.5	227.0	282.1	411.2	829.4	950.3	384.2	240.9	238.1	804.0	2461	667.0	46.78	2.738	1.354	1.235	1.193	0.691	0.699	0.447	0.546	0.345	0.342	0.339	0.367	0.319	0.389	0.482	0.448	0.607	0.735	0.643	0.680	0.510	0.494	0.548	0.586	0.639	0.700	0.768	0.886	0.954	0.897	0.828	0.613	0.794	0.635	0.736	0.762	0.783	0.886	1.131	1.198	1.188	1.299	1.501	1.633	2.011	2.702	4.117	5.704	4.861	2.887	2.022	1.414	1.316	1.290	1.369	1.915	3.819	8.249
310.0	342.6	362.7	312.6	236.0	202.0	214.2	241.2	281.2	331.8	417.9	574.0	886.9	826.6	384.2	234.6	305.1	855.7	1553	1308	223.8	6.362	1.494	1.235	0.972	0.774	0.626	0.573	0.415	0.355	0.416	0.393	0.304	0.396	0.445	0.481	0.548	0.644	0.720	0.662	0.559	0.490	0.625	0.628	0.651	0.741	0.845	0.911	1.071	0.946	0.857	0.728	0.875	0.822	0.790	0.905	0.975	1.165	1.223	1.267	1.464	1.650	1.752	1.974	2.088	2.487	2.796	3.431	4.571	5.086	4.610	3.148	1.972	1.524	1.426	1.359	1.734	2.541
315.0	342.4	392.4	346.5	274.7	231.2	236.0	270.6	307.8	358.2	433.0	511.1	622.9	794.2	767.5	322.2	221.2	317.8	448.5	1230	1936	66.00	4.879	1.750	1.199	1.018	0.570	0.638	0.564	0.422	0.502	0.401	0.367	0.382	0.396	0.609	0.516	0.518	0.662	0.618	0.529	0.565	0.568	0.564	0.614	0.709	0.940	1.127	1.155	1.122	0.923	0.953	0.957	1.004	1.016	0.983	1.038	1.277	1.364	1.369	1.756	1.605	1.729	1.886	2.063	2.312	2.703	2.813	3.139	3.120	4.160	5.117	4.394	2.895	1.743	1.416	1.397	1.431
320.0	370.4	463.9	405.9	315.7	258.9	255.0	289.1	329.0	374.6	443.2	503.0	558.0	615.3	826.6	558.6	244.5	219.3	187.7	383.5	1643	1473	54.77	3.142	1.678	1.274	0.731	0.636	0.548	0.476	0.401	0.354	0.313	0.425	0.430	0.504	0.554	0.530	0.538	0.587	0.607	0.545	0.614	0.536	0.733	0.886	1.042	1.241	1.323	1.262	1.073	1.063	1.141	0.989	1.104	1.126	1.192	1.241	1.445	1.298	1.694	1.615	1.908	1.879	2.266	2.367	2.405	2.716	2.803	2.688	3.003	3.676	5.091	4.984	3.599	1.936	1.549	1.478
325.0	438.0	559.4	552.6	413.0	304.2	286.4	295.9	344.6	376.2	443.4	500.1	554.2	552.0	641.8	744.3	366.5	215.2	145.7	141.5	541.4	1684	1114	40.40	2.571	1.456	1.029	0.616	0.788	0.682	0.479	0.525	0.367	0.480	0.404	0.500	0.607	0.551	0.545	0.557	0.516	0.544	0.652	0.653	0.674	0.973	1.195	1.380	1.546	1.723	1.521	1.354	1.434	1.109	1.219	1.193	1.158	1.273	1.542	1.546	1.684	1.671	2.006	2.024	2.250	2.364	2.552	2.631	2.693	2.748	2.860	2.748	3.426	4.089	5.216	4.055	2.337	1.629
330.0	486.1	692.8	756.3	613.3	425.8	329.0	324.7	347.5	382.0	441.0	507.2	557.0	543.3	530.6	587.3	582.9	338.0	165.8	112.6	176.8	540.3	1201	973.1	188.6	6.999	1.438	0.979	0.828	0.799	0.447	0.455	0.447	0.412	0.382	0.498	0.573	0.488	0.526	0.533	0.504	0.559	0.671	0.676	0.802	1.042	1.410	1.620	2.058	2.206	2.059	2.060	1.906	1.660	1.513	1.382	1.313	1.493	1.496	1.706	1.681	1.788	1.932	1.893	2.249	2.337	2.523	2.527	2.726	2.818	2.803	2.660	2.846	2.897	3.467	3.833	3.864	3.279
335.0	513.8	739.7	913.2	802.0	562.7	392.3	350.5	364.5	394.1	439.7	502.7	550.7	555.7	516.3	475.0	489.3	549.5	272.8	134.6	118.7	173.7	324.4	862.5	1467	253.7	5.395	1.242	1.036	0.819	0.637	0.579	0.540	0.538	0.422	0.473	0.503	0.449	0.554	0.569	0.558	0.550	0.635	0.787	0.981	1.169	1.672	2.039	2.385	2.494	2.440	2.411	2.766	2.114	2.087	1.560	1.613	1.639	1.565	1.680	1.594	1.812	1.956	2.054	2.131	2.473	2.515	2.657	2.871	2.955	2.795	2.605	2.853	2.722	2.686	2.733	3.037	3.579
340.0	544.6	791.9	978.5	874.4	639.3	462.2	380.9	386.6	397.4	449.7	500.7	546.2	557.8	519.8	462.6	408.3	504.0	438.3	182.8	122.6	104.1	123.9	270.2	1190	1259	48.72	3.115	1.267	0.927	0.809	0.752	0.475	0.451	0.405	0.471	0.604	0.585	0.551	0.539	0.576	0.585	0.643	0.689	0.870	1.259	1.534	2.052	2.536	2.690	2.525	2.641	2.927	2.496	2.450	1.957	1.714	1.882	1.643	1.776	1.815	1.814	2.062	2.059	2.137	2.506	2.652	2.561	2.607	2.692	2.846	2.616	3.074	2.773	2.553	2.392	2.583	2.482
345.0	541.3	811.4	1016	941.8	712.1	514.8	413.5	403.8	418.8	449.1	500.9	546.3	548.0	523.0	464.9	388.4	389.1	482.4	309.8	148.5	110.5	94.44	107.0	387.7	1310	954.1	38.21	2.145	1.109	0.808	0.832	0.501	0.555	0.477	0.422	0.514	0.564	0.538	0.495	0.564	0.449	0.648	0.754	0.910	1.296	1.739	1.931	2.567	2.837	2.928	2.886	3.166	2.859	2.593	2.088	2.000	1.885	1.852	1.775	1.774	1.842	2.233	2.187	2.192	2.485	2.519	2.534	2.694	2.699	2.826	2.773	2.781	2.651	2.776	2.541	2.586	2.306
350.0	541.3	826.1	1017	1001	807.4	620.7	503.7	455.5	451.6	478.4	509.6	547.2	546.1	527.8	472.1	404.9	359.7	369.5	403.6	280.9	152.7	116.2	93.09	136.3	412.6	917.2	767.7	174.8	7.517	1.240	0.852	0.656	0.602	0.558	0.447	0.466	0.459	0.537	0.510	0.553	0.521	0.540	0.789	0.906	1.237	1.605	1.890	2.335	2.826	2.765	2.914	3.407	3.143	2.866	2.489	2.265	2.194	2.280	2.134	2.066	2.034	2.325	2.265	2.301	2.462	2.608	2.701	2.623	2.638	2.740	2.758	2.806	2.679	2.937	2.476	2.523	2.479
355.0	551.2	806.8	988.5	1037	874.4	730.4	601.2	539.6	516.1	524.0	546.5	562.4	566.6	535.5	493.1	432.7	379.7	337.4	337.6	396.4	271.0	158.4	122.4	105.9	142.4	247.7	606.7	1120	246.2	6.824	1.347	0.842	0.738	0.590	0.559	0.554	0.533	0.537	0.549	0.572	0.575	0.607	0.663	0.863	1.293	1.531	1.978	2.422	2.941	2.847	2.923	3.564	3.273	3.214	2.964	2.628	2.703	2.673	2.452	2.507	2.396	2.668	2.474	2.561	2.642	2.526	2.674	2.859	2.784	2.874	2.732	2.834	2.672	2.945	2.775	2.693	2.605
360.0	546.1	801.2	1016	1064	958.5	796.0	685.9	592.0	566.5	572.2	580.7	590.9	580.1	549.7	500.0	450.7	396.2	353.4	319.7	357.5	385.1	226.7	151.6	117.9	100.9	101.0	188.0	831.9	1055	48.83	3.103	1.113	0.791	0.689	0.627	0.575	0.483	0.449	0.584	0.489	0.511	0.590	0.765	0.832	1.212	1.391	1.846	2.162	2.791	2.818	2.868	3.760	3.435	3.642	3.017	2.883	3.169	2.871	2.647	2.698	2.657	2.764	2.768	2.933	2.820	2.838	2.816	2.815	2.839	2.991	3.095	2.835	2.982	3.075	2.840	3.091	2.989
365.0	546.6	786.2	1019	1068	984.8	865.5	740.9	639.4	614.0	607.4	605.5	606.0	588.7	561.9	515.4	462.8	416.4	374.9	333.9	320.4	389.0	333.9	193.5	139.7	107.6	83.35	82.33	260.8	996.3	856.3	38.80	2.236	0.999	0.759	0.641	0.658	0.559	0.583	0.630	0.538	0.625	0.547	0.837	0.921	1.269	1.400	1.837	2.259	2.650	2.793	2.970	3.855	3.817	3.650	3.408	3.380	3.508	3.326	2.957	2.961	2.827	2.872	2.846	2.888	2.937	2.860	3.002	2.912	3.056	2.819	2.975	2.887	3.045	3.026	3.001	2.894	2.856
370.0	518.6	766.9	982.8	1085	1032	923.9	815.6	715.5	665.3	645.1	638.0	628.4	603.5	577.2	531.6	480.7	441.7	400.0	359.3	330.7	335.3	370.5	309.3	190.0	136.1	101.6	74.65	97.50	304.5	744.1	666.0	166.1	8.575	1.271	0.774	0.665	0.598	0.705	0.591	0.513	0.606	0.612	0.785	0.946	1.219	1.486	1.736	2.215	2.636	2.649	3.002	3.769	4.015	3.947	3.828	3.628	3.688	3.677	3.454	3.176	3.084	3.032	3.085	3.140	3.087	3.105	3.006	2.915	3.107	3.052	3.086	3.191	2.991	3.051	3.084	3.076	2.984
375.0	529.3	754.3	959.2	1065	1077	991.9	872.1	776.5	707.9	674.6	667.4	660.1	624.6	585.5	539.1	493.3	463.6	418.3	386.7	356.9	334.1	324.3	362.9	298.3	179.5	130.3	97.09	80.38	105.7	198.3	477.7	941.4	231.0	6.414	0.995	0.869	0.690	0.701	0.724	0.578	0.599	0.703	0.653	0.979	1.164	1.358	1.649	2.291	2.655	2.638	2.900	3.850	4.101	4.046	3.983	3.701	3.758	3.957	3.799	3.530	3.209	3.281	3.297	3.411	3.222	3.249	3.016	3.092	3.187	3.016	3.202	3.165	3.178	3.261	2.845	3.048	3.025
380.0	549.0	751.8	934.8	1060	1083	1027	932.5	799.7	736.6	696.5	690.8	671.8	626.3	594.2	541.2	497.8	469.3	430.3	398.9	366.5	345.2	319.5	330.0	356.2	243.7	157.1	118.9	88.94	72.47	78.53	148.4	655.5	843.2	41.21	3.100	1.121	0.788	0.619	0.746	0.645	0.581	0.771	0.820	0.924	1.155	1.288	1.683	2.201	2.628	2.554	2.912	3.970	4.051	4.054	4.020	4.049	4.183	3.946	3.875	3.514	3.327	3.559	3.305	3.452	3.350	3.178	3.246	3.167	2.984	3.221	3.173	3.099	3.296	2.981	3.102	3.260	2.869
385.0	534.7	774.2	915.2	1057	1079	1039	957.2	817.0	751.9	708.5	698.5	671.8	637.0	592.5	540.4	494.9	469.0	434.1	403.6	379.7	350.9	331.4	311.0	339.4	316.8	198.5	139.4	105.2	78.47	61.40	65.72	202.8	719.7	662.5	32.51	1.828	1.132	0.817	0.626	0.678	0.655	0.814	0.819	0.923	1.194	1.316	1.613	2.149	2.653	2.576	2.843	3.722	4.038	4.127	4.174	4.400	4.355	3.930	3.797	3.515	3.176	3.361	3.411	3.495	3.170	3.210	3.246	3.380	3.295	3.346	3.266	3.276	3.308	3.040	3.146	3.305	3.230
390.0	535.3	733.0	903.4	1023	1060	1038	948.5	839.2	754.4	711.7	692.3	660.0	627.1	586.6	531.6	491.6	461.4	430.9	406.5	385.8	357.8	337.7	312.9	299.9	316.1	276.0	179.8	127.1	96.00	72.02	56.24	74.82	213.3	526.4	486.5	131.6	7.467	1.185	0.834	0.642	0.644	0.779	0.816	0.979	1.152	1.411	1.763	2.218	2.385	2.495	2.762	3.422	3.726	4.068	3.982	4.000	4.175	4.046	3.953	3.646	3.363	3.469	3.358	3.292	3.080	3.358	3.118	3.085	3.068	3.063	3.083	3.040	3.252	3.034	3.162	3.162	3.084
395.0	532.6	698.0	886.9	987.1	1039	1021	942.8	843.0	751.9	713.9	694.7	649.9	615.1	573.6	515.7	478.4	450.7	426.8	404.2	383.5	361.0	342.8	318.1	296.5	280.6	291.1	254.6	160.3	116.4	88.32	68.03	56.37	73.56	137.9	325.7	655.9	187.5	5.877	1.229	0.772	0.654	0.915	0.819	0.936	1.217	1.428	1.714	2.149	2.343	2.507	2.673	3.438	3.530	4.015	3.999	3.972	3.846	4.211	3.678	3.521	3.426	3.423	3.432	3.136	3.090	3.400	3.110	3.121	3.143	2.976	2.923	2.951	3.239	3.193	3.221	3.133	2.974
400.0	521.3	682.0	853.5	932.0	998.6	996.3	937.6	838.2	752.4	706.2	674.3	638.7	606.3	561.6	505.1	466.9	443.8	416.8	399.3	378.9	357.3	342.8	324.0	300.9	270.7	264.0	281.9	210.6	136.2	104.2	81.53	60.38	47.56	52.74	96.91	437.8	605.6	35.83	2.402	1.092	0.806	0.828	0.732	0.891	1.246	1.362	1.652	2.098	2.293	2.508	2.549	3.181	3.564	3.903	3.821	3.758	3.982	4.306	3.889	3.670	3.465	3.434	3.348	3.184	3.117	3.136	3.040	3.160	3.023	2.915	2.826	2.972	2.851	2.987	3.111	3.027	2.771
405.0	502.5	676.7	847.0	894.2	965.5	986.3	915.9	819.7	753.2	698.1	661.6	628.1	589.9	547.9	497.8	454.5	429.9	410.8	389.7	372.4	354.7	342.6	321.0	299.9	273.4	249.2	262.4	255.0	168.9	119.6	92.78	70.63	50.34	38.93	39.59	131.7	503.0	474.2	28.26	1.632	1.008	0.921	0.917	0.972	1.123	1.328	1.621	1.966	2.150	2.348	2.338	3.095	3.347	3.750	3.568	3.585	3.977	4.039	3.650	3.688	3.375	3.301	3.273	3.273	3.135	3.039	3.122	2.963	2.834	2.893	2.908	2.809	2.673	2.904	2.915	2.559	2.854
410.0	485.7	648.6	798.2	850.8	920.0	934.5	894.6	808.8	739.3	677.5	644.3	606.2	573.8	523.6	473.9	437.1	413.4	389.5	374.4	358.7	342.6	332.5	314.7	298.3	274.4	248.9	233.9	242.3	221.3	151.9	108.7	83.44	59.72	42.84	32.07	45.56	146.5	372.3	370.0	114.3	5.512	1.133	0.961	1.063	1.132	1.362	1.540	1.844	2.077	2.203	2.360	2.978	3.344	3.412	3.431	3.447	3.761	3.771	3.756	3.654	3.361	3.269	3.270	3.095	3.010	2.860	3.049	2.947	2.795	2.899	2.769	2.781	2.802	2.920	2.568	2.694	2.856
