Sample:	'1
File name:	L2025090915Í¬ÐËÂ·ÇÅ.FD3
Run date:	'16:58:37, 09/09/2025
Operator:	Administrator
Comment:	'

Instrument
Model:	F-2700 FL Spectrophotometer
Serial number:	3064-004
ROM Version:	4J14000 07

Instrument parameters
Measurement type:	3-D scan
Data mode:	Fluorescence
EX  Start WL:	220.0 nm
EX  End WL:	600.0 nm
EX Sampling interval:	5.0 nm
EM  Start WL:	230.0 nm
EM  End WL:	650.0 nm
EM Sampling interval:	5.0 nm
Scan speed:	12000 nm/min
EX Slit:	5.0 nm
EM Slit:	5.0 nm
PMT Voltage:	700 V
Response:	Auto 
Corrected spectra:	Off
Contour interval:	50.000

Peak integration
Integration method:	Rectangular
Sensitivity:	1
Threshold:	1.000

Peaks
No.	ApexEX/EM(nm)	Height(Data)
1	225.0/600.0	30.92
2	230.0/340.0	865.7
3	230.0/575.0	42.94
4	230.0/585.0	42.92
5	230.0/605.0	32.32
6	230.0/635.0	29.82
7	235.0/345.0	853.2
8	235.0/625.0	27.00
9	240.0/520.0	274.7
10	245.0/530.0	229.4
11	250.0/545.0	227.5
12	255.0/280.0	647.7
13	255.0/555.0	201.6
14	260.0/285.0	820.8
15	260.0/570.0	163.4
16	265.0/290.0	901.0
17	265.0/420.0	 1041
18	265.0/440.0	 1020
19	265.0/580.0	171.3
20	270.0/295.0	 1282
21	270.0/590.0	154.2
22	275.0/305.0	 1626
23	275.0/605.0	147.8
24	280.0/310.0	 1647
25	280.0/340.0	 1359
26	280.0/615.0	122.2
27	285.0/240.0	6.607
28	285.0/315.0	 1664
29	285.0/630.0	103.2
30	290.0/320.0	 1543
31	290.0/640.0	83.91
32	305.0/340.0	999.8
33	315.0/355.0	768.6
34	320.0/360.0	831.0
35	325.0/365.0	809.8
36	330.0/375.0	742.7
37	335.0/380.0	780.5
38	340.0/385.0	753.0
39	350.0/400.0	688.2
40	355.0/405.0	658.5
41	365.0/420.0	592.7
42	430.0/505.0	83.01
43	445.0/525.0	49.77
44	450.0/530.0	41.30
45	455.0/340.0	3.661
46	460.0/335.0	3.616
47	460.0/545.0	27.55
48	505.0/275.0	2.692
49	510.0/280.0	3.646
50	515.0/285.0	3.838
51	515.0/425.0	4.752
52	530.0/290.0	4.054
53	530.0/440.0	4.564
54	535.0/295.0	5.506
55	545.0/300.0	7.235
56	550.0/305.0	7.170
57	555.0/310.0	6.990
58	570.0/315.0	7.817
59	575.0/290.0	93.49
60	575.0/320.0	7.750
61	580.0/325.0	7.090

Data points
	220.0	225.0	230.0	235.0	240.0	245.0	250.0	255.0	260.0	265.0	270.0	275.0	280.0	285.0	290.0	295.0	300.0	305.0	310.0	315.0	320.0	325.0	330.0	335.0	340.0	345.0	350.0	355.0	360.0	365.0	370.0	375.0	380.0	385.0	390.0	395.0	400.0	405.0	410.0	415.0	420.0	425.0	430.0	435.0	440.0	445.0	450.0	455.0	460.0	465.0	470.0	475.0	480.0	485.0	490.0	495.0	500.0	505.0	510.0	515.0	520.0	525.0	530.0	535.0	540.0	545.0	550.0	555.0	560.0	565.0	570.0	575.0	580.0	585.0	590.0	595.0	600.0
230.0	20.40	792.4	 4858	 3239	150.4	11.19	8.708	6.613	6.097	6.521	4.324	5.343	4.500	4.423	4.379	3.059	3.464	2.638	2.226	2.486	1.946	1.954	1.738	1.645	1.438	1.451	1.469	1.261	1.043	1.179	1.163	1.165	0.812	0.695	0.811	0.776	0.791	0.710	0.657	0.578	0.534	0.790	0.675	0.578	0.452	0.414	1.940	7.781	12.08	8.969	3.409	0.612	0.414	0.394	0.263	0.302	0.291	0.240	0.301	0.243	0.263	0.210	0.181	0.093	0.232	0.177	0.155	0.116	0.140	0.066	0.095	0.066	0.110	0.133	-0.019	0.066	0.184
235.0	49.58	207.6	 2175	 7644	 3754	238.0	10.07	8.165	6.070	5.604	5.383	5.383	5.274	4.447	3.670	2.810	3.912	2.370	2.477	2.519	2.329	2.773	2.293	1.427	1.353	1.536	1.580	1.552	1.080	1.351	0.875	1.182	0.894	0.677	0.795	0.670	0.689	0.794	0.759	0.745	0.576	0.637	0.640	0.887	0.795	0.678	0.970	2.244	5.132	9.353	12.26	12.24	5.136	1.148	0.251	0.246	0.380	0.223	0.153	0.180	0.147	0.228	0.148	0.212	0.232	0.092	0.195	0.127	0.209	-0.080	0.123	0.010	0.075	0.292	0.106	-0.042	0.030
240.0	57.58	106.6	550.5	 4691	 9182	 1027	145.0	12.43	10.20	5.490	5.620	5.000	5.304	6.607	4.237	3.169	2.960	2.558	2.551	2.071	2.665	1.752	1.883	1.543	1.168	1.117	1.534	1.681	1.325	1.465	0.973	1.049	0.988	1.037	0.660	0.583	0.872	0.739	0.926	0.720	0.804	0.518	0.474	0.778	0.756	0.695	0.816	1.028	1.501	2.884	7.272	16.28	19.25	12.15	3.667	0.486	0.369	0.332	0.290	0.090	0.152	0.195	0.270	0.188	0.201	0.107	0.080	0.056	0.208	0.139	0.134	0.056	0.024	0.059	-0.057	0.020	0.150
245.0	38.65	113.3	182.0	 1275	 6712	 7591	870.2	99.00	11.82	10.30	9.503	5.820	5.464	5.264	4.296	5.143	3.612	2.815	2.392	2.843	2.064	2.238	1.826	1.647	1.909	1.279	1.393	1.628	1.319	1.274	1.094	0.971	0.669	0.861	0.731	0.667	0.853	0.529	0.617	0.755	0.792	0.681	0.533	0.897	0.583	0.651	0.996	1.019	0.798	1.078	2.056	5.630	15.09	22.83	20.19	10.85	2.152	0.328	0.188	0.246	0.186	0.364	0.267	0.278	0.248	0.281	0.193	0.055	0.143	0.265	0.235	0.086	0.028	0.064	0.047	-0.024	0.146
250.0	19.86	59.65	159.4	381.1	 1797	 4815	9999.9	 5123	239.1	15.69	10.77	9.774	5.922	7.627	4.925	4.718	4.464	3.085	3.014	2.776	2.258	2.262	1.809	1.690	2.156	1.531	1.658	1.694	1.314	1.464	1.093	1.025	0.853	1.101	0.789	0.641	0.826	0.628	0.709	0.728	0.689	0.527	0.584	0.569	0.523	0.707	0.776	1.034	1.073	0.911	1.048	1.714	3.875	8.228	14.30	21.62	25.71	21.79	10.58	3.045	0.272	0.238	0.178	0.275	0.144	0.245	0.240	0.128	0.095	0.157	0.146	0.196	0.102	0.165	0.073	0.109	0.107
255.0	18.98	29.26	89.05	298.8	538.3	 1123	 5616	9999.9	 4678	311.4	17.79	11.83	7.817	9.176	5.640	6.075	4.480	4.008	3.329	3.181	2.535	2.065	2.704	2.008	1.664	2.011	1.378	1.599	1.345	1.339	1.168	1.136	0.973	1.215	1.064	0.918	0.564	0.657	0.794	0.555	0.833	0.714	0.725	0.649	0.502	0.681	0.647	0.732	0.596	0.794	1.500	1.416	1.375	2.153	3.422	5.579	11.10	26.71	45.36	39.55	15.94	2.506	0.289	0.284	0.095	0.229	0.310	0.271	0.078	0.048	0.119	0.145	0.276	0.015	0.212	0.186	0.205
260.0	13.70	25.91	40.70	172.7	392.1	346.4	 1436	 6217	9999.9	 3907	172.3	17.07	10.43	10.62	7.624	6.767	5.151	4.266	3.692	4.176	2.949	2.314	2.524	2.133	1.836	2.075	1.967	1.428	1.086	1.356	1.303	1.319	0.823	0.905	0.746	0.738	0.749	0.571	0.631	0.824	0.733	0.660	0.840	0.538	0.506	0.511	0.551	0.519	0.366	0.753	1.044	1.854	1.658	1.278	1.189	1.622	2.910	7.948	22.40	45.26	52.23	34.74	9.775	1.008	0.445	0.291	0.123	0.216	0.268	0.199	0.133	0.372	0.066	0.262	0.150	0.009	0.154
265.0	23.54	17.41	30.18	73.46	304.5	357.1	392.5	 1748	 7652	9999.9	 3055	84.59	14.68	14.04	8.357	7.347	5.669	4.907	4.514	3.917	2.957	2.588	2.933	2.356	1.857	1.991	2.157	2.035	1.463	1.565	1.472	1.214	1.203	1.235	1.040	0.843	0.700	0.674	0.505	0.876	0.788	0.646	1.016	0.523	0.692	0.410	0.529	0.543	0.467	0.644	0.603	1.047	1.524	1.791	1.498	0.937	0.953	2.216	5.511	14.98	37.20	66.10	51.17	29.71	5.310	0.614	0.319	0.289	0.465	0.324	0.181	0.109	0.158	0.152	0.062	0.015	0.130
270.0	26.03	22.98	38.59	44.12	115.3	323.6	420.2	491.3	 2027	 6876	9999.9	 8258	184.8	21.02	14.17	9.929	7.804	6.566	5.296	4.213	3.241	2.573	2.670	2.794	2.432	2.164	2.152	1.997	1.800	1.609	1.577	1.309	1.427	1.092	1.089	0.891	0.797	0.841	0.695	0.724	0.766	0.598	0.666	0.735	0.649	0.614	0.552	0.619	0.612	0.539	0.499	0.631	0.731	1.103	1.639	2.050	1.527	1.274	1.584	3.738	9.354	21.22	36.31	59.44	60.51	55.77	19.88	4.966	0.550	0.472	0.244	0.196	0.173	0.109	0.255	0.100	0.322
275.0	51.45	48.57	52.66	53.44	58.80	115.2	420.1	560.7	561.0	 1626	 4642	9999.9	9999.9	224.5	20.50	15.18	11.38	8.077	5.013	5.381	4.724	3.986	2.945	3.272	2.701	2.183	1.978	2.241	1.724	1.759	1.379	1.638	1.210	1.379	1.011	1.012	1.081	0.810	0.633	0.745	0.748	0.532	0.637	0.856	0.928	0.834	0.724	0.761	0.646	0.544	0.503	0.719	0.771	0.605	0.702	1.228	2.528	2.692	2.264	1.571	2.605	5.141	8.660	14.85	25.28	62.00	105.6	52.46	27.74	3.513	0.164	0.369	0.175	0.404	0.401	0.236	0.153
280.0	80.14	99.42	101.1	75.31	55.74	62.76	197.6	647.7	497.3	480.4	 1226	 6366	9999.9	 2645	137.5	19.56	13.68	9.006	5.666	5.762	4.924	4.922	2.899	3.371	3.041	2.665	2.205	2.271	2.138	1.932	1.479	1.478	1.564	1.327	1.136	1.011	1.190	0.919	0.672	1.038	1.084	0.913	0.714	0.945	1.040	1.086	0.896	0.824	0.821	0.794	0.711	0.490	0.658	0.535	0.843	0.687	1.569	2.346	3.646	2.976	1.482	1.770	2.501	3.848	6.462	17.50	46.96	88.59	127.0	48.04	16.35	1.143	0.297	0.525	0.300	0.174	0.297
285.0	111.6	136.4	135.8	108.1	72.63	69.38	111.5	375.0	820.8	400.4	453.9	 1771	 9199	9999.9	 2025	75.56	15.65	11.10	7.197	6.502	5.717	5.111	3.652	4.005	2.975	3.072	2.793	2.139	2.057	2.246	1.833	1.815	1.381	1.371	1.064	1.047	1.272	1.115	1.119	0.963	1.103	1.192	1.224	1.088	1.302	1.029	1.164	1.053	1.084	0.935	0.722	0.617	0.801	0.562	0.637	0.676	0.830	1.182	2.355	3.838	3.557	2.384	1.535	1.894	2.248	5.037	11.59	26.88	72.81	122.9	124.6	36.96	6.082	0.525	0.438	0.382	0.287
290.0	155.7	199.8	206.1	177.2	110.7	90.04	120.5	211.5	553.9	901.0	612.8	715.9	 2533	 8226	9999.9	 7799	113.8	17.93	11.65	8.382	6.437	5.248	4.741	3.968	3.071	3.488	2.695	2.597	2.082	2.221	1.960	1.937	1.474	1.563	1.341	1.416	1.350	1.395	1.240	1.197	1.234	1.237	1.227	1.390	1.410	1.441	1.483	1.637	1.368	0.992	0.807	1.026	0.824	0.758	0.912	0.749	0.834	1.062	1.259	1.999	2.728	3.727	4.054	3.293	2.160	2.670	3.840	7.374	18.05	36.18	68.32	93.49	80.32	82.88	23.26	6.607	0.646
295.0	195.9	270.4	292.3	236.3	165.2	133.9	169.0	210.2	338.8	670.6	 1282	795.2	 1011	 2160	 4098	9999.9	9999.9	143.4	18.03	12.01	9.272	7.300	5.519	4.561	3.511	3.846	2.354	2.830	2.203	2.171	2.245	1.437	1.649	1.882	1.546	1.244	1.338	1.625	1.406	1.222	1.474	1.495	1.471	1.607	1.297	1.516	1.674	1.700	1.532	1.316	1.229	1.135	0.969	1.085	0.891	0.829	0.820	1.057	1.196	1.625	1.795	2.047	3.276	5.506	5.455	4.097	2.959	3.527	6.202	9.621	16.74	22.59	29.18	78.79	140.6	134.1	35.54
300.0	209.6	312.4	332.0	280.0	202.0	173.5	203.9	253.0	339.7	527.1	 1170	 1406	838.1	910.3	 1214	 5326	9999.9	 8335	97.81	16.90	11.92	8.416	6.336	5.019	4.531	4.795	2.920	2.984	2.528	2.048	2.342	1.631	1.622	1.897	1.605	1.256	1.552	1.356	1.688	1.350	1.306	1.668	1.285	1.737	1.416	1.719	1.790	1.985	1.705	1.338	1.304	1.331	1.245	0.902	0.992	1.074	0.859	1.183	1.151	1.810	1.776	2.131	2.529	3.363	5.856	7.235	5.125	3.499	3.676	4.342	5.707	6.557	8.009	20.14	54.38	127.1	165.9
305.0	221.2	342.6	383.9	315.7	238.1	211.7	251.6	301.1	391.6	558.1	876.9	 1626	 1257	760.6	641.1	 1467	 7800	9999.9	 1281	61.25	15.60	10.10	7.743	5.447	5.222	4.462	3.980	3.507	3.107	2.590	2.184	2.194	1.898	1.765	1.844	1.516	1.485	1.490	1.766	1.680	1.390	1.675	1.189	1.882	1.453	1.750	1.798	2.163	1.833	1.545	1.407	1.428	1.276	1.144	0.933	1.552	1.469	1.429	1.452	1.856	1.830	2.241	2.370	3.365	3.478	5.627	7.170	6.617	3.979	3.572	3.520	3.682	3.529	5.779	13.38	34.77	82.65
310.0	258.6	368.9	426.4	378.4	288.8	255.9	308.7	373.2	465.7	628.4	838.2	 1225	 1647	 1226	658.6	624.0	 2015	 7039	9999.9	9999.9	81.60	16.84	10.04	8.071	6.542	4.519	4.266	3.697	3.048	2.841	2.304	2.128	2.103	1.796	1.832	1.579	1.442	1.701	1.553	1.890	1.738	1.629	1.436	1.636	1.794	1.920	1.796	2.172	2.010	1.736	1.479	1.259	1.468	1.393	1.368	1.530	1.784	1.704	1.871	1.935	2.228	2.846	2.838	3.101	3.245	4.523	5.287	6.990	6.974	6.258	4.324	3.379	3.095	2.892	4.499	9.292	19.82
315.0	259.8	395.4	454.2	409.7	319.4	297.3	345.9	426.6	535.5	688.2	881.8	 1101	 1312	 1664	 1086	550.7	697.7	 1728	 3533	9999.9	 8045	107.8	17.69	10.58	7.627	5.758	4.934	4.262	3.494	3.673	2.938	2.557	2.384	2.089	1.427	1.727	1.624	1.784	1.761	1.734	1.878	1.837	1.768	1.805	1.799	1.829	2.019	1.898	2.195	1.846	1.442	1.657	1.510	1.487	1.269	1.538	2.030	1.825	1.888	2.187	2.518	2.715	3.061	3.699	3.595	4.139	4.386	5.398	5.307	6.229	7.817	6.162	3.776	3.036	2.736	3.716	5.812
320.0	281.5	448.3	555.6	494.7	361.6	319.9	373.1	461.6	577.6	745.0	958.7	 1126	 1238	 1445	 1543	735.4	463.1	587.9	929.7	 4833	9999.9	 6552	78.74	15.66	10.30	7.472	6.181	4.653	3.762	4.355	3.642	2.529	2.480	1.769	1.839	2.076	1.911	1.793	1.910	1.697	1.902	1.658	1.795	1.640	1.937	1.911	2.404	2.058	2.340	2.147	1.637	1.681	1.621	1.412	1.510	1.825	1.893	1.967	2.406	2.125	2.739	2.668	3.152	3.458	3.914	4.349	4.612	5.189	5.272	5.547	7.362	7.750	6.733	4.514	2.647	2.801	2.761
325.0	292.5	518.5	666.1	582.9	410.9	338.6	409.9	484.7	612.7	792.7	 1015	 1185	 1290	 1308	 1464	 1176	515.8	375.9	373.1	 1232	 7370	9999.9	 4581	51.22	13.40	9.449	7.448	5.440	4.925	4.025	3.305	2.802	2.578	2.068	1.732	1.713	1.965	1.746	1.893	1.640	2.082	1.732	1.839	2.044	2.453	2.340	2.426	2.879	2.645	2.341	1.851	1.680	1.769	1.731	1.906	1.642	2.219	2.109	2.543	2.253	2.529	2.837	3.121	3.952	4.416	4.904	4.661	5.282	5.077	5.898	5.855	6.097	7.090	6.974	4.135	3.317	2.409
330.0	305.6	546.0	768.2	700.0	502.5	405.7	437.4	525.9	659.3	829.0	 1044	 1244	 1328	 1312	 1214	 1228	910.2	452.7	307.8	432.4	 1835	 6596	9999.9	 8850	65.76	14.99	9.502	7.651	5.502	4.529	3.879	2.937	2.604	2.426	1.939	2.010	1.863	1.956	1.591	1.709	2.133	1.928	2.034	2.188	2.581	2.577	2.729	3.115	3.408	2.815	2.263	2.356	2.032	1.790	1.663	1.851	2.142	2.162	2.329	2.554	2.632	3.048	3.607	3.882	4.387	4.602	4.891	5.799	5.468	5.655	5.271	5.279	5.733	5.755	5.781	5.674	4.157
335.0	312.9	585.1	825.8	807.2	576.5	473.4	493.4	572.0	693.1	862.1	 1064	 1250	 1350	 1330	 1186	 1008	 1010	816.2	378.2	305.6	562.3	 1586	 3591	9999.9	 6431	88.65	14.32	9.680	7.958	5.211	4.585	3.865	3.298	2.553	2.450	2.379	1.799	2.034	1.794	1.655	2.341	1.946	1.843	2.184	2.553	2.867	2.975	3.215	3.616	3.043	2.486	2.808	2.286	1.868	1.811	2.150	2.299	2.345	2.534	2.530	3.283	3.450	3.583	4.276	4.642	4.761	5.286	5.954	5.545	5.202	5.656	5.407	5.088	4.836	4.481	4.518	5.735
340.0	320.2	600.7	865.7	824.4	619.7	516.6	527.4	607.7	702.5	891.8	 1085	 1246	 1359	 1348	 1198	966.2	859.0	999.8	588.0	328.9	318.8	494.5	918.7	 5159	9999.9	 5336	65.52	13.36	8.726	7.162	5.342	3.549	3.418	2.501	2.419	2.371	1.983	2.143	1.916	1.840	2.184	1.918	1.838	2.489	2.491	2.727	2.848	3.661	3.472	3.454	2.843	2.465	2.585	2.098	1.898	2.217	2.329	2.627	2.443	2.677	3.010	3.344	3.695	4.127	4.666	4.833	5.149	5.199	5.523	5.939	5.622	5.068	5.261	5.063	4.600	4.749	4.290
345.0	307.8	561.8	831.2	853.2	699.9	591.7	574.4	624.6	733.1	880.1	 1067	 1222	 1328	 1325	 1209	 1002	799.2	865.2	852.3	434.2	302.5	286.5	336.1	 1299	 7808	9999.9	 3920	44.30	11.24	8.379	6.232	4.241	3.846	2.880	2.577	2.206	2.043	2.337	2.298	1.895	2.197	1.675	2.061	2.311	2.549	3.021	2.525	3.476	3.565	3.376	2.948	3.047	2.753	2.345	2.351	2.442	2.729	3.142	2.683	2.995	3.182	3.260	3.868	3.989	4.598	4.488	5.037	5.199	5.415	5.876	5.876	5.471	5.620	4.905	5.001	5.005	3.989
350.0	295.6	529.9	780.7	853.0	732.6	677.7	655.4	698.5	781.1	897.6	 1061	 1201	 1277	 1301	 1198	 1004	829.0	746.1	800.1	736.3	436.1	303.7	262.6	430.2	 1942	 7001	9999.9	 7531	57.42	12.76	8.521	5.480	4.774	3.389	2.844	2.531	2.188	1.995	1.971	1.927	2.160	1.909	1.990	2.275	2.243	2.591	2.859	3.016	3.203	3.130	2.938	2.997	2.899	2.814	2.840	2.757	2.683	2.973	3.134	3.333	3.199	3.407	3.954	4.090	4.417	4.328	4.918	5.172	5.572	5.908	5.576	5.373	4.983	4.967	4.855	4.749	4.415
355.0	269.0	490.3	730.9	852.8	794.2	750.3	774.4	772.7	872.3	955.0	 1095	 1203	 1271	 1267	 1189	 1042	877.8	759.8	700.1	768.6	745.2	418.9	308.2	293.1	576.3	 1666	 3939	9999.9	 5641	77.89	13.29	8.103	5.843	4.688	3.017	2.389	2.947	2.183	1.798	2.321	2.212	1.668	2.273	2.202	2.152	2.666	2.875	3.132	3.137	2.869	2.924	3.314	3.095	2.787	3.059	2.969	2.862	3.388	3.276	3.599	3.384	3.853	3.686	3.755	4.161	4.217	5.010	4.944	5.783	5.930	5.317	5.074	5.625	5.264	4.653	4.842	4.523
360.0	275.7	480.4	668.5	789.8	824.1	802.2	824.7	828.2	934.4	 1016	 1115	 1200	 1249	 1257	 1185	 1071	904.9	805.5	722.4	692.9	831.0	619.4	380.6	305.1	306.6	508.4	996.4	 5636	9999.9	 4732	54.99	11.81	7.482	5.661	3.634	3.169	2.996	2.506	2.263	2.327	2.087	2.084	2.101	2.312	2.502	2.523	2.387	3.257	3.217	2.714	2.977	2.700	3.450	3.076	3.196	3.320	3.572	3.635	3.613	3.525	3.271	3.666	4.243	4.131	4.095	4.142	4.842	4.830	5.215	5.226	5.381	5.578	5.137	5.375	4.531	4.964	4.693
365.0	267.5	447.9	665.6	773.1	863.7	862.6	872.3	898.0	973.4	 1034	 1128	 1180	 1217	 1238	 1193	 1077	935.9	849.3	760.0	701.9	742.8	809.8	505.2	357.7	292.7	281.6	343.0	 1425	 8365	9999.9	705.5	35.27	9.869	6.890	4.704	3.251	3.040	2.649	2.567	2.190	1.952	2.412	2.082	2.295	2.264	2.557	2.732	2.995	2.808	2.968	2.824	3.268	3.592	2.882	3.159	3.410	3.451	3.427	3.706	3.768	3.938	3.809	4.168	3.834	4.471	4.534	5.119	5.035	5.230	5.273	5.224	5.411	5.494	5.190	5.160	5.166	4.669
370.0	264.2	438.2	649.6	787.3	843.5	898.7	921.6	943.7	993.8	 1073	 1137	 1191	 1214	 1208	 1168	 1075	973.3	890.7	816.0	751.6	712.5	760.5	739.4	501.5	357.1	287.1	244.5	436.6	 2098	 7365	9999.9	 6546	47.89	10.37	6.755	4.721	3.806	3.195	2.788	2.410	2.311	2.238	2.106	2.182	2.126	2.512	2.516	2.665	2.959	2.904	2.812	2.982	3.425	3.382	3.359	3.947	3.869	3.565	3.791	3.818	4.011	3.940	4.234	4.438	4.430	4.740	4.813	4.982	5.139	5.410	5.021	5.752	5.494	4.861	5.164	5.440	5.229
375.0	256.5	388.3	632.0	783.8	853.9	906.8	973.9	995.8	 1031	 1110	 1120	 1177	 1180	 1187	 1140	 1064	992.3	917.5	866.4	806.0	744.0	711.0	742.7	735.3	478.5	349.2	275.4	262.7	582.6	 1726	 4321	9999.9	 4707	61.06	10.28	6.828	5.114	3.742	3.243	2.529	2.374	2.139	2.198	1.939	2.080	2.697	2.463	2.867	3.221	2.659	2.965	3.122	3.444	3.478	3.883	3.371	3.969	4.323	3.829	4.295	4.163	4.131	4.249	4.621	4.633	4.900	4.329	4.363	4.501	5.132	4.850	5.120	5.013	4.970	5.735	5.272	5.225
380.0	254.1	386.1	585.2	763.4	860.9	941.3	987.6	 1015	 1041	 1117	 1128	 1171	 1167	 1159	 1114	 1064	992.2	944.2	889.8	841.4	781.5	727.4	704.0	780.5	639.8	417.1	327.5	259.3	273.5	488.1	 1070	 6105	9999.9	 3724	41.91	8.731	6.001	4.481	3.673	2.572	2.724	2.217	2.470	2.184	2.327	2.385	2.422	2.739	3.022	3.301	2.864	3.269	3.766	3.866	3.596	3.821	4.460	4.131	4.299	4.041	4.070	4.342	4.523	4.480	4.894	4.591	4.534	4.706	4.659	5.253	4.916	4.753	5.505	5.095	5.401	5.522	5.429
385.0	232.7	405.0	596.0	737.7	844.7	932.6	995.6	 1035	 1045	 1106	 1127	 1154	 1144	 1148	 1099	 1040	982.6	936.3	905.1	860.7	796.4	748.0	707.3	721.4	753.0	525.9	373.7	290.9	233.2	235.5	327.1	 1544	 8462	9999.9	556.9	25.52	7.612	5.556	4.083	2.938	3.179	2.225	2.289	2.615	2.657	2.375	2.664	2.565	2.986	2.989	2.765	3.105	3.761	3.710	3.476	3.742	4.155	4.048	3.898	4.260	4.114	4.513	4.208	4.100	4.090	4.703	4.692	4.693	4.580	4.713	4.828	5.279	4.880	5.407	5.173	5.644	5.479
390.0	240.1	387.1	559.5	728.7	838.0	930.5	982.2	 1020	 1052	 1091	 1124	 1114	 1124	 1101	 1074	 1029	973.7	935.5	909.4	866.6	823.8	782.0	739.1	697.0	708.1	680.9	495.2	350.8	277.4	220.8	196.7	431.0	 2140	 7143	9999.9	 4801	36.52	8.114	5.487	3.796	3.584	2.389	2.624	2.307	2.591	2.640	2.326	2.609	2.743	2.791	2.646	2.962	3.499	3.674	3.439	3.903	4.115	4.029	3.697	4.330	4.271	4.610	4.360	4.357	4.295	4.538	4.529	4.284	4.550	5.010	4.837	4.885	5.023	5.088	4.991	5.311	5.182
395.0	246.1	371.0	532.6	720.9	813.6	916.1	 1002	 1016	 1033	 1055	 1108	 1089	 1077	 1058	 1040	991.9	940.9	929.4	903.5	864.9	838.6	793.5	766.7	711.2	673.7	664.1	662.4	454.2	331.7	264.2	202.5	212.4	557.9	 1657	 4218	9999.9	 3725	48.40	8.315	5.277	4.262	3.551	3.103	2.885	2.529	2.964	2.445	2.965	2.636	2.823	2.358	2.942	3.571	3.537	3.530	3.875	3.894	3.995	3.786	4.148	4.646	4.370	4.102	4.063	4.502	4.481	4.564	4.476	4.428	4.716	4.575	4.575	5.130	5.194	4.990	4.779	5.383
400.0	235.4	347.4	516.6	712.3	823.0	908.6	966.7	 1026	 1046	 1053	 1061	 1072	 1061	 1053	 1009	962.1	930.9	920.2	891.4	858.3	842.8	806.9	772.7	732.0	678.7	637.3	688.2	581.0	389.0	296.8	234.4	185.7	224.1	437.1	 1029	 5727	9999.9	 2960	33.06	7.482	4.889	3.955	3.316	3.074	2.964	3.024	2.677	3.328	2.359	2.666	2.494	3.145	3.466	3.452	3.802	3.871	3.755	4.238	3.891	4.008	4.427	4.504	4.365	3.958	4.168	4.185	4.108	4.617	4.071	4.225	4.726	4.507	4.995	5.220	4.874	5.222	5.023
405.0	228.3	338.5	544.4	681.8	811.1	873.0	968.8	 1010	 1016	 1044	 1044	 1067	 1048	 1023	995.6	943.9	908.5	889.5	867.0	849.2	840.6	816.8	777.4	740.1	695.6	636.7	637.4	658.5	483.3	338.0	269.8	203.8	169.4	179.0	288.9	 1453	 7505	9999.9	467.4	19.31	6.080	4.812	4.057	3.427	2.706	2.742	2.457	2.807	2.548	2.943	2.457	3.005	3.401	3.186	3.907	3.791	4.017	4.041	3.788	3.842	4.142	4.202	4.232	3.726	4.384	4.003	4.170	4.750	4.004	4.118	4.543	4.635	4.567	4.436	4.592	5.131	4.764
410.0	213.0	321.3	524.7	648.6	789.5	858.9	938.8	989.0	 1008	 1032	 1037	 1018	999.0	983.8	959.2	901.8	870.9	860.2	847.8	827.6	817.4	796.8	772.3	750.4	704.8	658.8	614.8	621.5	595.3	447.5	324.8	251.3	189.2	151.3	142.4	379.0	 1890	 6145	 8994	 2036	31.47	7.129	4.666	3.409	3.196	2.556	2.444	2.655	2.720	2.647	2.665	2.827	3.274	3.037	3.471	3.411	4.017	3.808	3.883	3.913	4.078	4.290	4.257	4.044	3.868	4.249	4.100	4.379	4.333	4.036	4.322	4.654	4.512	4.441	4.701	5.035	4.893
