Sample:	'1
File name:	G2025071501袁家桥（光大入河口） 10倍.FD3
Run date:	'14:43:45, 07/15/2025
Operator:	Administrator
Comment:	'

Instrument
Model:	F-2700 FL Spectrophotometer
Serial number:	23B8-004
ROM Version:	4J14000 07

Instrument parameters
Measurement type:	3-D scan
Data mode:	Fluorescence
EX  Start WL:	220.0 nm
EX  End WL:	600.0 nm
EX Sampling interval:	5.0 nm
EM  Start WL:	230.0 nm
EM  End WL:	650.0 nm
EM Sampling interval:	5.0 nm
Scan speed:	12000 nm/min
EX Slit:	5.0 nm
EM Slit:	5.0 nm
PMT Voltage:	700 V
Response:	Auto 
Corrected spectra:	Off
Contour interval:	50.000

Peak integration
Integration method:	Rectangular
Sensitivity:	1
Threshold:	1.000

Peaks
No.	ApexEX/EM(nm)	Height(Data)
1	225.0/560.0	52.34
2	230.0/340.0	2890
3	230.0/500.0	282.0
4	235.0/515.0	241.0
5	240.0/265.0	484.0
6	240.0/525.0	227.9
7	245.0/270.0	465.2
8	245.0/535.0	193.6
9	250.0/455.0	542.4
10	250.0/550.0	157.8
11	255.0/280.0	661.1
12	255.0/560.0	139.0
13	260.0/290.0	579.7
14	260.0/575.0	110.4
15	265.0/295.0	722.9
16	265.0/585.0	100.1
17	275.0/310.0	2405
18	275.0/615.0	160.5
19	280.0/315.0	2461
20	280.0/625.0	148.2
21	285.0/320.0	2382
22	285.0/635.0	116.5
23	320.0/360.0	391.5
24	325.0/370.0	308.0
25	330.0/375.0	285.6
26	335.0/380.0	274.6
27	345.0/395.0	200.9
28	350.0/400.0	213.6
29	355.0/405.0	197.6
30	365.0/420.0	173.1
31	370.0/425.0	155.0
32	380.0/440.0	123.1
33	385.0/445.0	108.1
34	395.0/460.0	76.65
35	410.0/480.0	42.16
36	415.0/485.0	36.01
37	425.0/500.0	26.45
38	440.0/520.0	15.81
39	445.0/525.0	13.46
40	455.0/540.0	9.166
41	470.0/560.0	4.690
42	475.0/340.0	9.921
43	485.0/265.0	2.674
44	485.0/585.0	2.492
45	495.0/270.0	2.763
46	505.0/275.0	3.596
47	510.0/280.0	4.231
48	520.0/285.0	4.009
49	530.0/290.0	3.644
50	535.0/270.0	40.88
51	560.0/310.0	10.99
52	570.0/315.0	10.86
53	575.0/320.0	10.82
54	585.0/325.0	10.93

Data points
	220.0	225.0	230.0	235.0	240.0	245.0	250.0	255.0	260.0	265.0	270.0	275.0	280.0	285.0	290.0	295.0	300.0	305.0	310.0	315.0	320.0	325.0	330.0	335.0	340.0	345.0	350.0	355.0	360.0	365.0	370.0	375.0	380.0	385.0	390.0	395.0	400.0	405.0	410.0	415.0	420.0	425.0	430.0	435.0	440.0	445.0	450.0	455.0	460.0	465.0	470.0	475.0	480.0	485.0	490.0	495.0	500.0	505.0	510.0	515.0	520.0	525.0	530.0	535.0	540.0	545.0	550.0	555.0	560.0	565.0	570.0	575.0	580.0	585.0	590.0	595.0	600.0
230.0	84.42	1392	3390	1210	49.80	10.76	8.558	7.228	6.553	6.449	5.351	5.094	4.037	5.167	3.194	2.813	2.366	1.885	1.924	1.731	1.491	1.369	1.265	1.260	1.254	1.123	1.116	1.030	1.103	0.890	0.954	0.865	0.849	0.785	0.821	0.661	0.669	0.627	0.600	0.641	0.740	0.898	0.821	0.657	0.505	0.561	1.584	6.770	10.61	7.848	3.210	0.792	0.460	0.429	0.423	0.413	0.441	0.414	0.404	0.393	0.422	0.394	0.401	0.421	0.414	0.374	0.448	0.418	0.427	0.402	0.401	0.394	0.397	0.445	0.388	0.396	0.426
235.0	153.5	411.7	2144	4385	628.7	78.68	9.955	8.232	7.508	6.946	5.385	5.597	3.806	5.565	3.325	2.692	2.435	1.822	2.064	1.671	1.529	1.443	1.431	1.174	1.125	1.056	1.228	1.026	1.163	1.007	0.860	0.907	1.011	0.800	0.759	0.664	0.720	0.611	0.626	0.565	0.625	0.689	0.757	0.967	0.903	0.626	0.737	2.078	4.351	7.635	13.15	9.911	5.534	1.120	0.479	0.466	0.472	0.401	0.425	0.440	0.442	0.373	0.463	0.424	0.396	0.405	0.528	0.396	0.398	0.350	0.400	0.372	0.428	0.440	0.385	0.375	0.442
240.0	239.1	207.1	663.1	4063	4587	506.2	31.05	10.35	9.230	8.620	5.945	5.645	4.199	5.891	3.587	2.927	2.587	2.034	2.330	1.723	1.700	1.404	1.320	1.316	1.327	1.063	1.196	1.170	1.085	1.086	0.971	0.902	0.817	0.765	0.762	0.607	0.703	0.667	0.664	0.591	0.621	0.636	0.560	0.746	1.010	1.050	0.823	0.865	1.309	2.577	7.621	13.42	18.71	11.57	3.894	0.818	0.545	0.430	0.503	0.473	0.450	0.396	0.403	0.405	0.407	0.399	0.518	0.380	0.409	0.342	0.493	0.410	0.426	0.463	0.419	0.417	0.403
245.0	180.7	276.6	232.9	1413	5277	3956	356.5	16.92	11.21	9.888	7.389	6.264	4.417	6.169	4.014	3.117	2.721	2.057	2.018	1.841	1.632	1.370	1.440	1.334	1.283	1.209	1.280	1.058	1.057	1.006	0.944	0.849	0.851	0.837	0.710	0.614	0.737	0.628	0.622	0.686	0.630	0.661	0.542	0.667	0.758	0.995	1.164	1.127	0.768	0.919	2.172	4.782	14.12	20.55	19.43	11.01	2.644	0.545	0.479	0.461	0.408	0.429	0.436	0.393	0.419	0.451	0.437	0.408	0.411	0.368	0.446	0.443	0.433	0.424	0.431	0.389	0.420
250.0	84.81	210.7	319.8	430.3	1744	4923	4856	1385	89.28	13.15	8.384	8.540	5.159	6.908	4.172	3.638	3.026	2.325	2.109	1.962	1.615	1.451	1.485	1.380	1.297	1.406	1.238	1.215	1.174	0.980	0.958	0.937	0.797	0.775	0.755	0.660	0.731	0.718	0.624	0.625	0.596	0.621	0.572	0.583	0.594	0.722	0.854	1.316	1.349	1.191	1.166	1.549	3.716	7.223	13.20	20.98	22.99	18.60	9.248	2.398	0.552	0.464	0.460	0.452	0.429	0.435	0.447	0.439	0.443	0.414	0.437	0.417	0.385	0.419	0.427	0.428	0.412
255.0	50.53	81.47	237.4	428.3	497.2	1335	4479	8656	2063	84.91	13.15	9.551	6.386	9.771	4.528	3.959	3.484	2.359	2.372	2.219	1.534	1.620	1.422	1.297	1.412	1.305	1.198	1.253	1.117	1.082	0.890	0.935	0.801	0.801	0.820	0.635	0.678	0.737	0.670	0.565	0.571	0.684	0.543	0.526	0.565	0.551	0.567	0.704	0.905	1.424	1.670	1.843	1.494	2.068	3.374	5.359	9.786	21.99	34.67	26.38	13.67	3.159	0.516	0.420	0.459	0.485	0.495	0.413	0.401	0.449	0.378	0.423	0.421	0.406	0.462	0.454	0.382
260.0	48.03	47.38	98.30	380.5	406.6	362.7	1465	7791	9999.9	1493	38.55	13.26	7.815	11.77	5.464	4.249	3.890	2.743	2.502	2.157	1.668	1.604	1.535	1.286	1.573	1.505	1.243	1.297	1.134	1.192	0.988	0.852	0.876	0.946	0.772	0.723	0.640	0.719	0.707	0.593	0.583	0.591	0.544	0.520	0.588	0.540	0.523	0.547	0.558	0.732	1.273	2.410	2.201	1.458	1.234	1.726	2.618	6.402	16.64	30.16	42.49	27.38	9.205	1.435	0.510	0.578	0.452	0.465	0.488	0.530	0.367	0.442	0.441	0.409	0.456	0.486	0.421
265.0	57.07	38.42	49.58	185.9	484.0	297.1	374.8	2782	9999.9	9999.9	244.7	22.96	9.766	13.74	6.281	4.466	3.897	3.031	2.639	2.173	1.939	1.728	1.691	1.390	1.498	1.602	1.233	1.330	1.275	1.049	0.954	0.890	0.954	0.819	0.854	0.718	0.680	0.681	0.690	0.640	0.653	0.650	0.555	0.602	0.519	0.574	0.488	0.621	0.492	0.481	0.633	1.333	2.407	2.674	1.652	1.008	1.104	1.936	4.270	9.709	25.64	53.28	32.97	22.51	5.408	0.773	0.596	0.454	0.496	0.533	0.432	0.480	0.497	0.432	0.511	0.578	0.442
270.0	50.32	43.19	40.89	65.55	238.9	465.2	336.6	686.3	3645	9999.9	9999.9	3293	50.27	21.76	8.497	6.217	5.204	3.537	3.112	2.444	2.100	1.771	1.622	1.583	1.618	1.558	1.474	1.405	1.314	1.078	1.068	1.022	0.999	0.944	0.858	0.752	0.705	0.764	0.684	0.649	0.606	0.727	0.619	0.669	0.589	0.593	0.557	0.529	0.474	0.453	0.542	0.664	1.112	1.715	2.361	2.763	2.220	1.365	1.517	2.591	6.495	16.51	20.84	40.88	39.32	37.77	15.44	5.848	0.731	0.558	0.493	0.477	0.505	0.483	0.465	0.522	0.440
275.0	70.00	70.63	49.74	39.98	77.72	216.6	591.7	412.9	862.3	2629	8741	9999.9	1226	83.84	12.90	8.840	6.416	4.264	3.825	2.748	2.318	1.965	2.012	1.632	1.728	1.909	1.647	1.355	1.480	1.294	1.082	1.078	1.123	0.999	0.998	0.730	0.687	0.761	0.634	0.754	0.601	0.746	0.657	0.658	0.647	0.596	0.614	0.553	0.510	0.546	0.506	0.527	0.576	0.759	0.975	1.535	2.878	3.596	2.437	1.376	1.852	4.193	5.154	9.847	13.74	32.48	64.24	70.29	19.65	5.173	0.643	0.547	0.544	0.549	0.503	0.494	0.415
280.0	96.20	77.57	64.17	42.78	40.31	80.01	385.4	661.1	330.2	647.1	2639	9999.9	9999.9	1113	25.18	11.48	8.364	5.102	4.366	3.234	2.283	2.404	1.806	1.793	1.807	1.586	1.623	1.419	1.459	1.244	1.051	1.165	1.152	1.021	1.117	0.915	0.757	0.774	0.712	0.803	0.603	0.767	0.726	0.667	0.590	0.761	0.686	0.688	0.655	0.494	0.541	0.536	0.510	0.561	0.600	0.809	1.325	2.907	4.231	3.309	1.551	1.447	1.724	2.731	3.722	8.597	24.20	55.78	53.87	33.09	13.63	1.887	0.562	0.515	0.517	0.512	0.498
285.0	112.8	100.9	86.97	50.93	36.09	40.42	148.5	608.3	385.9	236.5	655.9	3898	9999.9	9999.9	132.2	16.46	11.19	6.678	5.083	3.625	2.746	2.592	2.120	1.705	1.797	1.686	1.615	1.696	1.808	1.269	1.065	1.360	1.213	0.994	1.139	1.041	0.823	0.899	0.792	0.783	0.581	0.773	0.738	0.689	0.751	0.758	0.666	0.735	0.728	0.582	0.535	0.554	0.610	0.592	0.565	0.568	0.705	1.222	2.341	3.991	4.009	2.250	1.121	1.196	1.429	2.456	6.062	15.19	25.07	57.16	53.76	26.15	7.883	0.869	0.633	0.672	0.502
290.0	133.3	129.2	105.2	64.91	45.57	38.16	65.90	235.0	579.7	514.5	266.6	964.5	3406	9999.9	9999.9	507.6	37.88	9.810	7.225	4.909	3.250	3.072	2.503	2.305	1.984	2.046	1.885	1.917	1.885	1.302	1.199	1.257	1.220	1.183	1.123	1.046	0.948	1.026	0.884	0.881	0.770	0.792	0.878	0.728	0.794	0.800	0.701	0.817	0.795	0.611	0.590	0.616	0.616	0.585	0.552	0.541	0.660	0.784	1.045	1.636	2.672	3.475	3.644	2.654	1.410	1.263	2.082	4.048	6.318	15.47	23.77	32.94	39.03	36.55	17.30	9.183	1.060
295.0	168.3	171.2	135.4	93.22	68.67	63.31	72.87	126.1	258.7	722.9	635.4	365.8	869.7	2826	9669	9999.9	762.6	41.14	10.66	6.484	4.073	3.635	2.837	2.691	2.592	2.346	2.292	1.875	1.932	1.359	1.331	1.159	1.310	1.360	1.286	1.089	1.052	1.143	0.930	0.928	0.856	0.968	0.907	0.865	0.889	0.874	0.776	1.042	0.907	0.732	0.728	0.685	0.652	0.694	0.748	0.689	0.641	0.785	0.889	0.941	1.265	1.682	2.554	4.299	4.323	2.863	1.582	1.797	2.208	4.212	6.185	8.110	11.38	22.40	55.99	89.25	26.49
300.0	241.2	276.6	247.9	168.8	134.2	135.5	170.8	222.0	299.4	614.1	1168	704.7	378.2	936.5	2953	9999.9	9999.9	587.4	25.35	8.927	5.126	4.279	3.466	2.997	2.875	2.872	2.200	2.042	2.011	1.663	1.472	1.339	1.404	1.283	1.353	1.052	1.207	1.165	0.983	0.969	1.099	1.041	0.997	0.892	1.099	1.077	1.038	1.226	1.136	0.986	0.927	0.922	0.933	0.840	0.978	1.030	1.100	1.359	1.410	1.317	1.611	1.752	2.283	3.072	4.857	6.209	4.716	2.940	2.308	2.746	3.047	3.209	3.975	6.745	19.20	50.73	61.69
305.0	421.7	478.8	447.0	327.5	276.0	302.5	405.6	418.4	788.3	1098	1650	1755	1203	1044	1382	4164	9999.9	5561	86.87	14.49	7.611	5.355	4.301	3.545	3.327	2.989	2.308	2.443	2.352	1.713	1.497	1.546	1.527	1.550	1.497	1.414	1.378	1.403	1.249	1.172	1.349	1.448	1.248	1.181	1.478	1.516	1.641	1.973	1.533	1.637	1.498	1.446	1.276	1.393	1.586	1.725	1.960	2.483	2.755	2.933	3.255	3.914	4.082	4.835	5.997	7.494	8.615	8.652	6.335	5.466	4.989	4.482	4.420	5.434	7.702	15.15	26.12
310.0	587.9	789.0	742.6	561.6	456.3	482.9	674.0	872.1	1162	1534	1903	2405	2281	1587	1387	1749	4330	9102	9448	1496	24.29	8.172	5.656	4.650	4.042	3.274	2.716	2.900	2.798	1.812	1.693	1.738	1.688	1.668	1.623	1.472	1.487	1.644	1.519	1.530	1.418	1.681	1.615	1.702	1.847	2.045	2.511	2.698	2.513	2.363	2.097	2.189	2.085	2.122	2.185	2.539	2.942	3.658	4.231	4.310	4.662	5.378	6.026	7.051	7.334	8.263	9.133	10.19	10.99	10.03	8.441	6.785	6.539	6.439	6.340	7.747	9.578
315.0	785.3	1054	1042	769.4	618.3	625.7	820.6	1037	1292	1643	1988	2304	2461	2223	1577	1278	1831	2613	8045	9999.9	511.8	24.41	8.405	5.850	5.019	4.075	2.966	3.181	3.249	1.915	1.968	1.739	1.731	1.743	1.811	1.697	1.680	1.716	1.686	1.637	1.743	2.008	1.771	2.084	2.264	2.489	3.056	3.231	3.381	2.962	2.713	2.795	2.742	2.728	2.927	3.259	3.543	4.377	4.873	4.956	5.261	6.246	6.907	7.401	7.789	8.190	9.166	9.230	9.823	10.58	10.86	10.24	8.241	7.813	6.966	6.398	6.347
320.0	935.7	1241	1238	914.9	717.1	708.8	888.6	1127	1322	1687	2028	2315	2332	2382	1914	1253	1312	1065	2258	9999.9	8861	409.7	14.63	7.890	6.723	5.158	3.486	3.594	3.358	2.332	2.193	1.724	1.894	1.929	1.938	1.764	1.666	1.823	1.714	1.652	1.818	2.067	2.024	2.296	2.406	2.888	3.514	4.003	3.840	3.466	3.053	3.281	3.129	3.001	3.044	3.719	3.760	4.580	4.937	5.304	5.417	6.140	7.114	7.579	7.995	8.878	9.384	9.509	9.828	9.954	9.881	10.82	10.72	9.184	7.640	6.270	6.042
325.0	1008	1399	1400	1067	801.0	739.5	889.1	1110	1244	1566	1912	2180	2172	2090	2060	1331	1135	706.3	640.6	3165	9999.9	4128	62.41	12.51	8.278	6.433	4.149	4.105	3.523	2.585	2.208	1.791	1.914	1.958	1.869	1.615	1.719	2.037	1.879	1.751	1.792	1.976	2.127	2.411	2.693	3.392	3.712	4.776	4.610	3.875	3.774	3.803	3.486	3.223	3.384	3.630	3.903	4.377	5.005	5.188	5.292	5.743	6.734	6.915	7.267	8.134	8.703	8.676	9.113	9.299	8.893	9.467	9.933	10.93	8.823	7.315	5.723
330.0	1202	1815	1959	1690	1229	883.4	871.1	1022	1125	1387	1687	1948	1960	1825	1750	1484	1146	621.6	320.7	811.1	3058	6525	6835	1442	25.22	9.324	5.457	4.625	4.840	2.752	2.340	2.190	2.067	2.081	2.024	1.722	1.755	1.854	1.793	1.946	1.976	2.116	2.298	2.494	3.063	4.033	4.612	5.752	5.933	5.409	5.489	5.812	5.269	4.587	3.761	3.645	3.844	4.252	4.947	5.030	4.820	5.060	5.704	6.078	6.862	7.216	7.610	8.014	8.453	8.535	8.119	8.085	8.292	8.931	8.204	7.847	6.931
335.0	1404	2209	2636	2592	2052	1261	950.0	985.7	1051	1268	1549	1822	1856	1761	1582	1373	1367	753.3	338.7	357.1	814.8	1639	5713	9999.9	452.8	28.79	7.873	6.861	5.494	3.226	2.703	2.345	2.339	2.381	2.023	1.872	1.885	1.871	1.883	1.937	2.133	2.361	2.340	2.792	3.383	4.432	5.363	7.112	7.933	7.333	8.185	8.938	8.289	7.218	5.608	4.578	3.973	4.334	4.558	4.600	4.545	4.959	5.242	5.864	6.479	6.750	7.081	7.747	8.125	7.657	8.140	7.815	7.785	8.068	7.260	6.769	7.053
340.0	1478	2265	2890	2852	2298	1395	936.7	930.0	957.6	1135	1399	1620	1702	1629	1453	1201	1239	911.2	392.2	274.1	333.0	483.5	1618	8910	9999.9	396.1	14.08	8.641	6.973	3.400	2.964	2.690	2.689	2.423	2.281	1.813	1.967	1.891	1.853	1.962	2.166	2.484	2.399	2.768	3.384	4.466	5.589	7.375	8.417	8.234	8.916	9.921	9.747	8.129	6.190	4.708	4.242	4.168	4.232	4.289	4.401	4.504	4.778	5.295	5.956	5.915	6.650	7.136	7.400	7.286	7.513	7.291	6.886	7.466	6.551	6.599	5.987
345.0	1423	2133	2792	2770	2210	1332	861.0	824.6	853.2	969.9	1198	1404	1487	1439	1278	1035	966.7	879.6	499.6	259.4	218.6	225.3	461.2	2667	9999.9	9062	54.82	12.46	8.901	4.599	3.464	3.126	2.655	2.391	2.190	1.712	1.870	1.728	1.793	1.921	2.027	2.354	2.383	2.891	3.305	4.355	5.346	7.010	8.159	8.117	8.358	9.607	9.136	8.069	6.279	4.538	4.004	3.910	3.940	3.779	3.943	3.947	4.126	4.731	4.961	5.289	6.004	6.368	6.559	6.506	6.504	6.322	6.429	6.426	5.823	5.634	5.069
350.0	1277	1950	2591	2691	2194	1297	775.5	719.8	733.3	822.7	1005	1174	1252	1238	1111	910.8	796.2	665.5	569.7	373.3	216.0	177.1	212.3	672.7	3003	8430	6750	1437	25.55	5.748	4.473	3.642	2.913	2.644	2.482	1.809	1.921	1.838	1.685	1.842	1.916	2.271	2.193	2.671	3.186	4.005	4.937	6.371	7.442	7.840	8.278	9.656	8.928	8.060	6.019	4.282	3.813	3.611	3.615	3.475	3.305	3.399	3.527	3.867	4.222	4.574	5.026	5.301	5.499	5.423	5.693	5.561	5.543	5.634	5.372	4.873	4.599
355.0	1108	1720	2323	2475	2066	1248	709.4	641.4	643.1	698.6	832.8	980.0	1044	1042	950.1	791.9	689.5	524.1	424.4	463.6	308.7	176.1	161.3	231.7	711.7	1970	5009	9999.9	2381	23.22	6.249	4.662	3.560	2.981	2.970	1.835	2.024	1.925	1.820	1.661	1.700	1.948	2.133	2.383	2.880	3.478	4.595	5.728	6.773	6.921	7.527	8.691	8.743	7.591	5.454	4.086	3.802	3.344	3.054	3.230	2.960	3.178	3.329	3.556	3.972	3.976	4.173	4.274	4.714	4.809	4.788	4.986	4.907	5.083	4.690	4.339	3.961
360.0	968.5	1500	1978	2137	1829	1102	644.8	570.2	557.0	602.7	704.7	822.8	871.7	886.2	806.8	679.3	588.3	448.3	340.5	367.2	391.5	213.4	146.5	130.5	207.3	472.4	1285	8014	9999.9	367.0	16.24	5.668	4.542	3.421	3.004	1.971	2.191	2.006	1.907	1.820	1.718	1.874	2.076	2.323	2.538	2.995	3.949	5.088	5.715	6.010	6.648	7.630	7.680	6.658	5.219	3.513	3.174	2.887	2.730	2.736	2.778	2.702	3.111	2.795	3.262	3.470	3.321	3.955	4.007	4.148	4.329	4.076	4.162	4.292	4.170	3.899	3.805
365.0	810.2	1275	1704	1849	1594	964.1	571.2	499.3	485.8	531.0	618.0	707.6	750.0	753.1	693.8	593.7	516.7	400.5	300.7	278.0	358.3	304.6	159.8	110.1	99.75	141.9	315.4	2254	9999.9	7112	306.9	9.461	5.933	4.085	3.656	2.210	2.204	2.027	1.781	1.586	1.723	1.930	1.807	2.028	2.371	2.748	3.297	4.637	5.088	5.273	5.734	6.859	6.693	5.759	4.655	3.271	2.888	2.707	2.744	2.418	2.480	2.568	2.486	2.584	2.697	2.903	3.048	3.398	3.320	3.677	3.792	3.706	3.727	3.575	3.573	3.672	3.180
370.0	683.1	1053	1421	1549	1358	848.4	514.1	446.8	428.8	466.0	527.0	593.4	627.8	633.7	586.7	511.4	446.7	360.5	279.1	238.7	252.0	308.0	258.4	129.7	82.58	77.07	105.0	532.7	2869	5901	5522	1288	21.98	6.153	4.707	2.949	2.402	2.188	1.897	1.878	1.740	1.922	1.841	1.830	2.101	2.580	2.900	3.963	4.326	4.439	4.720	5.901	5.697	5.251	4.147	3.088	2.768	2.494	2.444	2.284	2.264	2.361	2.301	2.341	2.590	2.606	2.796	2.858	3.040	3.155	3.240	3.163	3.345	3.254	3.169	3.064	2.821
375.0	584.8	870.8	1154	1267	1129	728.9	460.5	393.3	377.2	403.6	450.6	501.2	528.1	539.1	488.5	432.0	380.6	322.2	262.0	223.7	207.9	217.0	285.6	223.6	100.3	71.68	67.39	155.2	669.1	1370	3517	8439	2111	26.48	6.918	3.948	3.081	2.593	1.994	1.975	1.700	1.749	1.710	1.786	1.814	2.395	2.607	3.181	3.638	3.752	4.143	4.795	4.816	4.482	3.680	2.714	2.504	2.313	2.119	2.045	2.077	2.085	2.219	1.938	2.132	2.322	2.532	2.430	2.669	2.699	2.820	2.722	2.772	2.885	2.758	2.468	2.546
380.0	507.6	732.8	977.4	1070	966.2	635.5	419.8	360.0	350.2	369.7	403.1	447.0	462.8	463.5	426.1	382.4	345.4	298.1	247.6	215.4	192.9	184.8	219.7	274.6	156.5	81.49	66.19	75.82	184.5	331.9	898.8	5573	8881	331.4	19.06	4.998	3.418	2.923	2.216	2.082	1.891	1.937	1.787	1.641	1.670	2.129	2.181	2.908	3.215	3.422	3.663	4.322	3.840	4.057	3.173	2.605	2.313	2.289	2.261	2.122	2.001	1.859	2.032	1.824	2.042	2.203	2.255	2.273	2.264	2.525	2.421	2.548	2.405	2.565	2.268	2.396	2.333
385.0	458.3	644.3	823.2	911.5	843.5	582.9	387.5	339.5	324.7	339.0	372.3	401.1	416.8	411.4	386.9	344.1	313.2	275.2	235.7	210.7	188.5	177.1	176.0	234.9	228.5	112.5	72.84	65.85	81.16	103.9	227.0	1515	7288	6859	285.3	8.068	4.194	3.238	2.409	2.069	2.055	2.077	1.859	1.694	1.637	1.847	2.254	2.657	2.649	2.937	3.128	3.765	3.613	3.440	2.886	2.382	2.155	2.063	2.066	1.904	1.829	1.740	1.799	1.870	1.882	2.039	2.128	2.115	2.055	2.124	2.157	2.135	2.171	2.332	2.101	2.176	2.124
390.0	413.8	558.8	694.4	785.5	729.2	520.1	373.2	323.8	310.9	317.7	336.7	363.3	369.6	370.5	343.7	308.7	283.6	255.4	225.5	205.3	187.2	173.8	165.2	174.3	213.7	193.0	107.0	74.61	66.04	61.05	81.43	361.8	1949	5299	7249	1057	17.48	4.880	3.387	2.548	2.216	2.305	1.879	1.585	1.646	1.842	2.066	2.332	2.395	2.502	2.746	3.150	3.181	3.215	2.668	2.138	1.991	1.952	1.914	1.786	1.779	1.671	1.742	1.797	1.847	1.806	1.988	1.855	2.029	1.980	2.021	2.051	1.905	2.101	1.958	1.980	1.958
395.0	351.2	472.2	594.8	653.8	633.5	482.7	364.8	316.4	295.1	298.8	314.6	337.6	338.0	334.5	309.3	280.1	263.5	235.8	217.3	201.5	186.7	174.8	167.4	156.5	160.8	200.9	184.9	99.58	73.31	61.09	55.80	107.9	455.1	1225	4029	6310	1594	22.31	4.646	3.243	2.642	2.503	2.001	1.642	1.860	1.919	1.926	2.212	2.322	2.307	2.385	2.914	2.867	2.835	2.591	2.092	2.080	1.748	1.858	1.844	1.771	1.655	1.740	1.669	1.734	1.714	1.810	1.814	1.812	1.803	1.905	1.991	1.815	1.966	1.946	1.891	1.898
400.0	332.6	429.2	539.8	585.7	575.6	462.4	365.1	323.5	295.0	294.2	304.6	320.3	320.3	313.3	292.4	262.9	250.2	224.2	210.5	193.9	187.6	175.7	167.5	155.7	148.0	164.5	213.6	148.0	85.67	66.30	54.73	56.77	124.2	290.0	1013	4072	5828	286.0	12.72	4.077	3.208	2.784	2.030	1.693	1.857	1.899	1.757	2.084	2.130	2.164	2.259	2.769	2.572	2.614	2.488	2.133	1.834	1.839	1.841	1.656	1.763	1.733	1.669	1.636	1.756	1.764	1.830	1.738	1.632	1.753	1.682	1.917	1.817	1.936	1.984	1.853	1.825
405.0	322.1	401.0	492.8	540.1	526.5	442.3	366.2	316.8	287.1	288.6	294.9	303.1	307.4	301.7	278.4	252.6	237.1	216.7	203.0	192.0	184.4	176.3	168.7	156.4	146.2	142.1	182.1	197.6	117.1	74.56	60.86	49.83	54.60	84.26	243.0	1106	4767	5377	226.1	6.692	3.576	3.178	2.483	1.870	1.822	1.757	1.783	1.967	1.975	1.871	2.183	2.435	2.545	2.286	2.372	2.122	2.195	1.908	1.824	1.701	1.769	1.748	1.576	1.624	1.658	1.673	1.625	1.719	1.624	1.812	1.651	1.700	1.764	1.806	1.733	1.706	1.736
410.0	304.7	376.3	445.1	483.5	486.9	426.2	362.3	321.6	291.0	282.3	285.9	292.8	287.3	282.5	260.0	241.1	222.1	206.8	196.0	185.5	179.6	172.5	166.5	158.3	147.4	138.0	146.2	177.4	171.7	105.8	69.63	52.75	44.12	41.74	71.88	260.0	1278	4178	3676	970.5	15.75	4.348	2.876	2.108	1.931	1.794	1.840	1.986	2.003	1.972	2.080	2.295	2.447	2.329	2.095	2.100	2.080	1.905	1.875	1.822	1.676	1.650	1.513	1.596	1.577	1.633	1.642	1.503	1.698	1.746	1.631	1.704	1.633	1.645	1.487	1.619	1.660
415.0	300.3	341.3	422.5	452.6	457.4	421.5	371.9	323.8	293.0	275.0	277.3	277.5	276.5	265.5	244.2	225.6	209.4	196.6	187.1	179.5	170.6	165.6	161.1	157.9	147.2	137.9	134.9	138.8	166.6	157.8	89.27	60.51	46.57	35.27	36.37	72.63	296.3	965.6	2362	4840	1405	21.64	3.679	2.579	2.292	1.947	1.805	1.915	1.791	2.012	1.973	2.293	2.150	2.205	1.965	2.055	2.066	1.825	1.910	1.625	1.856	1.629	1.474	1.683	1.577	1.696	1.505	1.410	1.600	1.571	1.588	1.576	1.555	1.522	1.453	1.665	1.610
