Sample:	'1
File name:	g2025070301ºêÊ¢ÎºÇÅ·ÄÖ¯½øË® 100±¶.FD3
Run date:	'16:04:13, 07/04/2025
Operator:	Administrator
Comment:	'

Instrument
Model:	F-2700 FL Spectrophotometer
Serial number:	23B8-004
ROM Version:	4J14000 07

Instrument parameters
Measurement type:	3-D scan
Data mode:	Fluorescence
EX  Start WL:	220.0 nm
EX  End WL:	600.0 nm
EX Sampling interval:	5.0 nm
EM  Start WL:	230.0 nm
EM  End WL:	650.0 nm
EM Sampling interval:	5.0 nm
Scan speed:	12000 nm/min
EX Slit:	5.0 nm
EM Slit:	5.0 nm
PMT Voltage:	700 V
Response:	Auto 
Corrected spectra:	Off
Contour interval:	50.000

Peak integration
Integration method:	Rectangular
Sensitivity:	1
Threshold:	1.000

Peaks
No.	ApexEX/EM(nm)	Height(Data)
1	225.0/340.0	2897
2	245.0/535.0	212.8
3	250.0/550.0	166.4
4	255.0/280.0	616.0
5	255.0/560.0	134.9
6	260.0/290.0	556.6
7	260.0/575.0	109.6
8	265.0/295.0	679.4
9	265.0/585.0	96.86
10	270.0/300.0	872.8
11	270.0/415.0	5364
12	270.0/435.0	5387
13	270.0/600.0	85.14
14	275.0/305.0	871.9
15	275.0/340.0	936.4
16	275.0/610.0	70.52
17	280.0/345.0	925.7
18	280.0/625.0	59.98
19	285.0/320.0	821.7
20	285.0/635.0	46.92
21	290.0/325.0	763.5
22	305.0/345.0	496.2
23	315.0/355.0	356.7
24	320.0/365.0	347.7
25	325.0/370.0	352.3
26	330.0/375.0	372.1
27	355.0/415.0	2776
28	355.0/435.0	2753
29	425.0/500.0	21.53
30	430.0/505.0	18.35
31	440.0/520.0	12.90
32	455.0/340.0	9.029
33	455.0/540.0	8.147
34	470.0/560.0	4.058
35	505.0/275.0	4.064
36	510.0/280.0	4.085
37	515.0/285.0	4.258
38	525.0/290.0	3.957
39	540.0/295.0	5.304
40	545.0/300.0	6.043
41	545.0/415.0	19.61
42	550.0/305.0	5.516
43	550.0/430.0	19.42
44	560.0/310.0	4.945
45	560.0/340.0	5.144
46	565.0/350.0	5.287
47	570.0/315.0	5.576
48	580.0/320.0	5.474
49	585.0/325.0	5.730

Data points
	220.0	225.0	230.0	235.0	240.0	245.0	250.0	255.0	260.0	265.0	270.0	275.0	280.0	285.0	290.0	295.0	300.0	305.0	310.0	315.0	320.0	325.0	330.0	335.0	340.0	345.0	350.0	355.0	360.0	365.0	370.0	375.0	380.0	385.0	390.0	395.0	400.0	405.0	410.0	415.0	420.0	425.0	430.0	435.0	440.0	445.0	450.0	455.0	460.0	465.0	470.0	475.0	480.0	485.0	490.0	495.0	500.0	505.0	510.0	515.0	520.0	525.0	530.0	535.0	540.0	545.0	550.0	555.0	560.0	565.0	570.0	575.0	580.0	585.0	590.0	595.0	600.0
230.0	215.3	4970	9959	2508	74.13	14.66	11.36	10.13	8.504	7.943	7.098	6.639	5.958	4.716	4.291	3.618	2.861	2.638	2.631	2.563	2.361	1.920	2.165	1.867	1.885	1.663	1.549	1.550	1.496	1.433	1.377	1.342	1.208	1.104	0.917	0.928	0.850	0.741	0.683	0.724	0.809	1.044	1.081	0.688	0.582	0.600	5.964	27.32	42.89	23.76	7.429	1.344	0.478	0.442	0.440	0.425	0.437	0.430	0.397	0.401	0.387	0.405	0.364	0.397	0.342	0.362	0.349	0.355	0.347	0.335	0.361	0.332	0.335	0.368	0.373	0.360	0.352
235.0	232.7	1346	6637	9999.9	2575	101.4	15.34	13.48	10.60	8.988	7.174	7.095	6.821	5.145	4.771	3.898	3.111	2.568	2.607	2.647	2.748	1.986	2.005	1.858	1.847	1.700	1.712	1.818	1.618	1.427	1.496	1.265	1.220	1.082	1.092	0.961	0.850	0.871	0.601	0.640	0.599	0.694	0.996	1.060	0.986	0.682	1.800	7.144	17.70	27.28	34.45	24.16	12.15	2.475	0.464	0.492	0.485	0.449	0.389	0.509	0.379	0.417	0.394	0.469	0.396	0.446	0.403	0.355	0.342	0.346	0.417	0.315	0.456	0.428	0.359	0.437	0.365
240.0	292.6	439.0	2041	9718	9587	481.2	45.85	15.66	11.04	10.47	8.417	8.216	7.490	5.660	5.254	4.551	3.172	2.801	2.731	2.628	2.536	2.198	2.204	2.140	1.871	1.818	1.865	1.653	1.760	1.381	1.477	1.391	1.240	1.129	1.033	0.885	0.828	0.766	0.718	0.766	0.674	0.554	0.695	0.954	1.196	1.149	0.999	2.093	4.453	8.385	20.88	44.03	51.88	22.92	8.984	1.172	0.485	0.507	0.488	0.452	0.351	0.486	0.407	0.394	0.380	0.486	0.308	0.387	0.375	0.387	0.383	0.378	0.359	0.689	0.362	0.408	0.392
245.0	219.3	344.5	551.7	3570	9999.9	8856	364.4	27.29	14.57	12.43	9.796	8.613	7.816	5.904	5.395	4.513	3.702	3.298	3.086	2.613	2.328	2.105	2.162	2.128	2.057	1.718	1.951	1.823	1.507	1.581	1.665	1.375	1.161	1.105	1.085	0.871	0.774	0.754	0.719	0.690	0.715	0.592	0.646	0.747	0.924	1.318	1.406	1.377	1.512	2.263	5.277	16.10	41.05	64.25	53.53	19.67	5.965	0.708	0.474	0.521	0.419	0.421	0.418	0.435	0.366	0.431	0.333	0.363	0.461	0.409	0.370	0.418	0.337	0.514	0.369	0.412	0.407
250.0	113.4	254.7	382.3	914.8	3686	9999.9	9999.9	1359	90.51	18.50	14.27	11.00	9.622	6.359	5.611	4.800	3.904	3.527	3.123	3.166	2.536	2.249	2.346	2.132	2.032	1.895	1.974	1.738	1.762	1.768	1.708	1.373	1.326	1.193	1.139	0.958	0.968	0.807	0.690	0.801	0.738	0.638	0.662	0.641	0.644	0.817	1.002	1.423	1.576	1.396	1.813	4.131	10.32	22.53	37.78	54.60	53.23	52.32	14.90	6.345	0.806	0.544	0.541	0.493	0.430	0.446	0.437	0.384	0.427	0.411	0.441	0.399	0.373	0.409	0.485	0.397	0.393
255.0	74.86	105.5	275.7	503.2	911.5	2789	9999.9	9999.9	1951	101.2	20.89	14.66	12.55	8.399	6.794	5.623	4.596	3.743	3.743	3.904	3.024	2.526	2.421	2.302	2.315	1.942	2.039	1.894	1.659	2.074	1.708	1.598	1.504	1.308	1.047	1.072	0.822	0.959	0.719	0.864	0.772	0.688	0.758	0.616	0.716	0.745	0.705	0.808	0.964	1.504	2.052	2.224	2.922	5.432	8.937	13.63	25.38	66.29	106.3	102.1	23.02	6.617	0.681	0.531	0.579	0.526	0.484	0.446	0.524	0.431	0.455	0.444	0.434	0.440	0.468	0.421	0.394
260.0	63.16	62.73	124.8	401.4	451.0	694.7	3561	9999.9	9999.9	1508	51.08	20.40	16.03	11.05	8.126	6.443	5.092	4.333	4.239	4.395	3.256	2.805	2.755	2.349	2.314	2.355	2.196	1.908	1.833	1.930	1.844	1.655	1.562	1.373	1.117	1.075	0.889	0.896	0.766	0.792	0.713	0.781	0.771	0.732	0.741	0.591	0.619	0.703	0.658	0.838	1.438	2.384	2.285	2.074	2.539	3.595	6.403	18.95	52.74	115.9	124.3	32.01	18.45	3.094	0.691	0.678	0.620	0.564	0.543	0.457	0.466	0.473	0.452	0.439	0.422	0.410	0.423
265.0	67.40	57.49	59.46	206.0	458.4	334.0	874.9	5146	9999.9	9999.9	219.6	31.42	21.95	13.20	10.82	8.100	5.901	4.793	4.546	4.361	3.604	2.803	2.993	2.659	2.386	2.605	2.298	2.094	2.252	1.913	1.849	1.781	1.558	1.283	1.241	1.123	1.002	0.838	0.731	0.946	0.751	0.845	0.696	0.805	0.736	0.683	0.663	0.708	0.585	0.615	0.772	1.532	2.388	2.563	2.110	1.515	1.990	4.824	12.81	36.77	78.54	136.4	143.4	29.49	13.23	1.211	0.668	0.727	0.577	0.546	0.538	0.599	0.467	0.492	0.422	0.424	0.454
270.0	100.2	79.96	62.12	86.81	252.9	445.7	411.1	1264	5173	9999.9	9999.9	3949	74.07	21.06	14.57	10.56	7.544	5.983	5.377	5.060	3.974	3.311	3.375	2.822	2.626	2.807	2.416	2.285	2.308	2.024	2.017	1.827	1.613	1.504	1.366	1.244	1.160	0.996	0.891	0.957	0.912	0.934	0.930	0.866	0.811	0.764	0.786	0.757	0.749	0.606	0.570	0.818	1.138	1.701	2.405	2.634	2.374	2.113	3.594	8.951	18.99	42.29	77.81	105.3	144.7	110.6	19.07	9.503	1.402	0.709	0.722	0.684	0.547	0.547	0.504	0.541	0.505
275.0	195.4	148.2	88.99	64.66	97.96	255.7	571.6	502.5	1227	2988	9999.9	9999.9	1255	73.86	21.73	14.98	10.14	7.862	6.922	6.115	4.403	3.919	4.165	3.295	2.907	2.750	2.624	2.214	2.308	2.297	2.193	1.926	1.803	1.607	1.538	1.414	1.345	1.171	1.105	1.111	1.089	1.051	1.152	1.021	1.180	0.971	0.942	1.010	0.912	0.714	0.632	0.730	0.779	0.878	1.214	1.735	3.041	4.064	2.913	2.939	4.947	10.31	18.12	25.00	45.15	98.44	177.3	185.1	30.60	12.42	1.278	0.729	0.757	0.724	0.577	0.704	0.606
280.0	269.8	230.2	122.7	64.13	60.05	118.3	415.7	616.0	414.0	756.8	3638	9999.9	9999.9	931.9	43.45	20.48	13.60	9.869	7.509	6.867	5.430	4.296	4.428	3.593	3.464	3.053	2.891	2.486	2.644	2.372	2.388	2.052	2.039	2.045	1.851	1.761	1.579	1.320	1.300	1.366	1.315	1.222	1.291	1.197	1.284	1.197	1.212	1.238	0.963	0.741	0.655	0.682	0.749	0.665	0.873	1.029	1.564	3.041	4.085	3.957	2.625	3.053	4.821	6.365	10.93	24.95	65.06	147.3	205.1	172.3	24.92	5.609	0.852	0.774	0.820	0.703	0.650
285.0	365.5	304.2	167.0	72.19	52.77	75.40	194.1	594.7	358.5	282.5	928.5	5132	9999.9	8911	128.0	29.56	16.36	11.77	9.397	7.865	6.023	4.683	4.672	3.833	3.574	3.221	3.101	2.629	2.823	2.476	2.434	2.122	2.208	2.079	1.956	1.908	1.709	1.582	1.285	1.449	1.489	1.419	1.479	1.319	1.365	1.444	1.427	1.283	1.139	0.855	0.756	0.640	0.770	0.793	0.678	0.818	0.900	1.578	2.467	4.258	4.187	2.867	1.980	2.211	3.271	6.475	15.60	38.77	92.60	185.6	214.2	34.67	17.56	2.473	0.824	0.828	0.773
290.0	464.1	395.6	218.8	93.02	61.64	70.78	104.3	273.6	556.6	484.3	359.7	1307	5442	9999.9	9999.9	2633	45.40	18.08	12.59	10.94	7.497	5.722	5.277	4.340	4.010	3.675	3.230	2.961	2.924	2.509	2.589	2.344	2.272	2.057	2.174	2.065	2.013	1.755	1.572	1.646	1.505	1.571	1.601	1.494	1.582	1.584	1.670	1.626	1.430	0.942	0.828	0.830	0.763	0.792	0.765	0.810	0.864	1.016	1.292	1.985	2.997	3.957	3.924	3.199	2.202	2.480	4.547	9.719	22.09	48.28	88.06	117.7	159.2	133.4	95.35	12.95	2.643
295.0	506.9	458.9	266.3	126.7	77.47	77.70	95.01	148.8	282.8	679.4	605.0	467.6	1364	2781	9999.9	9999.9	724.1	46.76	18.59	14.91	9.160	7.064	5.982	5.082	4.691	4.279	3.806	3.276	3.124	2.964	2.784	2.489	2.560	2.306	2.390	2.212	2.088	1.939	1.626	1.706	1.602	1.721	1.730	1.678	1.774	1.925	1.637	1.738	1.485	1.088	0.878	0.903	0.841	0.828	0.843	1.005	1.000	0.945	1.122	1.326	1.614	1.869	2.837	4.552	5.304	3.465	2.514	3.265	6.165	11.84	20.72	27.59	41.71	88.14	184.0	216.7	35.79
300.0	564.3	483.5	311.9	154.6	101.8	94.70	108.3	146.3	204.4	445.3	872.8	497.5	490.7	750.9	3386	9999.9	9999.9	573.9	30.26	21.18	12.41	8.616	7.832	6.145	5.154	4.438	3.964	3.753	3.353	3.442	3.101	2.509	2.570	2.239	2.442	2.465	2.065	1.992	1.843	1.873	1.683	1.670	1.725	1.788	1.839	2.046	2.008	2.002	1.595	1.206	0.974	1.107	0.970	0.937	0.992	0.917	1.096	1.071	1.088	1.310	1.390	1.620	1.910	2.790	4.801	6.043	4.703	2.680	2.904	3.900	5.933	7.384	10.47	21.74	55.17	126.7	204.3
305.0	546.9	517.0	350.8	193.7	134.0	123.9	148.8	174.8	224.5	331.6	715.0	871.9	417.7	338.5	894.1	4618	9999.9	9999.9	81.78	29.39	15.43	10.85	9.231	7.032	6.232	4.852	4.096	4.356	3.293	3.266	3.071	2.524	2.650	2.513	2.489	2.307	2.055	2.139	1.927	1.867	1.782	1.713	1.843	1.855	2.085	2.014	2.046	2.103	1.700	1.316	1.098	1.187	1.007	1.082	0.985	1.031	1.261	1.206	1.334	1.468	1.689	1.747	1.821	2.328	2.984	4.414	5.516	5.121	3.338	2.684	2.942	2.923	3.651	6.172	13.54	31.48	75.08
310.0	594.8	564.6	397.8	237.6	169.0	163.7	192.3	226.5	256.6	335.3	491.5	779.6	765.7	379.3	364.5	1173	4423	9999.9	9999.9	2075	36.44	16.05	12.45	8.835	7.294	6.024	5.028	4.503	3.874	3.675	3.514	3.000	2.753	2.580	2.636	2.275	2.163	2.077	1.846	1.924	1.703	1.924	1.905	1.916	2.101	2.164	2.153	2.243	1.948	1.543	1.204	1.347	1.307	1.250	1.223	1.312	1.443	1.473	1.564	1.660	1.763	1.922	2.016	2.409	2.515	3.070	3.601	4.298	4.945	4.829	3.667	2.548	2.359	2.781	4.433	8.248	18.03
315.0	679.0	718.7	491.4	290.1	216.9	218.2	248.5	277.2	303.1	372.5	459.2	567.8	747.9	731.7	339.3	406.9	1099	2585	9999.9	9999.9	2810	38.42	17.58	11.92	9.285	7.078	5.786	5.214	4.405	4.137	3.569	3.301	2.854	2.706	2.638	2.473	2.282	2.207	1.905	2.207	1.842	2.085	2.010	2.124	2.365	2.376	2.423	2.586	2.317	1.578	1.586	1.593	1.559	1.329	1.528	1.550	1.824	1.763	1.831	1.788	1.994	2.008	2.232	2.374	2.643	2.904	3.045	3.155	3.619	3.995	5.576	4.669	3.242	2.286	2.509	3.044	5.322
320.0	1174	1269	797.6	374.1	260.4	266.5	304.3	336.8	380.8	458.6	524.4	588.0	642.6	821.7	557.5	275.6	375.8	664.0	2962	9999.9	9999.9	459.6	30.30	15.33	11.56	8.314	6.379	5.531	4.647	4.480	3.770	3.525	2.915	2.662	2.606	2.342	2.390	2.264	2.103	2.197	2.222	2.451	2.541	2.688	3.336	3.733	3.952	4.299	3.197	2.117	1.717	1.649	1.450	1.703	1.635	1.523	1.996	2.102	2.119	2.116	2.367	2.490	2.503	2.792	3.125	3.272	3.314	3.289	3.578	3.584	4.323	4.995	5.474	4.003	2.573	2.196	2.467
325.0	1653	1885	1170	534.4	333.2	318.9	356.3	403.0	458.5	538.4	623.5	683.0	664.4	706.0	763.5	371.4	234.0	244.9	733.6	4210	9999.9	9999.9	360.0	20.79	14.16	9.765	7.553	6.380	5.315	4.621	4.302	3.646	3.072	2.741	2.577	2.695	2.534	2.522	2.239	2.390	2.339	2.732	3.085	3.414	4.130	4.929	5.740	5.914	4.657	2.902	2.060	2.105	1.734	1.905	1.914	1.945	2.134	2.407	2.497	2.536	2.699	2.911	2.917	3.256	3.382	3.712	3.739	3.665	3.749	3.902	3.908	4.213	4.820	5.730	4.461	2.659	2.211
330.0	1924	2252	1611	848.8	529.6	439.7	415.2	467.5	513.8	604.4	703.0	765.5	737.4	676.8	665.8	590.8	338.0	186.4	249.4	1021	4008	9999.9	9999.9	1695	31.78	13.87	10.17	7.638	6.146	5.717	4.780	4.243	3.590	2.992	2.764	2.831	2.631	2.692	2.410	2.694	2.630	3.107	3.415	3.962	4.905	5.823	6.370	7.008	5.548	3.887	3.319	3.110	2.722	2.679	2.331	2.334	2.489	2.675	2.788	2.711	2.869	3.119	3.256	3.703	3.822	4.111	4.134	4.184	4.097	4.405	4.154	4.261	4.174	4.496	4.302	4.390	3.857
335.0	2346	2797	2044	1237	879.8	619.7	541.8	556.6	596.2	706.5	810.3	883.2	858.4	776.4	649.6	566.9	569.9	292.9	182.0	325.0	971.0	2469	9999.9	9999.9	2635	35.74	13.37	9.669	7.860	6.401	5.293	4.933	3.892	3.393	3.103	2.969	2.997	2.821	2.837	3.382	3.209	3.417	4.012	4.551	5.961	6.733	7.510	8.496	6.932	5.331	4.212	4.678	4.174	3.609	3.207	3.001	3.023	3.150	3.238	3.095	3.383	3.764	3.674	4.161	4.412	4.453	4.879	4.756	4.872	4.605	4.907	4.959	4.650	4.736	3.917	4.042	4.432
340.0	2454	2897	2267	1428	1027	717.0	607.8	598.1	636.3	743.7	852.6	936.4	915.7	838.3	686.5	534.4	554.3	458.7	210.4	179.9	301.3	617.7	2866	9999.9	9999.9	415.7	26.20	12.47	9.118	7.636	6.295	5.198	3.925	3.690	3.397	3.085	3.377	2.936	3.265	3.505	3.529	3.638	4.308	4.782	6.136	6.964	8.044	9.029	7.595	5.654	4.854	5.330	4.882	4.129	3.541	3.275	3.151	3.285	3.310	3.312	3.481	3.772	3.946	4.269	4.497	4.549	5.140	4.975	5.144	5.019	5.067	5.069	4.886	4.577	3.996	3.729	3.832
345.0	2299	2799	2251	1511	1107	784.5	630.5	604.1	643.0	732.8	836.4	917.4	925.7	846.1	703.5	529.2	458.6	496.2	315.9	160.4	154.3	206.3	698.4	3379	9999.9	9999.9	341.9	17.67	11.15	9.073	7.207	5.773	4.210	4.057	3.395	3.101	3.432	3.084	3.339	3.856	3.519	3.824	4.343	4.762	5.626	6.694	7.532	8.713	7.039	5.881	5.196	5.442	5.244	4.687	3.957	3.651	3.192	3.282	3.335	3.444	3.665	3.691	3.942	3.998	4.599	4.600	4.940	4.942	4.987	5.085	5.179	4.971	4.987	4.758	4.101	3.710	3.720
350.0	2137	2566	2125	1534	1176	840.2	655.4	611.6	626.3	704.2	810.3	897.8	906.5	846.6	719.8	548.3	435.4	393.3	393.6	267.3	149.6	127.6	221.7	806.3	3451	9999.9	9999.9	1560	28.51	12.05	8.834	6.843	5.022	4.267	3.760	3.511	3.606	3.477	3.603	3.995	3.727	3.949	4.210	4.691	5.377	6.382	6.943	7.850	6.922	5.572	5.139	5.788	5.452	5.105	4.333	3.788	3.449	3.329	3.498	3.485	3.538	3.629	3.742	4.029	4.439	4.631	4.777	4.693	5.049	5.287	5.224	4.931	5.017	4.885	4.287	3.790	3.825
355.0	1969	2328	1995	1527	1222	883.4	677.7	617.8	608.7	671.8	760.4	842.9	870.4	821.5	716.5	563.3	445.0	356.0	318.3	356.7	242.9	140.8	137.0	245.5	817.3	2365	8376	9999.9	2609	34.35	12.27	8.864	6.113	4.505	4.456	3.882	3.898	3.810	3.934	3.867	3.981	3.942	4.270	4.382	4.958	5.758	6.627	7.027	6.498	5.293	5.109	5.622	5.305	4.975	4.491	4.264	3.545	3.544	3.469	3.367	3.349	3.657	3.547	4.001	4.304	4.370	4.508	4.819	4.766	5.110	4.952	5.053	4.879	4.648	4.281	3.822	4.071
360.0	1737	2035	1783	1465	1181	871.1	664.5	607.8	580.5	628.1	717.6	785.8	822.7	791.4	693.5	558.1	447.5	358.3	295.3	317.6	343.9	200.3	140.9	142.7	247.8	578.0	2172	9999.9	9999.9	2075	25.90	11.05	7.270	5.499	4.702	4.320	4.036	4.036	4.010	4.155	3.861	3.936	3.941	4.193	4.594	5.211	6.001	6.316	6.201	5.081	5.009	5.756	5.068	4.985	4.319	3.980	3.777	3.406	3.413	3.143	3.194	3.484	3.554	3.576	3.940	4.010	3.966	4.643	4.619	4.297	4.784	4.934	4.933	4.662	4.304	3.947	3.811
365.0	1686	1817	1642	1347	1127	861.8	662.4	575.8	550.6	585.5	665.7	732.0	776.7	746.3	664.6	551.7	444.6	367.2	304.3	285.8	347.7	305.3	181.9	141.3	139.7	193.0	531.5	2926	9999.9	9999.9	351.4	16.91	9.284	6.416	5.138	4.677	4.275	4.178	4.127	3.887	4.084	3.705	3.932	3.759	4.459	4.884	5.216	5.891	5.385	4.507	4.340	5.281	5.136	4.621	4.328	3.919	3.623	3.432	3.431	3.346	3.081	3.305	3.367	3.281	3.769	3.914	3.867	4.286	4.352	4.298	4.540	4.684	4.471	4.553	4.286	4.076	3.849
370.0	1438	1600	1446	1239	1061	830.0	635.7	551.4	524.2	542.0	607.3	672.4	702.0	690.1	626.3	532.3	448.4	383.8	333.1	305.9	312.7	352.3	303.6	194.1	147.3	129.3	179.0	694.8	3050	9999.9	9999.9	1449	25.55	9.149	7.051	5.712	4.954	4.361	4.016	4.006	3.810	3.800	3.869	3.611	4.075	4.344	4.812	5.230	4.809	4.293	4.236	4.945	4.807	4.471	3.972	3.738	3.578	3.306	3.234	3.123	3.006	3.259	3.184	3.226	3.521	3.593	3.597	3.807	3.960	3.910	3.993	4.306	4.266	4.358	4.067	3.714	3.684
375.0	1257	1366	1268	1115	987.6	776.6	613.4	519.9	496.1	507.2	553.2	611.5	636.4	634.1	585.5	516.7	444.9	401.6	362.1	340.4	327.7	332.0	372.1	307.1	190.5	141.1	117.7	206.8	715.0	2320	7283	9999.9	2394	30.33	10.17	7.605	6.334	5.103	4.674	4.132	3.963	3.753	3.685	3.528	3.728	4.045	4.236	4.642	4.223	3.856	4.078	4.578	4.227	4.184	3.870	3.573	3.473	3.349	2.974	3.039	2.866	2.986	2.952	3.042	3.158	3.378	3.197	3.324	3.502	3.756	3.826	3.947	3.986	3.915	3.704	3.684	3.619
380.0	1159	1206	1160	1034	924.0	746.4	600.7	521.8	474.3	483.5	534.3	580.4	605.9	597.8	558.9	501.8	453.1	412.1	385.9	368.2	352.8	342.4	357.2	377.4	260.8	166.6	124.3	112.2	205.6	553.9	1870	9654	9999.9	1757	25.05	11.98	8.755	6.121	5.236	4.390	3.855	3.746	3.611	3.464	3.517	3.900	4.096	4.319	4.087	3.602	3.611	4.235	4.044	3.882	3.879	3.389	3.355	2.904	3.086	2.967	2.823	2.913	2.826	2.697	3.173	3.180	3.187	3.333	3.418	3.461	3.705	3.639	3.887	3.878	3.525	3.711	3.659
385.0	1110	1161	1084	1004	891.6	741.0	609.6	554.2	494.3	505.1	558.8	593.5	615.1	604.4	566.3	504.3	460.5	427.9	416.1	402.4	390.3	377.3	371.5	389.1	354.2	226.3	159.1	123.1	121.7	172.3	472.4	2704	9999.9	9999.9	294.8	24.82	14.50	8.866	5.901	4.891	4.075	4.012	3.617	3.544	3.556	3.710	3.717	4.215	3.689	3.417	3.344	4.229	3.795	3.840	3.576	3.620	3.268	3.035	3.081	2.736	2.889	3.042	2.738	2.732	3.092	3.095	3.196	3.329	3.331	3.400	3.309	3.553	3.993	3.707	3.501	3.658	3.565
390.0	1150	1139	1112	1042	959.9	839.8	750.6	711.5	703.7	753.5	822.5	842.9	825.8	774.4	701.6	608.1	546.0	512.7	502.7	501.1	503.8	495.8	485.2	470.6	488.7	406.5	320.6	273.6	243.3	237.9	285.5	759.2	2872	8262	9999.9	1264	102.5	22.44	11.31	6.596	4.944	4.305	4.009	3.613	3.599	3.646	3.835	3.980	3.847	3.418	3.358	4.290	4.007	4.082	3.836	3.723	3.629	3.538	3.540	3.410	3.370	3.466	3.406	3.701	3.848	3.853	3.961	4.107	4.091	4.148	4.155	4.145	4.364	4.191	4.059	4.149	3.876
395.0	1361	1392	1391	1322	1284	1201	1153	1198	1317	1475	1596	1521	1370	1214	1051	894.4	781.5	718.6	690.5	733.5	767.3	799.4	823.6	836.5	834.4	837.3	798.3	704.0	657.0	623.5	596.3	524.3	963.9	2197	5979	9999.9	2104	122.7	28.28	12.01	7.043	5.305	4.917	4.300	4.297	4.184	3.947	4.534	4.418	4.144	3.966	4.836	4.771	4.650	4.776	4.618	4.903	4.907	4.815	5.141	5.039	5.609	5.860	6.110	6.282	6.613	6.793	6.746	6.446	6.308	6.360	5.996	6.103	5.444	5.401	5.521	5.302
400.0	1779	1756	1833	1759	1749	1729	1768	1881	2134	2180	2679	2612	2358	2030	1685	1356	1136	1030	1001	1052	1109	1191	1265	1331	1349	1365	1396	1326	1240	1203	1147	1009	952.3	1094	1967	8285	9999.9	1621	71.58	20.64	10.36	6.971	5.911	5.223	5.259	4.949	4.932	5.714	5.314	5.184	5.017	5.702	6.152	5.969	6.200	6.016	6.594	7.063	7.098	7.468	7.822	8.333	8.972	9.536	10.15	10.14	10.01	10.16	9.809	9.645	9.349	8.851	8.507	7.979	7.584	7.561	7.428
405.0	2324	2283	2367	2353	2314	2360	2470	2716	3130	3557	3950	3845	3423	2892	2363	1886	1533	1375	1342	1397	1502	1631	1775	1902	1972	2005	2064	2078	1983	1914	1837	1629	1382	1192	1229	2881	9593	9448	279.0	34.29	13.88	9.102	7.622	6.419	5.729	5.938	6.157	6.947	6.540	6.109	6.387	7.214	7.483	7.511	7.783	8.233	8.786	9.678	9.603	10.29	11.10	11.94	13.00	14.05	14.58	14.73	14.17	14.75	13.82	13.18	12.92	11.86	11.70	11.00	10.37	9.466	9.508
410.0	2719	2762	2858	2871	2854	2940	3134	3470	4047	4682	5118	4984	4412	3718	3015	2375	1907	1693	1649	1712	1850	2035	2237	2415	2533	2606	2667	2715	2685	2586	2475	2221	1855	1518	1326	1504	3142	7220	7835	1176	27.05	12.05	9.218	7.932	7.154	7.118	6.952	7.895	7.708	7.046	7.275	8.596	8.666	8.866	9.147	9.898	10.98	11.42	12.15	12.81	13.87	15.39	16.59	17.53	18.58	18.76	18.46	18.35	17.29	16.85	15.66	14.79	14.31	13.43	12.43	11.87	11.11
415.0	2679	2793	2915	2947	2967	3054	3248	3612	4237	4919	5364	5235	4611	3908	3149	2468	1977	1751	1706	1769	1916	2107	2322	2512	2625	2691	2748	2776	2759	2709	2565	2297	1920	1562	1313	1167	1283	1952	4401	9226	1810	27.28	10.81	8.815	7.960	7.592	7.204	8.121	7.781	7.217	7.316	8.886	8.880	9.550	9.621	9.794	11.21	11.78	12.50	13.53	14.35	15.75	16.77	17.95	19.41	19.61	18.79	18.28	17.64	17.24	16.15	15.43	14.15	14.09	12.76	11.86	11.48
