Sample:	'1
File name:	Default_20230428_142550.FD3
Run date:	'14:19:29, 04/28/2023
Operator:	user
Comment:	'

Instrument
Model:	F-2700 FL Spectrophotometer
Serial number:	2190-003
ROM Version:	4J14000 07

Instrument parameters
Measurement type:	3-D scan
Data mode:	Fluorescence
EX  Start WL:	220.0 nm
EX  End WL:	600.0 nm
EX Sampling interval:	5.0 nm
EM  Start WL:	230.0 nm
EM  End WL:	650.0 nm
EM Sampling interval:	5.0 nm
Scan speed:	12000 nm/min
EX Slit:	5.0 nm
EM Slit:	5.0 nm
PMT Voltage:	700 V
Response:	Auto 
Corrected spectra:	Off
Contour interval:	50.000

Peak integration
Integration method:	Rectangular
Sensitivity:	1
Threshold:	1.000

Peaks
No.	ApexEX/EM(nm)	Height(Data)
1	225.0/595.0	42.21
2	230.0/325.0	205.7
3	230.0/340.0	178.2
4	230.0/560.0	45.93
5	230.0/580.0	46.37
6	230.0/605.0	43.60
7	230.0/635.0	37.76
8	235.0/335.0	195.0
9	235.0/345.0	188.3
10	235.0/360.0	182.8
11	235.0/505.0	114.6
12	240.0/515.0	135.8
13	245.0/265.0	214.4
14	245.0/335.0	167.2
15	245.0/355.0	193.3
16	245.0/530.0	113.0
17	245.0/565.0	41.02
18	250.0/545.0	113.5
19	250.0/585.0	28.10
20	250.0/605.0	27.53
21	250.0/625.0	26.85
22	255.0/280.0	341.0
23	255.0/395.0	287.7
24	255.0/555.0	100.4
25	255.0/640.0	19.52
26	260.0/285.0	446.0
27	260.0/565.0	102.5
28	265.0/290.0	462.9
29	265.0/410.0	317.1
30	265.0/580.0	90.94
31	270.0/295.0	653.8
32	270.0/425.0	316.1
33	270.0/590.0	81.50
34	275.0/305.0	783.2
35	275.0/390.0	337.8
36	275.0/415.0	327.0
37	275.0/445.0	319.0
38	275.0/600.0	78.89
39	280.0/310.0	787.0
40	280.0/335.0	450.9
41	280.0/345.0	454.2
42	280.0/400.0	334.2
43	280.0/410.0	327.1
44	280.0/615.0	76.35
45	285.0/315.0	795.0
46	285.0/385.0	352.9
47	285.0/405.0	337.1
48	285.0/625.0	59.82
49	290.0/320.0	761.2
50	290.0/635.0	50.45
51	305.0/340.0	449.4
52	310.0/345.0	401.8
53	315.0/350.0	317.8
54	320.0/360.0	330.5
55	325.0/365.0	330.1
56	330.0/245.0	3.726
57	330.0/370.0	292.0
58	335.0/375.0	292.8
59	340.0/240.0	4.717
60	340.0/385.0	299.8
61	345.0/390.0	262.7
62	350.0/395.0	263.1
63	355.0/405.0	257.2
64	360.0/410.0	227.7
65	365.0/245.0	3.362
66	365.0/415.0	226.9
67	370.0/425.0	209.1
68	375.0/430.0	182.2
69	380.0/435.0	166.3
70	385.0/445.0	149.4
71	390.0/450.0	128.9
72	400.0/465.0	95.07
73	405.0/470.0	79.70
74	410.0/475.0	68.65
75	415.0/485.0	60.82
76	420.0/490.0	51.02
77	430.0/505.0	38.65
78	440.0/515.0	27.45
79	445.0/525.0	23.71
80	450.0/530.0	19.67
81	455.0/535.0	16.09
82	480.0/570.0	5.088
83	505.0/275.0	2.731
84	510.0/280.0	3.039
85	535.0/295.0	3.784
86	540.0/300.0	3.734
87	550.0/305.0	4.106
88	550.0/345.0	2.891
89	560.0/310.0	3.547
90	570.0/315.0	3.776
91	575.0/320.0	3.993
92	585.0/325.0	3.290

Data points
	220.0	225.0	230.0	235.0	240.0	245.0	250.0	255.0	260.0	265.0	270.0	275.0	280.0	285.0	290.0	295.0	300.0	305.0	310.0	315.0	320.0	325.0	330.0	335.0	340.0	345.0	350.0	355.0	360.0	365.0	370.0	375.0	380.0	385.0	390.0	395.0	400.0	405.0	410.0	415.0	420.0	425.0	430.0	435.0	440.0	445.0	450.0	455.0	460.0	465.0	470.0	475.0	480.0	485.0	490.0	495.0	500.0	505.0	510.0	515.0	520.0	525.0	530.0	535.0	540.0	545.0	550.0	555.0	560.0	565.0	570.0	575.0	580.0	585.0	590.0	595.0	600.0
230.0	38.44	134.3	 1256	 1189	91.68	20.77	17.37	16.84	14.44	10.93	12.11	8.277	8.155	7.612	6.328	5.226	4.830	4.593	4.045	3.739	3.263	2.943	3.281	2.656	2.735	2.303	1.957	2.119	2.220	2.256	1.989	1.702	1.968	1.914	1.801	1.964	1.831	1.518	1.754	1.642	1.545	1.273	1.466	1.257	1.300	1.275	1.315	2.548	5.207	4.711	2.462	1.332	1.043	1.058	1.082	1.232	0.994	1.010	0.915	1.045	0.929	0.880	1.033	1.036	0.940	1.021	0.944	0.852	0.842	0.867	0.855	0.793	1.066	0.889	1.048	0.969	0.991
235.0	43.70	69.02	471.0	 1882	 1311	130.6	23.82	16.37	11.28	13.58	11.45	8.272	10.48	7.254	6.227	5.091	4.330	5.336	4.305	4.009	3.313	2.998	3.189	2.390	2.984	2.216	2.177	2.098	2.418	2.076	2.209	2.217	2.218	1.816	1.645	1.714	1.630	1.680	1.519	1.633	2.002	1.455	1.188	1.074	1.437	1.354	1.247	1.808	2.402	4.094	6.123	6.429	3.952	1.405	1.382	0.999	1.022	0.983	1.140	1.095	0.907	0.638	1.011	0.853	0.959	1.098	1.071	1.081	0.763	0.970	0.757	0.832	0.880	0.811	0.883	1.225	0.817
240.0	58.95	58.52	131.1	923.2	 2395	 1229	96.25	17.28	10.71	12.72	12.35	10.21	8.947	8.500	6.747	6.207	3.956	4.011	3.708	2.912	3.403	2.729	2.773	2.615	4.717	3.103	2.204	2.011	2.110	2.780	2.289	2.294	1.873	1.885	1.756	1.721	1.669	1.817	1.836	1.935	1.760	1.593	1.115	1.145	1.094	1.420	1.405	1.457	1.194	1.734	3.519	7.868	10.74	7.347	3.245	1.151	1.040	0.839	1.108	1.074	0.983	0.902	0.876	0.949	1.138	0.810	0.852	0.860	0.922	0.948	0.929	0.812	1.015	0.833	0.845	0.948	0.973
245.0	35.94	57.73	59.36	272.5	 1442	 3206	 1121	47.87	14.20	12.73	12.63	9.428	8.251	8.847	7.096	5.587	4.750	5.040	4.686	3.364	3.123	2.671	3.726	2.328	3.282	2.645	2.478	2.510	2.318	3.362	1.726	2.070	2.403	1.314	1.602	1.804	1.603	1.989	1.718	1.617	1.588	1.925	1.326	1.673	1.837	1.526	1.456	1.203	1.218	1.061	1.592	3.202	6.667	11.54	12.47	6.770	1.766	0.866	1.013	1.148	1.002	0.754	0.952	0.941	0.781	1.367	0.914	1.076	0.916	1.068	0.935	0.944	0.893	0.683	0.883	0.821	1.114
250.0	41.34	42.27	85.48	132.4	387.9	 1678	 3422	 2402	427.7	20.57	14.89	9.960	10.54	9.068	6.871	5.632	5.694	4.421	4.788	4.004	3.388	3.018	3.164	3.271	2.669	2.371	2.735	2.376	2.196	2.779	2.022	2.028	2.509	1.676	1.719	1.848	1.536	1.714	1.846	1.617	1.230	1.798	1.365	1.504	1.596	1.422	1.334	1.195	1.361	1.166	1.330	1.672	2.361	4.469	7.869	11.59	14.72	12.63	6.576	2.151	0.945	0.791	0.876	0.883	0.920	1.071	0.966	0.916	1.067	1.043	0.972	0.962	0.850	0.725	0.787	0.883	1.057
255.0	43.87	39.86	47.57	122.1	169.8	404.0	 1252	 4834	 5938	417.3	17.13	8.471	12.36	10.49	8.036	7.874	5.757	4.091	5.278	4.436	3.348	3.490	2.666	2.858	2.580	2.100	2.291	2.122	1.969	2.036	1.963	2.112	2.268	1.687	1.937	2.005	1.558	1.515	1.547	1.438	1.385	1.493	1.423	1.074	1.450	1.477	1.440	1.152	1.267	0.942	1.664	1.690	1.526	2.070	2.612	3.493	6.156	13.68	22.80	22.19	9.635	2.106	1.030	0.939	0.775	0.868	1.110	0.830	0.703	1.064	0.822	1.021	0.972	0.707	0.871	1.086	0.907
260.0	39.50	40.71	31.29	86.72	185.6	160.5	321.6	 2162	 8388	 4009	222.4	15.50	15.46	9.678	9.675	8.586	6.334	5.756	5.348	4.255	2.898	2.892	2.772	2.593	2.622	2.684	2.992	2.379	2.037	2.340	2.558	2.006	2.256	1.982	1.632	1.563	1.534	1.205	1.566	1.518	1.976	1.338	1.506	1.320	1.348	1.432	1.381	1.295	1.307	0.837	1.170	1.464	1.558	1.663	1.669	2.016	2.275	4.427	11.07	22.55	30.47	20.08	5.880	1.029	1.039	0.691	0.915	0.998	0.952	1.283	0.969	0.998	0.786	0.907	0.942	1.000	0.664
265.0	26.32	34.16	28.67	46.99	133.4	214.4	124.2	549.1	 4018	 8259	 1080	108.4	15.46	10.17	9.214	8.894	6.875	6.284	4.893	3.961	3.189	3.247	3.345	2.272	2.341	3.304	2.593	2.523	3.001	2.317	2.182	2.236	2.262	1.693	1.780	1.768	1.343	1.525	1.872	1.518	1.713	1.514	1.355	1.362	1.587	1.303	1.331	1.179	1.421	1.017	1.174	1.213	1.656	2.181	1.599	1.592	1.437	1.816	3.257	7.631	18.51	31.75	30.89	13.94	3.009	0.880	0.879	0.902	1.014	0.975	1.013	0.670	0.704	0.825	0.784	0.941	0.888
270.0	50.40	42.14	30.69	32.68	59.88	164.7	243.4	201.2	987.1	 3658	 6867	 4088	359.2	16.86	10.83	9.008	6.844	6.822	5.147	3.845	3.301	3.603	3.437	2.717	2.732	2.760	2.350	2.310	2.592	2.193	2.028	2.153	2.332	1.838	1.840	1.606	1.378	1.776	1.446	1.468	1.623	1.247	1.683	1.502	1.462	1.446	1.273	1.191	1.236	0.939	1.067	1.152	1.074	1.680	1.718	1.972	1.685	1.506	1.734	2.526	5.302	10.17	18.31	26.42	31.45	24.14	10.56	2.248	0.883	0.940	1.035	1.069	0.892	1.023	1.010	1.067	1.124
275.0	52.76	42.31	32.63	32.56	40.22	56.56	194.9	337.9	295.3	849.1	 2253	 8558	 6413	429.7	16.58	10.45	8.533	8.970	4.190	4.516	4.737	2.988	3.642	3.189	2.574	3.031	2.681	2.031	2.819	1.827	2.571	2.070	2.608	1.657	1.661	1.665	1.480	1.466	1.765	1.586	1.397	1.332	1.621	1.182	1.486	1.412	1.181	1.068	1.362	1.126	1.074	1.039	0.924	1.164	1.293	1.476	1.899	2.731	2.188	1.291	1.986	3.091	5.490	7.037	12.76	28.88	45.59	34.99	11.97	1.548	0.819	0.937	0.979	0.883	1.036	1.140	1.182
280.0	50.94	52.75	48.70	39.21	37.71	32.57	87.27	341.0	320.3	235.1	553.6	 3313	9999.9	 5055	267.2	14.02	10.55	8.344	5.147	6.008	4.795	3.689	3.957	4.052	3.071	2.904	2.894	2.086	2.655	2.241	2.327	2.378	2.480	2.220	1.888	1.323	1.719	1.311	1.364	1.183	1.408	1.462	1.425	1.428	1.588	1.629	1.112	1.414	1.371	1.116	1.199	1.097	1.045	1.090	1.166	1.639	1.253	1.988	3.039	2.601	1.936	1.478	1.961	2.454	3.753	8.194	21.23	42.69	48.47	25.50	4.342	1.364	0.893	0.739	1.176	0.799	1.162
285.0	48.86	47.75	43.02	46.27	36.73	32.25	39.71	154.8	446.0	240.4	175.4	840.2	 4944	9999.9	 3735	103.6	14.26	8.575	7.716	6.760	5.475	3.948	3.884	4.301	2.933	3.142	3.152	2.254	2.677	2.272	2.966	2.595	2.596	2.076	2.080	1.451	1.933	1.700	1.433	1.597	1.172	1.552	1.453	1.189	1.693	1.312	1.214	1.598	1.182	1.023	1.009	1.341	1.261	0.974	1.058	1.249	1.344	1.271	1.864	2.637	2.701	1.627	1.647	1.468	2.064	2.661	5.738	13.74	31.60	50.21	40.36	15.55	2.314	0.974	0.961	0.904	0.977
290.0	50.19	67.58	66.43	62.83	42.94	42.92	40.54	74.21	236.9	462.9	307.0	294.6	 1265	 4582	9999.9	 5838	250.3	14.09	9.851	7.132	6.870	4.605	4.384	4.157	3.069	3.655	2.810	2.639	2.772	2.311	2.425	2.473	2.347	1.962	2.192	1.849	1.938	1.775	1.938	1.530	1.495	1.573	1.539	1.272	1.477	1.440	1.387	1.368	1.279	1.178	1.106	1.420	1.165	1.105	1.272	1.277	1.236	1.316	1.586	1.677	2.058	2.547	2.762	2.354	2.000	1.578	2.170	4.183	8.394	17.13	28.12	35.48	37.05	25.35	10.58	1.862	0.993
295.0	45.88	84.04	80.06	77.63	56.09	53.19	46.32	65.46	113.3	277.5	653.8	392.0	457.7	 1163	 2945	9999.9	9999.9	295.0	13.52	8.870	7.255	6.603	4.709	5.500	3.424	3.903	3.054	2.745	3.265	2.728	2.073	3.129	2.521	1.650	2.469	1.884	1.926	1.854	1.509	1.786	1.688	1.151	1.487	1.371	1.285	1.646	1.726	1.505	1.508	1.370	1.329	1.332	1.283	1.183	1.257	1.394	1.208	1.189	1.713	1.352	1.250	1.771	2.610	3.784	3.698	2.204	1.605	2.096	2.992	4.752	6.991	9.432	15.91	32.79	52.39	36.39	10.38
300.0	56.81	86.85	86.00	87.29	74.51	63.40	64.56	73.13	104.6	182.8	510.2	742.5	380.0	429.4	779.5	 3674	9999.9	 3207	193.9	11.46	8.778	6.459	5.054	4.528	3.952	4.246	3.192	3.303	3.083	2.949	2.865	2.304	2.484	2.099	2.482	1.888	1.837	1.537	1.925	1.713	1.931	1.536	1.858	1.259	1.400	1.371	1.598	1.649	1.529	1.351	1.468	1.372	1.374	1.160	1.071	1.147	1.487	1.166	1.391	1.274	1.399	1.504	1.783	2.366	3.734	3.696	2.581	2.039	1.717	2.024	2.761	3.062	4.483	9.864	26.98	49.29	52.78
305.0	70.91	98.85	122.9	112.5	80.03	71.66	70.13	84.47	123.0	180.9	325.6	783.2	656.1	328.3	315.0	931.2	 5688	9999.9	 2593	90.30	11.64	7.934	6.807	5.022	4.353	4.363	3.393	2.796	2.870	2.639	2.631	2.599	2.257	2.142	2.114	2.181	1.593	1.780	1.804	1.596	1.770	1.419	1.763	1.252	1.872	1.309	1.217	1.339	1.645	1.228	1.422	1.644	1.461	1.204	1.219	1.171	1.524	1.288	1.425	1.439	1.777	1.337	1.981	1.959	2.660	3.353	4.106	3.505	2.168	1.893	1.798	1.793	1.897	3.272	7.278	17.03	38.48
310.0	73.57	108.9	141.6	120.4	89.85	96.84	82.89	102.2	139.0	199.2	290.7	492.6	787.0	615.6	283.4	317.3	 1388	 4686	 9410	 6002	167.3	12.51	8.545	5.990	4.964	4.571	3.580	3.148	3.275	3.267	3.246	2.410	2.433	2.169	2.347	2.063	1.957	1.489	1.455	1.548	1.693	1.770	1.563	1.511	1.312	1.383	1.308	1.367	1.659	1.204	1.368	1.591	1.361	1.273	1.344	1.375	1.371	1.464	1.235	1.425	1.726	1.472	1.943	1.904	1.955	2.271	2.878	3.008	3.547	2.786	2.050	1.934	1.511	1.843	2.762	4.612	10.22
315.0	78.79	117.1	156.5	157.4	103.9	127.7	90.63	106.8	154.2	220.0	304.6	398.2	538.2	795.0	559.2	226.5	383.5	 1091	 2786	9999.9	 8320	226.5	12.24	7.710	6.316	4.869	4.233	3.221	3.331	3.180	3.026	2.194	2.549	2.524	2.367	1.845	2.092	1.895	1.545	1.772	1.557	1.934	1.621	1.536	1.561	1.700	1.233	1.390	1.497	1.573	1.326	1.409	1.535	1.615	1.409	1.195	1.526	1.603	1.531	1.744	1.691	1.426	2.034	2.024	2.002	1.789	2.163	2.370	3.098	3.505	3.776	2.858	2.061	1.634	1.758	2.147	3.249
320.0	80.95	131.7	162.7	153.1	110.2	143.0	108.6	120.7	170.4	229.2	329.5	391.9	465.1	586.1	761.2	347.9	175.9	298.3	668.7	 3744	9999.9	 2298	152.8	10.38	6.633	6.032	4.272	4.030	3.367	3.375	3.579	2.554	2.637	2.428	2.414	1.960	1.879	1.488	1.403	1.986	1.435	1.658	1.134	1.843	1.468	1.517	1.028	1.483	1.345	1.629	1.119	1.617	1.396	1.632	1.180	1.294	1.609	1.362	1.857	1.600	1.830	1.630	2.106	2.144	1.775	2.057	1.874	2.313	2.410	2.341	3.258	3.993	2.921	2.084	1.552	1.369	1.800
325.0	81.42	127.6	205.7	163.8	116.4	145.0	103.4	138.5	180.1	238.7	321.9	398.9	445.9	458.7	655.4	579.9	190.8	130.2	189.9	898.1	 5033	9999.9	 1964	84.10	8.611	7.003	5.499	4.137	3.758	4.024	3.568	3.125	2.594	2.566	2.213	2.241	2.119	1.505	1.460	1.884	1.414	1.740	1.370	1.680	1.890	1.246	1.407	1.435	1.629	1.625	1.322	1.391	1.546	1.812	1.650	1.494	1.625	1.470	1.906	1.953	2.021	1.565	1.907	2.248	1.956	2.184	2.117	2.334	2.362	1.938	2.520	3.252	3.248	3.290	1.884	1.453	1.216
330.0	96.03	127.6	200.2	183.4	136.5	155.0	116.0	143.5	195.0	265.8	333.8	410.0	450.0	455.9	446.9	528.3	426.4	164.1	98.28	240.8	 1205	 4466	 8220	 5174	131.9	11.49	6.501	5.119	4.467	4.067	4.108	3.141	2.518	2.424	2.183	1.898	2.066	1.882	1.642	1.698	1.752	1.711	1.847	1.716	1.423	1.417	1.512	1.435	1.616	1.434	1.403	1.653	1.344	1.511	1.842	1.468	1.761	1.679	1.756	1.788	1.872	1.807	2.043	2.396	2.358	2.336	2.200	2.263	2.616	2.074	2.395	2.376	2.607	2.566	3.046	2.487	2.159
335.0	94.44	147.1	174.7	195.0	147.7	167.2	133.1	168.0	196.1	269.1	331.8	406.7	450.9	447.4	391.6	346.3	420.1	382.1	125.3	104.1	309.7	 1027	 2563	 9357	 7137	182.0	9.663	6.496	5.792	3.951	4.322	3.299	2.692	2.678	2.074	1.818	1.993	2.228	1.506	1.785	1.676	1.890	1.810	1.438	1.325	1.519	1.622	1.891	1.397	1.296	1.195	1.527	1.552	1.706	1.347	1.609	1.901	1.889	1.586	1.758	1.926	2.192	1.991	1.991	2.697	2.387	2.065	2.526	2.557	2.552	2.146	2.180	2.166	2.140	2.121	2.251	3.203
340.0	84.09	117.4	178.2	177.8	156.2	155.3	139.3	174.4	210.5	255.8	347.1	406.7	443.7	446.4	382.0	306.7	293.9	449.4	262.0	91.21	116.0	266.2	609.5	 3695	9999.9	 5340	126.0	8.935	6.778	5.442	4.446	3.830	3.041	2.654	2.637	2.144	2.340	1.910	2.039	1.750	2.111	1.768	1.645	1.776	1.366	1.454	1.509	1.749	1.593	1.642	1.430	1.409	1.615	1.337	1.436	1.282	1.629	1.995	1.949	1.837	1.948	2.138	2.108	2.182	2.530	2.392	2.099	2.583	2.463	2.335	2.098	2.018	2.139	1.851	1.762	1.932	2.506
345.0	79.41	133.4	175.4	188.3	152.8	161.7	161.4	177.1	202.9	264.4	326.4	411.0	454.2	437.5	373.2	307.5	237.0	326.4	401.8	163.7	80.60	102.8	173.5	887.8	 5134	9999.9	 1632	68.40	8.275	6.300	5.845	4.504	3.883	2.425	2.761	2.435	2.512	1.956	2.014	1.898	1.913	1.840	1.502	1.799	1.668	1.437	1.705	1.747	1.703	1.610	1.438	1.428	1.590	1.480	1.685	1.515	1.820	1.694	2.226	1.783	1.886	2.336	2.042	2.702	2.080	2.288	2.891	2.149	2.335	2.242	2.351	1.800	2.386	2.017	2.182	1.784	2.140
350.0	83.07	129.1	165.5	186.8	172.9	179.4	164.0	189.9	214.0	253.8	333.0	380.0	419.4	419.4	367.4	303.3	237.1	223.1	315.7	317.8	155.3	85.38	87.35	237.1	 1245	 4821	 8047	 4640	113.2	9.903	6.281	5.001	4.467	3.488	2.987	2.762	2.356	1.822	2.017	2.081	1.705	1.723	1.514	1.612	1.546	1.491	1.435	1.644	1.608	1.604	1.392	1.359	1.555	1.818	1.606	1.625	1.699	1.771	1.940	2.130	2.036	2.152	1.961	2.620	2.351	2.223	2.313	2.165	2.254	2.054	1.967	1.780	2.092	1.888	1.985	1.859	1.921
355.0	81.83	120.4	175.1	179.2	177.1	193.3	174.3	186.6	215.5	267.8	319.6	359.8	396.0	406.7	363.0	305.6	246.8	212.3	211.1	288.0	321.1	137.7	79.10	101.3	317.0	 1107	 2704	 9037	 6508	156.0	8.015	6.108	4.540	3.912	3.497	2.865	2.933	2.507	1.755	1.822	2.118	1.769	1.768	1.315	2.134	1.307	1.480	1.872	1.465	1.542	1.393	1.401	1.380	1.591	1.816	1.911	1.657	1.879	1.716	2.120	2.112	2.051	2.073	2.600	2.557	2.055	2.125	2.092	2.140	2.292	2.041	1.859	1.936	1.988	1.808	2.006	2.115
360.0	87.10	104.6	155.7	182.8	173.4	183.2	189.3	198.1	233.8	258.5	312.8	352.8	388.4	398.8	363.2	307.2	252.0	219.0	194.2	212.8	330.5	256.6	102.9	83.96	118.9	283.4	644.8	 3833	9999.9	 4706	106.8	7.950	5.763	4.993	3.991	2.930	2.696	2.277	2.033	2.120	2.413	2.229	1.761	1.661	1.867	1.621	2.049	1.833	1.470	1.392	1.616	1.452	1.447	1.700	1.586	1.447	1.546	1.893	1.764	1.924	2.262	2.118	2.088	2.203	2.348	2.081	2.092	2.257	2.371	2.310	1.990	1.938	1.761	2.046	1.920	2.121	1.924
365.0	79.42	119.5	162.2	178.6	181.5	203.3	201.8	206.4	226.9	258.2	314.1	361.9	383.2	379.7	368.3	310.5	260.8	235.8	214.7	196.5	247.9	330.1	181.7	91.81	84.43	111.5	179.5	929.6	 5270	9999.9	 1445	51.87	7.320	5.681	4.004	3.529	3.132	2.324	2.260	2.407	2.393	2.556	1.816	1.712	1.843	2.102	1.762	1.752	1.721	1.365	1.579	1.291	1.568	1.624	1.572	1.537	2.024	1.898	1.722	1.729	2.086	2.470	2.266	2.025	2.397	1.870	2.225	2.084	2.102	2.245	1.975	1.941	2.029	1.880	2.455	1.943	1.985
370.0	95.73	123.6	153.5	196.0	194.3	214.9	214.8	233.5	230.9	275.1	313.7	339.3	361.4	366.6	356.4	312.7	275.0	259.8	228.1	210.4	205.0	256.8	292.0	172.9	99.08	84.80	88.34	245.4	 1285	 4993	 8340	 4297	89.68	7.786	4.965	3.867	3.752	2.659	2.375	2.446	2.414	2.018	1.920	1.610	1.894	1.773	1.537	1.617	1.729	1.573	1.654	1.671	1.581	1.695	1.613	1.395	1.773	2.061	1.964	1.933	1.821	2.324	2.251	2.171	2.220	2.173	2.380	2.392	2.051	2.221	2.129	2.070	1.935	2.082	2.326	1.795	1.930
375.0	89.03	119.7	167.4	207.2	209.1	222.5	221.5	242.8	254.8	280.5	314.6	333.3	351.7	349.0	357.1	322.9	288.6	268.5	248.9	225.3	211.1	213.3	246.2	292.8	159.9	97.08	81.42	102.7	321.8	 1142	 3026	 9369	 5648	116.0	7.018	5.135	4.048	3.409	2.763	2.442	2.403	1.977	2.145	1.656	1.949	2.024	2.042	1.816	1.482	1.725	1.545	1.810	1.445	1.789	2.083	1.856	2.038	1.812	1.651	2.008	2.047	1.770	2.562	2.016	2.296	2.167	2.482	2.263	1.994	2.082	1.872	1.952	2.154	2.027	2.007	1.588	1.849
380.0	89.23	98.29	163.4	214.7	211.4	230.0	233.4	248.7	260.0	275.8	318.2	330.6	351.4	348.9	351.1	321.0	300.6	276.8	264.4	237.3	226.5	207.3	206.0	285.8	253.5	127.8	89.76	79.47	113.1	285.5	718.5	 4363	9999.9	 1302	70.52	6.301	4.455	3.982	2.785	2.521	2.560	2.345	2.195	1.856	1.988	1.700	1.773	2.050	1.549	1.496	1.654	1.814	1.788	2.096	1.843	1.897	2.452	2.386	1.954	1.820	2.267	1.633	2.491	1.832	2.231	2.156	2.053	1.597	2.239	2.250	1.899	1.689	2.035	2.002	1.999	1.776	1.968
385.0	85.28	100.8	167.9	205.7	216.5	238.2	240.0	259.5	272.3	276.1	307.5	326.8	337.8	352.9	340.9	313.1	299.5	285.0	273.3	254.5	234.3	213.5	199.6	228.7	299.8	192.3	109.5	84.94	77.96	104.8	192.4	 1073	 5902	 8846	 1080	25.56	6.081	4.621	3.660	2.881	2.280	2.117	2.339	1.767	2.090	1.391	1.615	1.756	1.693	1.799	1.652	1.849	1.422	2.020	2.172	1.944	2.031	1.907	2.092	2.107	2.257	1.810	2.124	1.861	2.502	2.209	1.841	2.157	2.123	1.846	2.071	1.755	1.927	1.802	1.790	1.950	1.724
390.0	88.66	114.3	150.1	205.9	232.4	237.4	256.6	271.2	276.3	293.5	312.8	337.8	329.7	343.7	338.5	316.7	301.1	293.0	283.5	259.1	246.0	225.4	208.0	203.8	244.1	262.7	179.2	109.2	83.38	77.27	82.79	269.2	 1472	 4820	 7110	 2912	66.09	6.722	4.700	3.466	2.851	2.651	2.320	1.933	1.981	1.682	1.588	1.705	1.792	1.574	1.676	1.961	1.551	2.130	2.016	1.855	2.200	2.054	2.118	2.241	2.128	1.727	2.134	1.858	2.244	2.268	2.146	2.282	2.271	2.009	2.128	2.046	1.816	2.005	2.016	2.147	1.945
395.0	81.92	113.4	143.1	201.9	235.3	244.3	266.7	287.7	285.6	286.7	312.6	326.2	331.3	327.7	334.2	311.1	300.9	291.6	282.4	266.7	249.0	238.2	213.0	207.4	201.3	228.2	263.1	163.8	101.0	83.79	69.08	98.69	354.8	 1100	 2948	 8134	 4074	83.03	5.747	4.154	3.334	2.980	2.382	1.881	2.091	1.960	1.730	1.848	1.715	1.664	1.708	2.254	2.149	2.030	1.819	1.847	2.408	2.034	1.864	2.282	2.162	2.118	2.170	2.206	2.028	2.016	2.006	2.151	1.967	2.313	2.239	2.253	1.881	2.405	2.411	2.478	1.803
400.0	78.66	113.9	159.2	201.1	238.5	240.5	252.5	278.6	292.6	292.4	312.8	328.0	334.2	328.0	331.5	310.5	293.3	296.9	279.5	270.6	251.4	239.2	222.5	212.3	198.3	197.6	251.6	235.9	129.6	96.58	74.21	65.94	110.6	268.1	702.7	 4237	 8447	 1058	49.40	4.901	3.878	3.709	2.739	2.356	1.932	1.711	2.181	2.065	1.650	1.737	1.857	2.014	2.026	1.889	1.583	2.062	2.386	2.179	1.834	2.019	2.300	2.222	2.141	2.094	2.155	2.044	2.163	2.034	2.073	1.845	2.503	1.893	2.590	2.067	1.958	2.684	2.245
