Sample:	'1
File name:	t2025061913Ìï»ªË®Îñ.FD3
Run date:	'15:47:48, 06/23/2025
Operator:	Administrator
Comment:	'

Instrument
Model:	F-2700 FL Spectrophotometer
Serial number:	23B8-004
ROM Version:	4J14000 07

Instrument parameters
Measurement type:	3-D scan
Data mode:	Fluorescence
EX  Start WL:	220.0 nm
EX  End WL:	600.0 nm
EX Sampling interval:	5.0 nm
EM  Start WL:	230.0 nm
EM  End WL:	650.0 nm
EM Sampling interval:	5.0 nm
Scan speed:	12000 nm/min
EX Slit:	5.0 nm
EM Slit:	5.0 nm
PMT Voltage:	700 V
Response:	Auto 
Corrected spectra:	Off
Contour interval:	50.000

Peak integration
Integration method:	Rectangular
Sensitivity:	1
Threshold:	1.000

Peaks
No.	ApexEX/EM(nm)	Height(Data)
1	225.0/580.0	44.69
2	230.0/300.0	271.7
3	230.0/500.0	235.1
4	230.0/555.0	54.18
5	235.0/260.0	312.3
6	235.0/510.0	215.0
7	240.0/265.0	392.7
8	240.0/410.0	612.3
9	240.0/525.0	203.9
10	245.0/270.0	422.9
11	245.0/540.0	172.9
12	250.0/275.0	553.9
13	250.0/550.0	150.5
14	255.0/285.0	567.3
15	255.0/560.0	125.4
16	260.0/290.0	514.9
17	260.0/575.0	103.6
18	265.0/295.0	627.8
19	265.0/585.0	91.57
20	270.0/300.0	822.8
21	270.0/600.0	77.49
22	275.0/305.0	803.4
23	275.0/610.0	61.97
24	280.0/310.0	654.3
25	280.0/625.0	52.06
26	285.0/315.0	618.6
27	285.0/635.0	38.95
28	290.0/325.0	565.3
29	295.0/330.0	435.6
30	300.0/335.0	429.7
31	305.0/345.0	399.3
32	310.0/350.0	365.7
33	315.0/355.0	377.7
34	315.0/395.0	481.9
35	320.0/365.0	397.5
36	320.0/400.0	485.0
37	325.0/370.0	408.1
38	325.0/405.0	483.7
39	330.0/375.0	427.7
40	335.0/385.0	444.4
41	440.0/520.0	19.09
42	495.0/270.0	2.109
43	505.0/275.0	3.132
44	510.0/280.0	3.812
45	515.0/285.0	3.674
46	530.0/290.0	3.133
47	540.0/295.0	4.288
48	545.0/300.0	4.639
49	550.0/305.0	4.757
50	560.0/310.0	3.809
51	570.0/315.0	3.696
52	580.0/320.0	3.888
53	585.0/325.0	3.500

Data points
	220.0	225.0	230.0	235.0	240.0	245.0	250.0	255.0	260.0	265.0	270.0	275.0	280.0	285.0	290.0	295.0	300.0	305.0	310.0	315.0	320.0	325.0	330.0	335.0	340.0	345.0	350.0	355.0	360.0	365.0	370.0	375.0	380.0	385.0	390.0	395.0	400.0	405.0	410.0	415.0	420.0	425.0	430.0	435.0	440.0	445.0	450.0	455.0	460.0	465.0	470.0	475.0	480.0	485.0	490.0	495.0	500.0	505.0	510.0	515.0	520.0	525.0	530.0	535.0	540.0	545.0	550.0	555.0	560.0	565.0	570.0	575.0	580.0	585.0	590.0	595.0	600.0
230.0	67.61	919.9	1418	274.6	11.98	5.864	5.463	4.005	3.239	2.864	2.706	2.134	2.035	1.774	1.475	1.349	1.118	1.092	0.967	0.925	0.824	0.853	0.724	0.664	0.629	0.629	0.549	0.564	0.566	0.523	0.489	0.440	0.418	0.414	0.411	0.411	0.370	0.393	0.384	0.374	0.344	0.367	0.361	0.352	0.304	0.328	1.351	4.240	5.189	2.837	0.812	0.332	0.254	0.267	0.235	0.244	0.260	0.254	0.256	0.249	0.285	0.263	0.249	0.272	0.242	0.262	0.282	0.246	0.272	0.266	0.247	0.257	0.270	0.265	0.278	0.256	0.279
235.0	74.80	290.8	1258	1682	372.4	18.29	5.682	5.042	3.433	2.733	2.729	2.170	2.100	1.764	1.671	1.479	1.088	0.967	0.960	0.930	0.932	0.759	0.714	0.675	0.617	0.672	0.542	0.559	0.568	0.528	0.420	0.442	0.388	0.388	0.376	0.394	0.475	0.405	0.407	0.328	0.309	0.421	0.390	0.380	0.486	0.335	0.547	1.319	2.836	4.594	6.211	5.039	1.824	0.471	0.246	0.234	0.223	0.269	0.235	0.266	0.215	0.302	0.256	0.293	0.245	0.262	0.310	0.218	0.244	0.234	0.231	0.327	0.277	0.283	0.249	0.240	0.268
240.0	118.2	115.2	450.7	1924	1785	280.6	11.69	5.108	4.017	3.527	2.886	2.447	2.050	1.878	1.724	1.269	1.139	0.958	1.094	0.901	0.795	0.702	0.784	0.689	0.629	0.560	0.542	0.596	0.539	0.489	0.433	0.495	0.434	0.390	0.411	0.354	0.372	0.419	0.427	0.361	0.316	0.417	0.373	0.369	0.505	0.452	0.480	0.558	0.873	1.716	4.418	8.869	9.063	4.970	1.573	0.318	0.262	0.277	0.333	0.285	0.242	0.216	0.212	0.292	0.277	0.268	0.286	0.245	0.297	0.233	0.309	0.281	0.269	0.240	0.244	0.280	0.257
245.0	110.9	146.9	148.3	789.0	2547	1666	180.1	6.340	5.148	4.153	2.873	2.658	2.392	1.950	1.791	1.503	1.263	1.044	1.123	0.928	0.840	0.766	0.785	0.820	0.643	0.552	0.684	0.568	0.526	0.518	0.507	0.467	0.425	0.432	0.477	0.319	0.376	0.367	0.365	0.347	0.383	0.354	0.359	0.320	0.455	0.543	0.606	0.606	0.456	0.568	1.271	3.717	8.698	11.86	9.349	4.128	0.975	0.318	0.321	0.340	0.241	0.286	0.285	0.266	0.283	0.258	0.256	0.255	0.283	0.278	0.307	0.236	0.298	0.287	0.293	0.266	0.281
250.0	52.42	145.4	194.0	247.7	940.6	2322	2275	584.4	24.83	5.289	3.908	3.175	2.581	2.056	1.810	1.725	1.262	1.017	1.077	0.875	0.945	0.904	0.794	0.722	0.646	0.628	0.597	0.603	0.566	0.552	0.522	0.494	0.488	0.437	0.424	0.357	0.360	0.372	0.396	0.362	0.359	0.407	0.401	0.353	0.394	0.393	0.489	0.743	0.787	0.726	0.614	1.059	2.325	4.729	7.886	11.31	12.71	9.469	4.699	1.049	0.316	0.278	0.264	0.293	0.278	0.273	0.276	0.261	0.251	0.286	0.296	0.271	0.286	0.271	0.284	0.269	0.306
255.0	27.63	57.43	182.4	286.8	282.5	655.1	2424	2805	284.1	21.33	5.283	3.860	3.299	2.490	1.807	1.611	1.464	1.315	1.073	0.851	0.979	0.791	0.701	0.683	0.717	0.687	0.572	0.621	0.540	0.594	0.447	0.469	0.425	0.430	0.465	0.369	0.417	0.341	0.389	0.378	0.388	0.375	0.366	0.323	0.418	0.319	0.351	0.413	0.502	0.969	1.136	1.010	0.922	1.385	2.042	3.078	6.058	13.24	21.08	16.02	6.296	1.147	0.329	0.278	0.284	0.356	0.276	0.251	0.295	0.296	0.308	0.246	0.278	0.262	0.322	0.290	0.303
260.0	29.68	28.88	84.77	312.3	273.7	200.9	833.6	3424	2319	217.0	11.00	5.043	3.531	2.750	2.033	1.673	1.543	1.473	1.251	0.979	1.064	0.939	0.851	0.857	0.721	0.691	0.594	0.584	0.511	0.578	0.627	0.499	0.470	0.524	0.451	0.444	0.442	0.380	0.373	0.396	0.349	0.379	0.340	0.353	0.346	0.323	0.317	0.329	0.343	0.506	0.956	1.493	1.451	1.005	0.841	1.054	1.713	4.018	11.69	20.14	23.55	14.67	4.244	0.560	0.294	0.307	0.281	0.268	0.313	0.280	0.307	0.256	0.226	0.317	0.279	0.298	0.328
265.0	32.99	23.26	38.24	170.4	392.7	217.9	238.1	1362	4231	1963	158.7	7.194	4.148	3.244	2.240	1.880	1.769	1.518	1.310	0.995	1.285	1.016	0.902	0.827	0.865	0.700	0.650	0.660	0.534	0.595	0.611	0.557	0.472	0.524	0.452	0.343	0.518	0.406	0.346	0.338	0.352	0.371	0.341	0.342	0.369	0.391	0.368	0.328	0.290	0.323	0.438	1.020	1.790	1.876	1.297	0.714	0.765	1.276	3.091	6.813	16.24	25.44	23.81	11.06	2.097	0.336	0.385	0.280	0.324	0.256	0.361	0.249	0.321	0.276	0.316	0.281	0.362
270.0	38.51	31.99	32.70	69.45	232.4	422.9	279.4	371.3	1542	3613	3445	643.4	24.55	4.489	3.053	2.322	1.638	1.648	1.407	1.201	1.147	1.000	1.001	0.745	0.789	0.648	0.681	0.688	0.710	0.628	0.567	0.585	0.510	0.623	0.511	0.403	0.404	0.377	0.396	0.331	0.357	0.329	0.369	0.370	0.355	0.399	0.399	0.326	0.320	0.265	0.306	0.472	0.861	1.335	2.018	2.109	1.877	1.099	1.093	1.878	4.166	8.232	14.45	20.69	22.70	17.95	9.101	2.072	0.415	0.313	0.308	0.315	0.387	0.309	0.305	0.298	0.342
275.0	65.34	76.12	67.68	66.27	109.2	272.9	553.9	300.7	391.1	984.6	3448	5300	829.2	18.63	4.562	3.011	2.363	1.895	1.644	1.525	1.312	1.100	1.040	0.932	0.922	0.804	0.674	0.653	0.652	0.645	0.674	0.589	0.551	0.586	0.504	0.464	0.466	0.372	0.436	0.315	0.396	0.330	0.454	0.396	0.440	0.482	0.444	0.425	0.390	0.352	0.341	0.394	0.531	0.678	0.918	1.465	2.775	3.132	2.095	1.039	1.350	2.266	3.624	5.205	8.158	17.74	30.53	27.35	11.65	1.928	0.383	0.326	0.417	0.309	0.262	0.296	0.357
280.0	92.48	131.8	122.1	95.27	99.62	157.4	420.4	562.0	214.8	278.6	1097	4801	4673	137.7	8.964	4.024	3.096	2.112	1.774	1.497	1.284	1.314	1.022	1.063	0.929	0.932	0.696	0.862	0.685	0.675	0.627	0.550	0.622	0.556	0.497	0.431	0.449	0.460	0.438	0.417	0.373	0.345	0.421	0.412	0.452	0.533	0.601	0.628	0.564	0.484	0.484	0.524	0.540	0.643	0.688	1.000	1.401	2.551	3.812	3.004	1.518	0.929	1.254	1.620	2.337	5.102	12.28	25.32	32.47	24.19	7.762	0.873	0.464	0.315	0.299	0.341	0.407
285.0	133.8	176.3	175.5	130.7	100.7	116.9	210.4	567.3	333.0	154.6	316.9	1660	5405	3512	96.00	5.929	3.919	2.626	2.092	1.953	1.407	1.402	1.116	1.101	0.856	0.818	0.728	0.776	0.703	0.682	0.660	0.547	0.535	0.546	0.518	0.474	0.448	0.445	0.447	0.410	0.420	0.404	0.512	0.550	0.471	0.628	0.611	0.714	0.806	0.595	0.597	0.614	0.533	0.687	0.634	0.685	0.951	1.268	2.225	3.674	3.605	1.923	0.990	0.977	1.005	1.645	3.298	7.281	16.63	29.26	32.22	18.13	3.905	0.563	0.307	0.365	0.353
290.0	162.3	225.1	240.3	173.3	115.9	103.9	127.8	261.1	514.9	445.7	202.0	464.7	1717	3852	2839	399.7	17.83	3.369	2.438	2.011	1.611	1.447	1.357	1.108	0.885	0.880	0.772	0.796	0.750	0.766	0.742	0.620	0.592	0.588	0.558	0.521	0.557	0.498	0.488	0.479	0.535	0.461	0.489	0.600	0.554	0.717	0.703	0.792	1.008	0.805	0.744	0.745	0.619	0.664	0.646	0.638	0.765	0.863	1.027	1.613	2.420	3.034	3.133	2.352	1.373	1.015	1.353	2.237	4.358	8.289	14.56	20.86	23.71	21.58	11.98	3.765	0.666
295.0	183.3	248.8	256.2	192.4	126.4	106.6	110.3	142.9	245.8	627.8	553.1	254.3	483.4	989.5	2541	4342	543.9	11.72	3.581	2.693	1.890	1.651	1.521	1.207	1.097	0.795	0.923	0.912	0.797	0.772	0.704	0.711	0.633	0.554	0.622	0.513	0.564	0.564	0.564	0.438	0.489	0.498	0.465	0.573	0.621	0.693	0.735	0.856	0.947	0.831	0.818	0.903	0.747	0.705	0.649	0.687	0.784	0.796	0.767	0.917	1.143	1.478	1.930	3.463	4.288	2.356	1.290	1.341	1.731	2.445	3.795	5.268	6.907	13.07	25.06	29.58	16.96
300.0	191.4	264.4	271.7	207.4	135.0	113.9	119.6	134.2	181.2	391.3	822.8	425.1	242.7	312.2	755.5	3487	3764	82.14	6.232	3.084	2.303	1.970	1.501	1.261	1.272	0.943	0.858	0.881	0.934	0.658	0.853	0.766	0.643	0.721	0.593	0.606	0.613	0.645	0.605	0.476	0.515	0.505	0.538	0.627	0.588	0.693	0.764	0.998	0.959	0.851	0.857	0.887	0.719	0.697	0.588	0.678	0.797	0.713	0.745	0.940	1.018	1.133	1.253	2.078	3.786	4.639	3.548	1.916	1.291	1.310	1.560	1.850	2.175	3.608	8.466	19.20	30.26
305.0	183.5	255.1	262.5	198.3	136.9	121.0	141.6	157.1	191.0	279.2	613.5	803.4	296.1	190.1	249.6	1102	3909	2874	62.58	4.255	2.732	2.186	1.758	1.428	1.184	0.951	0.984	1.000	0.944	0.898	0.943	0.793	0.631	0.659	0.748	0.596	0.530	0.536	0.553	0.552	0.568	0.566	0.526	0.618	0.593	0.707	0.674	0.938	0.839	0.792	0.901	1.004	0.708	0.734	0.728	0.690	0.807	0.891	0.875	1.029	1.038	1.194	1.208	1.552	1.987	3.030	4.757	3.823	2.456	1.410	1.172	1.221	1.324	1.458	2.427	5.116	11.64
310.0	176.3	216.9	239.3	190.3	142.6	130.6	146.6	174.7	201.6	256.4	368.1	641.0	654.3	282.8	159.2	316.6	1171	2776	2729	284.3	13.63	2.812	2.154	1.695	1.267	1.187	1.095	0.989	0.930	0.897	0.867	0.699	0.653	0.719	0.710	0.553	0.539	0.600	0.546	0.510	0.486	0.589	0.540	0.597	0.520	0.687	0.746	0.875	0.845	0.720	0.782	0.873	0.753	0.784	0.729	0.740	0.841	0.873	0.996	1.103	1.103	1.230	1.292	1.371	1.567	1.825	2.486	3.167	3.809	3.562	2.489	1.439	1.310	1.115	1.234	1.800	3.278
315.0	157.7	203.2	218.8	179.4	151.3	140.2	149.4	179.1	205.8	250.8	303.1	375.1	540.8	618.6	219.6	154.9	322.8	683.5	1819	3279	418.0	10.61	2.864	1.896	1.666	1.401	1.240	1.143	0.875	0.935	0.936	0.772	0.739	0.657	0.624	0.594	0.547	0.644	0.640	0.578	0.558	0.493	0.526	0.606	0.579	0.643	0.667	0.818	0.854	0.763	0.737	0.858	0.742	0.758	0.717	0.771	0.874	0.903	1.059	1.042	1.055	1.179	1.332	1.389	1.545	1.531	1.748	1.928	2.300	2.515	3.696	3.398	2.140	1.261	1.119	1.119	1.391
320.0	166.9	210.0	214.4	179.3	144.4	139.2	158.9	178.1	214.0	245.1	284.7	315.9	363.4	593.9	437.1	153.6	145.3	198.4	498.1	2367	2846	63.30	5.431	2.525	1.913	1.532	1.343	1.006	1.017	0.943	0.887	0.874	0.701	0.594	0.618	0.738	0.582	0.562	0.602	0.545	0.512	0.486	0.497	0.530	0.581	0.649	0.661	0.773	0.859	0.801	0.764	0.836	0.747	0.667	0.718	0.744	0.883	1.019	1.025	1.022	1.113	1.169	1.366	1.382	1.534	1.389	1.493	1.640	1.689	1.830	2.461	3.275	3.888	2.681	1.535	1.105	0.984
325.0	180.9	228.3	241.2	197.9	149.3	143.0	158.7	177.4	209.7	246.7	286.6	304.0	302.7	391.2	565.3	274.0	119.0	99.90	147.6	688.8	2667	2215	52.26	3.907	2.146	1.679	1.501	1.160	1.179	0.983	0.881	0.829	0.627	0.622	0.726	0.624	0.578	0.539	0.655	0.531	0.455	0.432	0.504	0.531	0.526	0.592	0.693	0.797	0.822	0.802	0.774	0.914	0.805	0.736	0.760	0.860	0.905	1.026	0.991	1.055	1.229	1.089	1.228	1.323	1.470	1.332	1.367	1.561	1.645	1.660	1.612	2.124	2.863	3.500	2.948	1.749	0.984
330.0	182.9	249.4	277.6	244.2	185.2	161.6	165.8	192.7	212.8	251.4	286.7	303.1	295.5	298.4	381.6	435.6	248.0	104.5	85.46	191.0	769.1	1962	2069	235.8	12.93	2.496	1.774	1.457	1.183	1.117	1.000	0.821	0.757	0.819	0.685	0.671	0.628	0.654	0.533	0.561	0.445	0.546	0.505	0.565	0.547	0.698	0.752	0.941	0.943	0.874	0.859	0.996	0.839	0.852	0.772	0.854	1.038	0.983	0.962	1.060	1.193	1.225	1.414	1.371	1.338	1.454	1.543	1.586	1.609	1.545	1.531	1.583	1.905	2.172	2.642	3.007	2.749
335.0	203.4	250.3	309.0	291.0	223.6	196.4	185.4	201.7	222.8	259.9	295.1	313.3	299.8	286.8	278.5	319.5	429.7	219.4	93.39	100.8	214.4	484.1	1321	2552	362.6	11.43	2.471	1.876	1.563	1.297	1.144	0.981	0.838	0.924	0.675	0.708	0.599	0.661	0.570	0.577	0.512	0.532	0.513	0.540	0.636	0.819	0.791	1.011	1.094	0.966	0.884	0.992	1.003	1.052	0.986	1.056	1.015	1.031	1.197	1.212	1.244	1.286	1.252	1.509	1.382	1.431	1.559	1.672	1.642	1.432	1.638	1.800	1.699	1.710	1.680	1.891	2.599
340.0	209.2	284.5	331.5	322.8	253.5	217.0	207.3	219.4	245.9	277.9	301.3	320.9	309.2	296.4	267.0	255.1	364.8	379.1	154.7	100.4	107.7	151.3	366.9	1801	2243	55.56	5.262	2.557	1.864	1.504	1.175	1.018	0.961	0.788	0.675	0.625	0.679	0.668	0.601	0.558	0.586	0.623	0.510	0.600	0.622	0.751	0.743	0.990	1.112	1.024	1.149	1.094	1.166	1.182	1.015	1.123	1.062	1.224	1.262	1.160	1.289	1.329	1.432	1.477	1.408	1.657	1.647	1.598	1.674	1.604	1.666	1.720	1.683	1.655	1.588	1.515	1.883
345.0	209.0	293.9	358.1	345.9	289.6	246.3	238.7	252.3	275.0	297.3	316.5	324.8	322.5	307.7	280.4	247.8	274.0	399.3	288.3	132.6	103.6	93.15	125.3	528.9	2065	1758	46.92	3.598	2.177	1.572	1.136	1.064	0.924	0.883	0.741	0.642	0.596	0.666	0.602	0.527	0.549	0.494	0.458	0.658	0.735	0.812	0.842	1.103	1.131	1.160	1.171	1.249	1.242	1.204	1.077	1.092	1.269	1.232	1.233	1.377	1.292	1.416	1.650	1.561	1.653	1.734	1.831	1.719	1.758	1.732	1.667	1.634	1.732	1.635	1.709	1.443	1.634
350.0	218.6	306.0	367.9	371.7	332.8	285.6	283.6	294.2	312.9	329.1	341.7	346.2	344.2	328.5	305.5	277.1	265.7	302.7	365.7	272.6	149.4	113.4	98.01	167.6	605.6	1498	1590	212.6	12.30	2.093	1.496	1.136	0.976	0.837	0.782	0.698	0.627	0.663	0.650	0.560	0.562	0.578	0.532	0.605	0.693	0.797	0.839	1.085	1.288	1.088	1.163	1.339	1.360	1.310	1.266	1.296	1.361	1.318	1.423	1.475	1.599	1.703	1.690	1.717	1.624	1.718	1.681	1.760	1.643	1.809	1.753	1.820	1.845	1.832	1.826	1.747	1.897
355.0	211.3	308.3	385.4	396.2	369.5	325.5	317.9	331.0	344.7	363.4	369.5	364.6	360.5	355.6	332.7	313.5	292.1	287.4	304.1	377.7	280.2	162.8	126.7	116.6	187.5	381.7	1002	1907	322.2	10.33	2.025	1.528	1.208	1.008	0.899	0.770	0.621	0.648	0.658	0.611	0.565	0.547	0.506	0.624	0.768	0.783	0.826	1.134	1.237	1.104	1.291	1.425	1.460	1.637	1.497	1.489	1.592	1.376	1.480	1.574	1.732	1.913	1.750	1.802	1.884	1.726	1.790	1.890	1.790	2.027	1.859	1.798	2.093	1.912	2.026	1.872	1.898
360.0	232.6	309.7	410.0	419.9	394.4	361.5	348.7	364.8	371.5	389.4	389.8	379.7	376.2	367.7	357.9	338.0	319.7	307.8	301.1	350.4	388.6	240.4	164.5	130.0	119.4	136.1	286.8	1368	1785	52.11	4.712	1.807	1.315	1.087	0.950	0.761	0.667	0.707	0.578	0.593	0.634	0.513	0.523	0.586	0.750	0.681	0.914	1.103	1.262	1.182	1.277	1.590	1.650	1.671	1.589	1.539	1.677	1.558	1.705	1.801	1.831	1.870	1.939	1.921	2.073	1.808	2.100	2.022	1.878	2.254	1.780	2.121	2.181	2.036	2.001	2.053	2.281
365.0	224.6	311.6	405.3	444.9	422.1	399.8	389.9	388.9	391.5	412.1	414.7	405.2	397.7	384.2	375.1	357.5	345.2	340.3	327.3	329.2	397.5	356.5	218.5	161.1	127.0	102.1	111.8	417.8	1658	1459	43.30	3.231	1.748	1.206	0.989	0.757	0.694	0.606	0.749	0.573	0.567	0.665	0.667	0.551	0.750	0.722	0.934	1.129	1.129	1.254	1.349	1.642	1.730	1.597	1.650	1.671	1.650	1.858	1.814	1.759	1.845	2.064	1.953	2.099	2.211	1.859	2.190	1.906	2.038	2.009	2.057	2.158	2.170	2.194	2.058	2.191	2.546
370.0	233.7	329.9	429.6	470.2	466.6	450.3	438.2	430.9	436.0	440.9	443.5	432.1	422.6	412.6	395.4	386.2	383.0	377.8	373.2	359.0	370.0	408.1	349.4	230.7	169.9	130.6	102.7	148.6	497.6	1280	1377	187.5	11.28	2.032	1.166	1.015	0.751	0.690	0.680	0.669	0.666	0.617	0.614	0.605	0.762	0.833	0.946	1.119	1.259	1.250	1.344	1.694	1.686	1.832	1.698	1.897	2.036	1.835	1.987	1.928	2.049	2.221	1.878	2.227	2.215	2.215	2.051	2.188	2.199	2.122	2.188	2.339	2.203	2.388	2.322	2.302	2.563
375.0	241.5	365.9	460.0	501.4	515.1	487.1	478.6	463.5	467.4	472.1	468.4	466.3	458.9	440.3	417.0	411.7	412.9	413.7	409.3	399.6	391.9	389.3	427.7	359.3	233.5	177.6	141.1	122.4	171.7	338.3	916.4	1606	273.3	8.494	1.662	1.195	0.939	0.838	0.734	0.688	0.636	0.598	0.696	0.677	0.814	0.875	1.066	1.119	1.307	1.324	1.484	1.934	1.797	1.989	1.878	1.876	2.232	1.997	2.102	2.237	2.139	2.126	2.141	2.376	2.279	2.377	2.272	2.163	2.253	2.340	2.330	2.493	2.224	2.418	2.347	2.548	2.710
380.0	263.0	364.9	485.3	530.1	542.3	527.1	496.2	491.7	493.3	493.1	492.1	487.3	482.1	458.6	436.5	422.9	425.1	430.1	439.4	427.1	419.3	401.7	414.6	437.5	311.4	220.8	176.7	140.6	118.3	133.3	282.9	1205	1411	42.93	3.924	1.554	1.235	0.983	0.759	0.733	0.745	0.626	0.719	0.760	0.761	0.983	0.968	1.276	1.377	1.409	1.440	1.868	2.103	2.012	2.009	2.128	2.360	2.097	2.187	2.329	2.458	2.232	2.475	2.430	2.430	2.338	2.253	2.298	2.446	2.361	2.651	2.338	2.546	2.417	2.497	2.710	2.708
385.0	272.3	378.2	495.1	545.3	566.6	541.9	523.2	520.6	513.2	508.5	511.9	502.2	496.8	472.2	446.8	431.9	441.8	442.0	454.5	450.5	439.4	425.8	415.6	444.4	400.3	273.4	212.7	167.9	125.8	101.5	121.9	382.7	1331	1072	33.86	2.464	1.570	1.176	0.713	0.734	0.778	0.679	0.692	0.777	0.710	0.948	1.077	1.193	1.401	1.407	1.524	1.964	1.889	2.043	2.249	2.206	2.388	2.284	2.399	2.548	2.495	2.358	2.345	2.482	2.491	2.381	2.410	2.314	2.550	2.482	2.556	2.413	2.353	2.591	2.558	2.824	2.952
390.0	263.3	401.8	494.7	574.7	581.4	560.9	550.5	546.7	529.9	532.6	524.5	513.2	506.3	476.9	449.5	440.3	443.8	453.8	465.5	470.2	464.5	451.8	432.5	425.8	427.7	369.4	266.1	203.7	154.9	118.8	99.58	136.7	404.3	967.8	966.8	143.3	7.855	1.578	1.030	0.926	0.791	0.756	0.742	0.721	0.871	0.970	1.072	1.318	1.497	1.469	1.556	2.052	2.120	2.221	2.213	2.108	2.540	2.534	2.472	2.535	2.532	2.493	2.424	2.491	2.454	2.458	2.457	2.350	2.482	2.481	2.540	2.465	2.567	2.583	2.682	2.600	3.031
395.0	269.7	399.1	527.4	575.0	604.5	591.1	563.2	558.7	555.8	555.7	549.1	528.8	508.7	486.1	458.6	443.4	445.9	454.7	467.9	481.9	480.8	472.7	454.2	436.2	415.4	411.0	357.4	253.2	194.5	152.3	119.5	99.58	129.4	249.4	680.8	1143	211.0	5.345	1.506	1.061	0.840	0.738	0.744	0.623	0.854	0.906	1.062	1.561	1.523	1.499	1.640	2.155	2.152	2.217	2.392	2.266	2.625	2.449	2.423	2.652	2.471	2.536	2.543	2.476	2.524	2.584	2.419	2.418	2.436	2.498	2.598	2.466	2.705	2.689	2.506	2.757	2.972
400.0	283.2	406.4	542.8	595.8	603.8	607.8	588.3	577.8	564.6	555.4	555.2	536.4	520.1	488.6	462.6	440.5	444.3	460.1	466.2	480.5	485.0	482.8	469.2	447.4	416.6	401.0	403.8	313.1	225.2	178.7	142.7	106.8	81.89	88.75	200.1	888.4	996.9	35.57	2.800	1.244	1.069	0.916	0.812	0.742	0.879	1.039	1.052	1.446	1.618	1.575	1.706	2.297	2.148	2.412	2.262	2.296	2.574	2.568	2.544	2.579	2.653	2.624	2.455	2.512	2.367	2.785	2.654	2.567	2.668	2.483	2.767	2.545	2.587	2.567	2.620	2.907	2.905
405.0	273.4	397.7	532.8	587.1	610.6	609.8	598.7	585.6	567.7	573.8	558.5	542.1	523.5	487.0	455.7	436.7	436.5	452.4	459.0	480.6	480.5	483.7	472.0	455.0	427.2	397.6	402.6	373.9	262.9	204.4	166.4	124.4	82.30	60.14	71.64	274.8	974.4	787.9	27.90	1.870	1.189	0.979	0.890	0.790	0.913	1.121	1.086	1.369	1.625	1.490	1.743	2.059	2.243	2.248	2.246	2.332	2.493	2.566	2.644	2.608	2.631	2.613	2.436	2.412	2.709	2.569	2.655	2.496	2.460	2.429	2.717	2.756	2.776	2.528	2.555	2.889	2.994
410.0	286.8	399.5	519.9	595.4	612.3	609.5	598.0	590.4	578.2	577.3	563.9	539.2	521.8	478.4	445.8	427.1	425.9	430.1	448.2	461.9	472.4	478.2	470.7	461.3	432.0	402.7	379.9	376.8	330.0	244.9	190.8	144.1	97.69	69.00	52.62	86.87	294.6	787.2	573.5	125.1	5.782	1.224	0.997	0.813	1.007	1.107	1.111	1.367	1.457	1.550	1.686	2.195	2.301	2.259	2.339	2.280	2.523	2.526	2.568	2.618	2.753	2.682	2.575	2.550	2.674	2.704	2.504	2.543	2.585	2.584	2.739	2.534	2.540	2.493	2.600	2.630	2.828
