Sample:	'1
File name:	Default_20230217_093906.FD3
Run date:	'09:32:45, 02/17/2023
Operator:	user
Comment:	'

Instrument
Model:	F-2700 FL Spectrophotometer
Serial number:	2190-003
ROM Version:	4J14000 07

Instrument parameters
Measurement type:	3-D scan
Data mode:	Fluorescence
EX  Start WL:	220.0 nm
EX  End WL:	600.0 nm
EX Sampling interval:	5.0 nm
EM  Start WL:	230.0 nm
EM  End WL:	650.0 nm
EM Sampling interval:	5.0 nm
Scan speed:	12000 nm/min
EX Slit:	5.0 nm
EM Slit:	5.0 nm
PMT Voltage:	700 V
Response:	Auto 
Corrected spectra:	Off
Contour interval:	50.000

Peak integration
Integration method:	Rectangular
Sensitivity:	1
Threshold:	1.000

Peaks
No.	ApexEX/EM(nm)	Height(Data)
1	240.0/520.0	26.36
2	245.0/265.0	147.1
3	245.0/365.0	830.5
4	245.0/530.0	39.34
5	250.0/270.0	188.5
6	250.0/360.0	822.3
7	250.0/540.0	40.53
8	255.0/555.0	53.02
9	260.0/285.0	807.6
10	260.0/425.0	335.2
11	260.0/440.0	298.8
12	260.0/480.0	174.4
13	265.0/580.0	113.9
14	270.0/295.0	 1928
15	270.0/435.0	297.2
16	270.0/590.0	136.4
17	275.0/300.0	 1940
18	275.0/445.0	287.3
19	275.0/600.0	118.0
20	280.0/615.0	53.91
21	290.0/320.0	644.2
22	290.0/400.0	262.7
23	290.0/635.0	16.05
24	300.0/335.0	346.5
25	305.0/245.0	-9.563
26	305.0/340.0	389.0
27	305.0/400.0	248.3
28	305.0/565.0	1.064
29	310.0/345.0	345.9
30	315.0/350.0	284.0
31	320.0/285.0	-5.550
32	320.0/360.0	301.2
33	325.0/295.0	-4.789
34	325.0/365.0	297.2
35	330.0/370.0	266.0
36	335.0/275.0	-5.650
37	335.0/300.0	-4.463
38	335.0/375.0	271.4
39	340.0/265.0	-5.223
40	340.0/385.0	269.5
41	340.0/635.0	-5.004
42	345.0/390.0	243.0
43	350.0/395.0	237.5
44	355.0/405.0	231.3
45	360.0/410.0	204.9
46	365.0/415.0	197.0
47	370.0/285.0	-3.742
48	370.0/425.0	195.7
49	375.0/335.0	-2.596
50	380.0/435.0	152.3
51	385.0/445.0	137.6
52	390.0/260.0	-2.503
53	400.0/465.0	80.80
54	415.0/485.0	40.91
55	420.0/490.0	34.20
56	425.0/495.0	29.35
57	430.0/505.0	25.14
58	440.0/515.0	15.62
59	445.0/525.0	12.67
60	450.0/530.0	10.03
61	455.0/535.0	8.583
62	460.0/545.0	6.515
63	485.0/375.0	-0.473
64	485.0/580.0	0.145
65	490.0/370.0	-0.491
66	495.0/380.0	-0.435
67	500.0/360.0	-0.291
68	500.0/600.0	-1.042
69	510.0/280.0	-0.980
70	510.0/365.0	-0.426
71	535.0/295.0	1.764
72	545.0/300.0	1.333
73	550.0/305.0	1.146
74	585.0/325.0	-0.806

Data points
	220.0	225.0	230.0	235.0	240.0	245.0	250.0	255.0	260.0	265.0	270.0	275.0	280.0	285.0	290.0	295.0	300.0	305.0	310.0	315.0	320.0	325.0	330.0	335.0	340.0	345.0	350.0	355.0	360.0	365.0	370.0	375.0	380.0	385.0	390.0	395.0	400.0	405.0	410.0	415.0	420.0	425.0	430.0	435.0	440.0	445.0	450.0	455.0	460.0	465.0	470.0	475.0	480.0	485.0	490.0	495.0	500.0	505.0	510.0	515.0	520.0	525.0	530.0	535.0	540.0	545.0	550.0	555.0	560.0	565.0	570.0	575.0	580.0	585.0	590.0	595.0	600.0
230.0	-261.7	-160.9	431.2	440.3	-63.00	-84.52	-72.87	-64.42	-63.11	-51.65	-44.54	-40.66	-32.53	-27.00	-21.76	-18.64	-14.40	-13.55	-10.83	-10.16	-8.277	-8.488	-7.773	-7.211	-6.699	-6.047	-5.541	-5.783	-5.221	-5.316	-4.914	-4.868	-4.470	-4.462	-3.937	-3.709	-3.261	-3.480	-3.456	-3.285	-2.980	-2.988	-3.294	-2.965	-2.876	-2.864	-2.623	-2.274	-1.216	-0.674	-1.441	-2.155	-2.195	-2.465	-2.278	-2.720	-2.596	-2.555	-2.467	-2.791	-2.521	-2.645	-2.599	-2.550	-2.634	-2.793	-2.829	-2.683	-2.886	-2.665	-2.931	-2.763	-2.829	-2.889	-2.742	-3.087	-3.183
235.0	-229.4	-200.2	87.63	 1045	884.7	3.228	-84.70	-72.36	-49.65	-51.09	-38.96	-37.04	-31.44	-24.84	-20.43	-19.61	-12.71	-13.29	-10.47	-9.473	-9.266	-8.142	-7.303	-6.425	-6.900	-6.059	-5.946	-5.182	-5.608	-5.104	-5.524	-4.967	-4.476	-4.100	-3.355	-3.652	-3.312	-3.116	-3.651	-2.851	-3.039	-3.255	-3.462	-3.316	-2.862	-2.956	-2.803	-2.524	-1.836	-0.807	-0.367	0.454	-1.240	-2.214	-2.633	-2.624	-2.841	-2.329	-1.664	-2.584	-2.406	-2.559	-2.700	-2.655	-2.618	-2.733	-3.045	-2.283	-2.732	-2.609	-2.422	-2.448	-2.720	-2.951	-2.812	-3.200	-2.949
240.0	-258.8	-228.9	-122.8	518.1	 1968	992.1	-35.83	-60.98	-50.50	-57.07	-41.38	-44.67	-32.07	-18.59	-21.19	-16.88	-15.22	-10.97	-13.47	-10.49	-9.197	-7.979	-7.960	-6.645	-6.975	-5.856	-6.264	-6.519	-5.916	-5.133	-5.742	-5.116	-4.916	-4.165	-3.878	-3.488	-3.408	-3.068	-3.460	-2.986	-3.526	-3.468	-3.151	-3.391	-2.393	-3.176	-2.348	-2.494	-2.115	-1.621	-0.712	0.675	1.689	0.958	-1.367	-2.658	-2.814	-2.315	-2.050	-2.135	-2.541	-2.452	-2.824	-2.644	-2.814	-2.992	-2.611	-2.212	-2.739	-2.620	-2.629	-2.380	-2.966	-2.769	-2.964	-3.352	-3.082
245.0	-243.8	-200.3	-134.9	65.90	 1195	 2618	787.0	-44.50	-59.45	-49.74	-39.01	-40.36	-30.73	-27.68	-21.01	-15.75	-13.54	-9.563	-11.18	-8.956	-8.825	-8.454	-6.697	-7.099	-7.088	-6.073	-5.963	-6.546	-5.153	-5.679	-5.261	-4.538	-5.119	-4.393	-3.857	-3.597	-2.934	-3.166	-3.512	-3.323	-3.196	-2.874	-2.883	-3.398	-3.036	-2.636	-2.328	-2.283	-2.166	-2.032	-1.708	-1.367	0.151	2.831	3.319	0.109	-2.122	-2.753	-2.358	-2.822	-2.492	-2.238	-2.850	-2.657	-2.470	-2.793	-2.496	-2.762	-2.892	-2.657	-2.654	-2.749	-2.894	-2.595	-2.800	-3.208	-3.210
250.0	-242.1	-179.0	-102.2	-29.33	237.4	 1341	 2428	 1231	169.6	-49.60	-40.17	-40.59	-30.81	-26.79	-21.86	-14.89	-14.85	-11.34	-10.36	-8.985	-8.518	-8.429	-5.848	-6.530	-6.765	-5.857	-5.296	-5.072	-5.102	-5.429	-4.770	-4.645	-4.563	-3.826	-4.094	-3.658	-3.386	-3.270	-3.350	-3.247	-2.885	-2.762	-2.759	-3.157	-3.136	-2.692	-2.528	-2.511	-1.939	-1.877	-1.725	-1.960	-1.448	-0.779	0.634	2.551	3.361	2.433	0.201	-2.144	-2.320	-2.212	-2.879	-2.682	-2.566	-2.825	-2.853	-2.835	-2.782	-2.854	-2.686	-2.608	-2.729	-2.961	-3.221	-2.915	-3.139
255.0	-241.5	-217.7	-154.7	17.51	79.43	253.7	924.7	 3509	 1731	197.0	-40.44	-39.95	-31.47	-29.15	-19.90	-16.81	-16.05	-12.18	-10.82	-9.147	-9.675	-8.034	-6.918	-7.584	-5.790	-6.240	-6.040	-5.691	-6.069	-4.348	-5.201	-4.635	-4.760	-3.894	-3.694	-3.613	-3.535	-3.790	-3.417	-2.840	-2.830	-3.174	-2.885	-2.801	-2.838	-2.335	-2.776	-2.514	-2.342	-1.680	-1.384	-1.666	-1.628	-2.023	-1.415	-1.336	-0.179	2.866	7.243	6.060	1.086	-2.204	-2.922	-2.603	-2.494	-2.774	-2.804	-2.946	-2.770	-2.679	-2.983	-2.180	-3.004	-2.701	-2.663	-2.832	-3.004
260.0	-271.7	-179.9	-161.2	-61.14	110.6	60.52	167.9	 1618	 4332	 1503	71.97	-39.84	-24.45	-29.94	-17.89	-19.73	-16.14	-12.44	-12.11	-10.27	-9.725	-7.657	-6.977	-7.865	-5.707	-7.039	-5.250	-5.844	-6.131	-5.359	-5.158	-5.046	-4.570	-4.153	-2.503	-3.507	-3.852	-3.698	-3.599	-2.852	-2.997	-3.320	-3.336	-2.881	-2.588	-2.173	-2.374	-2.180	-1.917	-1.912	-1.860	-1.842	-1.769	-2.254	-2.225	-1.986	-1.804	-1.093	1.884	6.869	10.24	5.806	-0.479	-2.124	-2.381	-2.871	-2.390	-2.965	-2.643	-2.836	-2.628	-2.613	-3.001	-3.073	-3.000	-3.193	-2.864
265.0	-303.4	-206.7	-167.9	-109.2	78.09	147.1	24.06	358.7	 2385	 5250	 1180	6.224	-27.28	-25.35	-20.24	-17.23	-12.20	-11.45	-10.92	-10.65	-8.832	-7.027	-7.867	-7.683	-5.223	-6.619	-5.515	-5.417	-6.209	-5.286	-5.419	-4.832	-4.456	-4.236	-3.752	-3.608	-3.484	-4.271	-3.294	-3.147	-2.789	-3.090	-2.863	-2.770	-2.850	-2.636	-2.639	-2.188	-2.491	-1.843	-2.018	-2.371	-1.936	-1.353	-2.071	-2.283	-2.183	-2.196	-1.503	0.075	4.769	11.14	10.30	3.129	-1.645	-2.575	-2.690	-2.658	-2.942	-2.632	-2.686	-2.652	-2.551	-2.809	-3.042	-3.203	-2.826
270.0	-277.3	-227.2	-172.5	-109.0	-46.42	121.6	188.5	102.7	553.5	 2437	 4913	 3270	272.3	-22.11	-17.53	-15.39	-13.51	-9.994	-10.38	-9.868	-8.861	-8.472	-7.264	-7.008	-5.953	-5.762	-6.078	-5.800	-5.377	-5.469	-5.753	-4.914	-4.321	-4.484	-3.724	-3.519	-3.480	-3.791	-3.540	-3.138	-3.142	-3.209	-3.154	-2.772	-2.863	-2.714	-2.404	-2.211	-1.951	-1.883	-1.932	-2.340	-2.186	-2.009	-1.940	-1.933	-1.600	-2.301	-2.175	-1.764	-0.815	1.562	4.622	8.253	10.74	7.638	1.915	-2.041	-2.903	-2.760	-2.994	-2.742	-2.911	-2.523	-2.938	-2.913	-2.841
275.0	-274.0	-208.8	-156.1	-105.5	-90.94	-15.26	180.1	298.3	201.5	623.7	 1705	 5897	 5182	298.8	-14.51	-12.68	-12.99	-10.82	-10.44	-7.773	-8.172	-7.867	-6.469	-5.650	-6.805	-5.373	-5.911	-5.686	-5.597	-4.695	-5.619	-5.177	-4.321	-4.107	-3.910	-3.244	-3.812	-3.874	-3.211	-3.136	-3.107	-3.565	-2.853	-3.113	-3.090	-2.776	-2.420	-2.372	-2.256	-2.120	-1.952	-2.296	-2.018	-1.940	-2.267	-2.464	-1.813	-1.579	-1.775	-2.121	-2.224	-1.619	-0.860	-0.056	2.180	9.573	17.60	12.66	2.233	-2.443	-2.797	-2.552	-2.665	-2.704	-2.702	-3.090	-3.006
280.0	-246.1	-193.9	-135.9	-113.0	-64.51	-43.20	55.08	421.1	425.3	400.5	723.5	 2636	 7653	 4154	127.8	-10.41	-12.75	-11.30	-9.744	-7.192	-8.594	-6.576	-8.042	-5.835	-6.576	-5.946	-5.871	-5.776	-5.814	-4.758	-4.885	-4.860	-4.230	-4.124	-3.576	-3.904	-3.283	-3.794	-2.986	-3.121	-3.020	-3.534	-3.105	-2.569	-2.558	-2.949	-2.162	-2.088	-2.021	-2.129	-1.762	-2.399	-2.372	-2.237	-2.616	-2.232	-2.277	-1.812	-0.980	-1.394	-2.030	-1.692	-1.808	-1.061	-0.827	1.424	7.123	15.71	19.69	9.824	-0.207	-2.568	-2.653	-2.543	-2.825	-2.832	-3.140
285.0	-226.0	-162.5	-116.7	-101.4	-68.27	-35.38	62.82	335.2	807.6	698.6	811.2	 1219	 3715	 8206	691.8	37.08	-9.102	-10.60	-9.690	-7.071	-5.550	-7.286	-6.034	-7.321	-6.594	-5.595	-5.501	-5.342	-5.003	-5.711	-3.742	-4.878	-4.139	-4.039	-3.973	-4.620	-3.591	-3.923	-2.994	-3.195	-3.076	-3.320	-3.271	-3.182	-2.839	-2.900	-2.270	-2.199	-2.131	-1.809	-1.858	-2.500	-2.401	-2.509	-2.250	-2.052	-2.204	-2.132	-1.529	-0.504	-0.549	-0.676	-1.389	-1.218	-1.115	-0.431	1.274	3.745	12.75	20.43	17.21	4.151	-1.964	-2.453	-2.800	-3.212	-2.895
290.0	-207.9	-132.0	-71.59	-68.78	-51.86	4.690	106.7	326.5	754.8	 1273	 1311	 1238	 1445	 3453	 6219	 4452	175.1	-6.929	-9.019	-7.467	-7.414	-6.607	-5.980	-6.692	-6.159	-5.786	-5.501	-5.154	-5.202	-4.747	-4.974	-4.562	-4.093	-3.981	-3.881	-3.519	-3.659	-3.626	-3.057	-3.247	-3.146	-3.113	-3.075	-3.177	-2.654	-2.883	-2.206	-2.274	-2.147	-1.849	-1.633	-2.238	-2.225	-2.298	-2.292	-2.179	-2.259	-1.948	-1.705	-1.069	-0.656	-0.051	0.412	-0.032	0.175	-0.288	0.108	-0.078	1.304	4.972	9.594	14.19	15.38	10.15	2.465	-2.305	-3.183
295.0	-202.0	-84.17	-65.13	-44.76	-24.96	50.23	139.3	403.7	741.9	 1275	 1928	 1577	 1034	970.6	 1871	 7482	 3697	239.0	-6.003	-7.478	-7.228	-4.789	-6.751	-5.170	-6.211	-6.050	-5.633	-4.474	-6.158	-5.644	-4.551	-4.615	-4.334	-4.107	-4.186	-3.633	-3.309	-3.398	-2.834	-2.460	-3.084	-3.179	-3.396	-2.784	-1.998	-2.909	-2.525	-2.213	-2.283	-1.424	-1.803	-2.591	-1.910	-2.365	-1.834	-2.166	-1.878	-1.774	-1.657	-1.317	-0.519	-0.085	0.931	1.764	1.645	0.604	0.224	-0.083	-0.992	-0.762	0.210	1.635	4.306	14.02	23.02	15.67	2.359
300.0	-178.9	-118.8	-69.23	-23.51	6.624	67.66	173.0	415.0	728.6	 1203	 1828	 1940	 1009	456.1	502.4	 2663	 7063	 3012	123.2	-4.996	-5.618	-5.930	-6.442	-4.463	-5.001	-4.781	-5.629	-3.933	-5.855	-5.143	-5.505	-4.957	-4.811	-3.866	-3.951	-3.476	-3.753	-3.086	-2.660	-3.025	-3.110	-2.918	-3.316	-2.995	-2.475	-2.836	-2.479	-2.242	-1.835	-1.739	-1.764	-2.290	-1.963	-2.548	-1.869	-2.612	-2.123	-1.792	-1.583	-1.291	-0.623	-0.549	0.423	1.228	1.140	1.333	1.048	-0.268	-1.206	-1.518	-1.539	-1.800	-0.952	2.041	10.21	22.07	24.87
305.0	-182.3	-130.3	-42.03	-16.43	3.800	62.95	175.7	382.8	696.1	 1103	 1567	 1861	 1192	369.8	215.8	657.5	 3176	 8118	 2135	52.36	-4.985	-4.341	-6.722	-5.924	-6.483	-4.649	-5.841	-4.448	-5.583	-4.704	-5.344	-4.754	-4.409	-3.482	-3.377	-3.282	-3.593	-3.323	-3.091	-3.142	-3.293	-2.844	-3.214	-3.139	-2.689	-3.189	-2.374	-1.782	-1.971	-1.574	-1.679	-2.123	-2.200	-2.471	-1.862	-1.914	-1.905	-1.592	-1.417	-0.718	-0.290	-0.334	0.044	0.724	0.955	0.770	1.146	1.090	-1.009	-1.556	-2.047	-2.054	-2.270	-1.401	0.521	5.340	16.43
310.0	-212.7	-114.6	-21.59	10.24	14.97	42.25	173.6	328.4	610.4	943.2	 1268	 1362	 1202	597.2	201.2	219.3	776.6	 3309	 5817	 3564	126.7	-2.339	-4.841	-5.047	-5.365	-4.283	-5.103	-4.480	-4.744	-4.411	-4.878	-4.792	-4.046	-3.776	-3.314	-3.537	-2.984	-3.355	-3.344	-3.080	-3.104	-3.072	-3.165	-2.812	-3.111	-2.660	-2.164	-2.211	-1.916	-1.697	-1.526	-1.950	-1.983	-2.240	-1.917	-2.318	-2.049	-1.769	-1.577	-1.263	-0.678	-0.755	-0.351	-0.074	0.053	0.131	0.006	0.131	-0.564	-1.227	-2.220	-2.613	-2.190	-2.194	-1.833	-0.851	1.849
315.0	-192.8	-119.5	-21.04	-19.23	19.90	43.48	129.5	285.8	484.0	733.2	996.8	 1005	842.2	717.6	444.2	150.9	228.1	772.2	 1709	 6419	 4775	171.9	-2.415	-3.815	-4.542	-6.083	-4.987	-4.248	-5.381	-4.577	-4.298	-4.337	-3.285	-3.838	-3.399	-3.106	-3.043	-3.226	-3.116	-3.370	-3.090	-3.022	-2.991	-2.807	-3.049	-2.688	-1.812	-2.503	-1.898	-1.694	-1.720	-1.846	-2.048	-1.749	-1.770	-2.029	-2.196	-1.958	-1.641	-1.473	-1.367	-0.906	-0.855	-0.315	-1.146	-0.773	-0.638	-0.593	-1.033	-1.148	-0.599	-1.616	-1.582	-2.337	-2.316	-2.284	-1.413
320.0	-207.8	-137.8	3.145	-4.444	38.95	40.35	134.8	255.4	428.0	651.3	843.8	840.8	681.1	530.0	644.2	243.2	112.7	213.6	410.5	 2387	 6919	 2031	105.2	-2.446	-4.087	-4.037	-3.648	-4.243	-4.269	-4.121	-3.564	-5.132	-3.885	-4.255	-3.815	-2.612	-3.420	-3.447	-3.046	-3.568	-2.938	-2.774	-2.939	-2.770	-2.486	-2.985	-2.245	-2.246	-1.880	-1.821	-1.831	-2.230	-1.888	-2.059	-1.854	-2.057	-2.119	-1.750	-1.992	-1.467	-1.166	-1.061	-1.343	-0.923	-0.634	-0.721	-0.767	-1.571	-1.314	-1.574	-1.247	-0.892	-1.262	-2.062	-2.244	-1.942	-2.540
325.0	-210.1	-158.1	18.40	32.69	54.20	88.21	150.8	265.4	366.1	540.9	675.5	717.5	576.0	385.0	523.0	455.8	138.8	95.30	121.4	569.0	 3107	 6488	 1648	46.01	-2.656	-4.062	-3.169	-3.510	-4.121	-5.118	-3.508	-3.643	-4.043	-3.824	-3.617	-3.270	-3.073	-3.623	-3.461	-3.041	-2.965	-3.116	-3.628	-3.553	-2.439	-2.790	-2.621	-2.116	-1.881	-1.496	-1.838	-2.103	-1.933	-2.262	-2.246	-2.164	-1.567	-2.037	-1.864	-1.632	-1.135	-0.891	-1.313	-1.253	-1.170	-0.938	-0.930	-1.081	-1.769	-1.650	-2.142	-1.287	-0.989	-0.806	-2.335	-2.209	-2.880
330.0	-223.2	-134.0	43.41	85.68	137.8	168.1	229.4	286.6	364.5	479.0	581.2	599.3	498.8	348.6	361.3	418.9	343.5	126.0	69.86	155.9	746.6	 2778	 5375	 3296	101.1	-0.928	-2.103	-3.446	-3.893	-4.630	-3.755	-3.892	-3.518	-3.471	-3.629	-3.670	-3.870	-3.715	-3.181	-3.038	-2.441	-3.187	-3.096	-3.209	-2.554	-2.754	-2.262	-1.905	-1.976	-1.532	-1.627	-2.095	-1.797	-2.060	-1.672	-1.768	-1.656	-1.816	-1.791	-1.354	-1.410	-1.437	-1.356	-1.610	-1.303	-1.212	-1.539	-1.649	-2.015	-1.669	-2.056	-1.867	-1.682	-1.541	-1.487	-1.794	-2.436
335.0	-209.6	-91.93	79.79	184.4	279.4	309.3	330.0	372.2	403.0	454.1	519.4	512.9	452.9	339.1	302.6	263.8	346.5	322.8	101.4	77.53	196.7	642.2	 1663	 5611	 4730	143.0	-1.215	-2.653	-2.658	-4.159	-4.223	-2.596	-3.623	-3.810	-3.052	-3.192	-3.391	-4.126	-3.033	-3.209	-2.444	-3.234	-3.217	-2.919	-2.367	-2.118	-2.094	-1.879	-1.761	-1.354	-1.648	-2.098	-1.337	-1.487	-1.566	-0.966	-0.991	-1.641	-1.618	-1.467	-1.496	-1.670	-1.319	-1.423	-1.962	-1.512	-1.704	-1.769	-1.759	-1.885	-1.815	-2.315	-2.326	-1.871	-1.820	-1.922	-1.721
340.0	-211.6	-77.25	119.8	296.1	404.4	424.2	432.8	453.9	457.0	456.8	480.1	458.4	417.3	334.4	286.6	226.0	231.6	389.0	212.4	75.99	85.31	171.0	395.5	 2191	 7158	 1599	93.07	-1.400	-1.761	-2.865	-3.495	-2.946	-3.644	-4.167	-3.263	-2.658	-3.357	-4.147	-3.473	-3.242	-2.821	-3.095	-3.472	-2.481	-2.777	-2.712	-2.201	-1.936	-1.831	-1.348	-1.469	-1.486	-1.840	-1.136	-1.209	-1.311	-1.044	-1.544	-0.855	-1.437	-1.223	-1.423	-1.252	-1.319	-1.311	-1.842	-1.834	-1.446	-1.602	-1.691	-1.856	-1.858	-2.367	-1.643	-2.156	-2.484	-1.787
345.0	-229.0	-49.24	118.4	353.3	457.0	527.1	568.9	515.4	478.9	480.5	444.6	436.0	399.5	338.7	293.1	227.1	189.2	278.5	345.9	137.6	70.61	75.58	119.1	530.4	 3431	 6514	 1349	40.47	-1.169	-2.559	-2.616	-3.883	-3.128	-3.463	-3.495	-2.735	-2.997	-3.695	-3.355	-2.736	-2.631	-3.172	-2.798	-2.555	-2.341	-2.641	-2.139	-2.152	-1.503	-1.528	-1.258	-1.235	-1.546	-1.389	-1.062	-1.122	-1.658	-1.150	-0.868	-1.083	-1.292	-1.335	-1.246	-1.433	-1.843	-2.100	-1.888	-1.565	-1.688	-1.927	-2.087	-1.863	-2.057	-2.025	-2.308	-2.330	-2.119
350.0	-214.5	-56.27	144.1	394.7	572.9	672.3	667.1	593.3	516.4	495.8	438.4	396.8	365.5	332.1	301.1	236.1	186.6	190.8	274.2	284.0	134.5	73.55	68.27	150.2	833.3	 2983	 5108	 2999	86.82	0.785	-1.287	-2.729	-2.729	-3.110	-3.049	-2.949	-3.117	-3.224	-3.210	-3.224	-2.817	-3.039	-3.013	-2.761	-2.866	-2.652	-2.162	-2.440	-1.442	-1.258	-1.227	-1.256	-1.085	-0.987	-1.045	-1.053	-0.638	-0.746	-1.237	-1.196	-1.263	-1.240	-1.536	-1.440	-1.680	-1.724	-1.763	-1.724	-1.720	-1.782	-1.868	-2.171	-2.204	-2.286	-2.075	-2.368	-2.436
355.0	-221.1	-53.64	183.2	397.8	636.0	762.2	761.9	636.1	551.7	492.0	411.0	349.1	342.0	315.4	288.8	247.0	205.3	183.4	188.6	257.1	282.2	128.6	74.68	79.55	218.9	687.6	 1696	 5544	 4376	116.1	0.485	-2.102	-2.866	-2.608	-2.937	-2.590	-3.360	-2.825	-3.068	-2.505	-3.107	-2.519	-3.006	-2.710	-2.747	-2.341	-1.909	-2.022	-1.488	-1.271	-1.071	-1.134	-0.824	-1.002	-0.990	-1.045	-0.702	-1.332	-1.112	-1.386	-0.814	-1.665	-1.349	-1.311	-2.178	-1.587	-2.055	-1.691	-1.820	-2.141	-2.272	-1.566	-2.229	-2.384	-2.572	-2.173	-1.930
360.0	-232.9	-97.29	194.6	425.4	664.7	808.6	822.3	685.6	573.1	471.5	405.3	339.7	328.9	308.7	302.5	249.5	209.8	191.4	178.8	192.9	301.2	234.5	97.86	75.22	89.32	183.0	407.8	 2326	 7152	 1373	70.31	-0.954	-2.178	-2.510	-2.616	-3.045	-2.919	-2.739	-2.790	-2.697	-3.140	-2.387	-2.919	-2.616	-2.521	-2.486	-1.983	-2.286	-1.385	-0.846	-0.675	-0.870	-0.941	-0.481	-1.017	-0.721	-0.291	-1.355	-0.916	-1.024	-1.288	-1.209	-1.285	-1.451	-2.026	-1.982	-1.739	-1.822	-2.437	-1.711	-1.844	-1.759	-2.100	-2.425	-2.328	-2.402	-1.972
365.0	-187.1	-50.90	221.9	459.2	664.6	830.5	810.1	719.0	574.2	486.8	395.5	323.3	314.0	308.7	295.5	247.8	220.4	195.1	193.4	176.1	226.6	297.2	166.6	89.16	70.15	81.26	118.2	566.3	 3698	 6246	 1148	28.18	-1.053	-2.314	-2.949	-2.496	-2.384	-2.440	-2.825	-3.150	-3.115	-2.468	-2.791	-2.618	-2.066	-2.547	-1.911	-2.110	-1.518	-1.367	-0.988	-1.226	-1.072	-0.542	-0.506	-0.588	-0.911	-1.207	-0.426	-0.727	-1.446	-1.401	-1.304	-1.117	-2.068	-1.990	-1.991	-2.209	-2.087	-1.795	-2.184	-2.081	-2.150	-1.985	-2.614	-1.886	-2.586
370.0	-193.3	-69.57	178.5	451.5	696.4	811.6	789.9	687.4	572.4	482.7	359.4	318.2	309.5	295.6	288.1	254.4	229.1	213.9	205.6	189.5	192.0	242.3	266.0	162.6	91.23	73.83	66.17	155.4	903.5	 3024	 5164	 2703	64.49	-0.498	-1.639	-2.020	-2.100	-2.355	-2.493	-2.392	-3.077	-2.686	-2.653	-2.691	-2.427	-2.587	-2.216	-2.112	-1.385	-0.986	-1.076	-1.051	-1.120	-0.665	-0.491	-0.642	-0.870	-1.329	-0.644	-1.074	-1.514	-1.484	-1.124	-1.547	-2.018	-2.255	-1.798	-2.108	-1.945	-2.047	-2.314	-2.350	-1.591	-1.896	-2.408	-2.274	-2.129
375.0	-185.4	-64.64	144.4	443.2	670.8	743.7	749.1	655.4	540.9	468.3	344.7	314.8	293.3	286.9	285.0	255.3	241.7	229.4	220.3	205.4	195.4	198.3	237.5	271.4	152.6	94.29	71.18	77.07	227.9	694.1	 1848	 5609	 3356	85.52	-0.418	-1.052	-1.274	-1.844	-2.068	-2.474	-2.788	-2.584	-2.901	-2.523	-2.245	-2.527	-1.974	-1.769	-1.468	-1.263	-1.177	-1.060	-0.867	-0.473	-0.658	-0.818	-0.934	-1.418	-1.346	-1.396	-1.101	-2.018	-1.594	-1.924	-1.846	-2.172	-1.983	-1.951	-1.589	-2.790	-2.335	-2.143	-1.831	-2.291	-1.903	-2.254	-2.720
380.0	-185.1	-90.54	135.0	399.7	602.5	726.8	675.8	617.0	528.7	432.7	333.2	294.5	304.0	282.4	282.4	258.6	246.4	232.4	224.5	217.5	207.4	197.6	200.1	269.0	231.1	121.3	83.81	67.58	89.02	179.7	440.5	 2550	 6082	 1081	45.98	-0.279	-1.277	-1.970	-2.015	-2.567	-2.851	-2.660	-2.595	-2.511	-2.652	-2.691	-2.143	-1.910	-1.878	-1.249	-1.358	-1.016	-1.476	-1.159	-0.591	-0.435	-0.951	-1.188	-1.200	-1.632	-1.128	-1.597	-1.604	-1.263	-1.424	-1.862	-1.986	-1.881	-1.534	-2.226	-1.930	-2.356	-2.292	-1.941	-2.409	-2.608	-2.136
385.0	-186.5	-63.23	130.4	332.8	569.2	649.4	661.3	598.6	500.1	413.1	337.9	283.3	291.0	279.8	283.6	261.9	247.7	232.9	230.8	226.7	224.0	200.8	188.9	211.6	269.5	182.7	102.3	76.34	65.63	70.53	120.7	627.7	 3424	 5482	840.4	12.76	-0.604	-1.856	-1.639	-2.041	-2.423	-2.531	-2.192	-1.678	-2.033	-2.630	-1.713	-2.040	-1.454	-1.330	-0.922	-1.249	-1.093	-0.779	-0.709	-0.531	-0.653	-1.622	-1.065	-1.486	-1.418	-1.320	-1.341	-1.449	-1.923	-1.863	-1.677	-2.182	-1.658	-1.970	-1.491	-2.368	-1.699	-2.248	-1.928	-2.413	-2.007
