Sample:	'1
File name:	2025.7.15 20.00 4±¶.FD3
Run date:	'10:28:09, 07/17/2025
Operator:	Administrator
Comment:	'

Instrument
Model:	F-2700 FL Spectrophotometer
Serial number:	23B8-004
ROM Version:	4J14000 07

Instrument parameters
Measurement type:	3-D scan
Data mode:	Fluorescence
EX  Start WL:	220.0 nm
EX  End WL:	600.0 nm
EX Sampling interval:	5.0 nm
EM  Start WL:	230.0 nm
EM  End WL:	650.0 nm
EM Sampling interval:	5.0 nm
Scan speed:	12000 nm/min
EX Slit:	5.0 nm
EM Slit:	5.0 nm
PMT Voltage:	700 V
Response:	Auto 
Corrected spectra:	Off
Contour interval:	50.000

Peak integration
Integration method:	Rectangular
Sensitivity:	1
Threshold:	1.000

Peaks
No.	ApexEX/EM(nm)	Height(Data)
1	230.0/345.0	3272
2	230.0/595.0	17.01
3	235.0/625.0	6.670
4	240.0/265.0	414.5
5	250.0/275.0	582.8
6	255.0/280.0	634.4
7	255.0/560.0	180.0
8	260.0/290.0	627.0
9	260.0/575.0	133.9
10	265.0/295.0	824.7
11	265.0/585.0	117.9
12	270.0/300.0	1142
13	270.0/600.0	102.8
14	275.0/310.0	1335
15	275.0/415.0	4427
16	275.0/435.0	4314
17	275.0/610.0	98.87
18	280.0/315.0	1363
19	280.0/340.0	1665
20	280.0/625.0	87.19
21	285.0/320.0	1515
22	285.0/640.0	71.08
23	290.0/325.0	1444
24	320.0/365.0	706.4
25	325.0/370.0	673.3
26	330.0/375.0	647.7
27	350.0/415.0	2464
28	350.0/435.0	2460
29	440.0/520.0	35.40
30	460.0/340.0	8.599
31	475.0/350.0	8.159
32	485.0/265.0	1.531
33	495.0/270.0	1.398
34	500.0/435.0	10.52
35	505.0/275.0	2.235
36	510.0/280.0	2.880
37	515.0/285.0	2.799
38	530.0/290.0	2.541
39	540.0/295.0	3.922
40	545.0/300.0	4.512
41	550.0/305.0	5.386
42	550.0/415.0	12.32
43	555.0/435.0	12.01
44	560.0/310.0	5.285
45	560.0/340.0	6.133
46	560.0/410.0	12.19
47	570.0/315.0	5.860
48	580.0/320.0	6.134
49	585.0/345.0	6.098

Data points
	220.0	225.0	230.0	235.0	240.0	245.0	250.0	255.0	260.0	265.0	270.0	275.0	280.0	285.0	290.0	295.0	300.0	305.0	310.0	315.0	320.0	325.0	330.0	335.0	340.0	345.0	350.0	355.0	360.0	365.0	370.0	375.0	380.0	385.0	390.0	395.0	400.0	405.0	410.0	415.0	420.0	425.0	430.0	435.0	440.0	445.0	450.0	455.0	460.0	465.0	470.0	475.0	480.0	485.0	490.0	495.0	500.0	505.0	510.0	515.0	520.0	525.0	530.0	535.0	540.0	545.0	550.0	555.0	560.0	565.0	570.0	575.0	580.0	585.0	590.0	595.0	600.0
230.0	-26.85	1348	3418	903.4	17.86	-7.869	-6.925	-5.393	-4.800	-3.835	-3.062	-2.793	-2.071	-1.722	-1.655	-1.457	-1.533	-1.215	-0.989	-0.830	-0.853	-0.713	-0.661	-0.676	-0.638	-0.616	-0.605	-0.657	-0.498	-0.598	-0.573	-0.651	-0.587	-0.597	-0.578	-0.569	-0.679	-0.650	-0.690	-0.701	-0.652	-0.499	-0.541	-0.615	-0.628	-0.618	0.522	5.354	10.15	7.099	1.903	-0.185	-0.545	-0.634	-0.617	-0.600	-0.681	-0.679	-0.688	-0.684	-0.690	-0.699	-0.715	-0.760	-0.732	-0.744	-0.749	-0.742	-0.783	-0.774	-0.792	-0.804	-0.786	-0.818	-0.798	-0.820	-0.862
235.0	27.42	328.9	2136	3398	573.3	68.04	-5.053	-4.358	-3.859	-3.186	-2.608	-2.279	-1.926	-1.888	-1.760	-1.343	-1.306	-1.151	-0.763	-0.713	-0.674	-0.695	-0.515	-0.759	-0.613	-0.675	-0.604	-0.691	-0.384	-0.704	-0.568	-0.597	-0.615	-0.614	-0.541	-0.597	-0.633	-0.650	-0.676	-0.689	-0.651	-0.667	-0.512	-0.463	-0.414	-0.527	-0.296	0.865	3.542	7.419	9.509	9.482	4.165	0.041	-0.585	-0.607	-0.667	-0.634	-0.695	-0.682	-0.679	-0.731	-0.687	-0.723	-0.731	-0.712	-0.773	-0.721	-0.797	-0.734	-0.761	-0.783	-0.779	-0.866	-0.772	-0.769	-0.859
240.0	78.83	129.2	629.0	2917	3393	500.6	17.64	-3.782	-3.682	-2.755	-2.350	-1.730	-2.125	-1.477	-1.493	-1.548	-1.299	-1.147	-0.748	-0.793	-0.655	-0.565	-0.464	-0.686	-0.575	-0.549	-0.483	-0.452	-0.295	-0.562	-0.616	-0.679	-0.632	-0.632	-0.493	-0.606	-0.632	-0.627	-0.666	-0.595	-0.642	-0.727	-0.616	-0.486	-0.278	-0.172	-0.250	-0.181	0.451	1.816	5.196	13.48	17.98	9.808	2.456	-0.328	-0.636	-0.657	-0.692	-0.696	-0.665	-0.735	-0.675	-0.743	-0.757	-0.737	-0.751	-0.735	-0.788	-0.790	-0.760	-0.771	-0.755	-0.863	-0.788	-0.784	-0.872
245.0	45.26	189.9	188.0	999.7	3814	3823	353.0	5.512	-2.163	-1.569	-0.414	-1.830	-1.663	-1.425	-1.641	-1.140	-0.996	-0.728	-0.473	-0.904	-0.635	-0.305	-0.540	-0.425	-0.260	-0.562	-0.454	-0.403	-0.395	-0.445	-0.621	-0.639	-0.623	-0.627	-0.495	-0.553	-0.603	-0.653	-0.689	-0.674	-0.653	-0.650	-0.616	-0.613	-0.510	-0.128	0.050	-0.061	-0.098	0.042	0.931	4.300	14.17	20.14	17.14	7.134	1.222	-0.561	-0.663	-0.641	-0.633	-0.672	-0.695	-0.706	-0.739	-0.720	-0.740	-0.759	-0.784	-0.767	-0.816	-0.787	-0.804	-0.770	-0.830	-0.804	-0.822
250.0	-21.56	122.6	238.9	307.3	1264	4063	5586	1276	49.99	1.754	0.581	-0.562	-0.768	-0.873	-0.921	-0.659	-0.867	-0.725	-0.524	-0.626	-0.593	-0.340	-0.481	-0.537	-0.503	-0.430	-0.403	-0.507	-0.376	-0.471	-0.642	-0.606	-0.566	-0.626	-0.489	-0.569	-0.648	-0.675	-0.648	-0.683	-0.676	-0.645	-0.645	-0.615	-0.583	-0.491	-0.284	0.073	0.363	0.244	0.129	0.648	2.997	6.415	11.80	15.06	19.31	17.09	9.148	1.268	-0.522	-0.646	-0.685	-0.689	-0.735	-0.654	-0.669	-0.750	-0.767	-0.724	-0.764	-0.752	-0.785	-0.779	-0.814	-0.793	-0.818
255.0	-37.07	10.44	172.8	336.2	361.0	1056	5312	7358	1579	65.81	4.487	1.698	0.084	0.059	-0.358	-0.228	-0.500	-0.704	-0.506	-0.497	-0.458	-0.180	-0.366	-0.449	-0.508	-0.429	-0.551	-0.495	-0.253	-0.483	-0.451	-0.448	-0.560	-0.503	-0.401	-0.522	-0.591	-0.689	-0.613	-0.701	-0.663	-0.661	-0.663	-0.605	-0.580	-0.597	-0.504	-0.380	-0.136	0.404	0.772	0.631	0.598	1.091	2.240	3.296	7.801	20.88	38.64	25.54	13.91	1.970	-0.590	-0.666	-0.678	-0.662	-0.712	-0.722	-0.722	-0.725	-0.757	-0.755	-0.842	-0.788	-0.787	-0.760	-0.724
260.0	-39.71	-13.21	62.08	307.5	337.9	285.1	1688	6692	7008	1427	24.00	3.893	1.257	0.466	0.036	-0.203	-0.232	-0.555	-0.182	-0.379	-0.195	-0.285	-0.155	-0.388	-0.327	-0.340	-0.509	-0.342	-0.191	-0.359	-0.429	-0.508	-0.550	-0.522	-0.432	-0.526	-0.580	-0.631	-0.635	-0.649	-0.717	-0.679	-0.609	-0.653	-0.632	-0.614	-0.579	-0.454	-0.415	-0.133	0.331	1.159	1.156	0.426	0.186	0.392	1.401	5.256	18.05	31.67	48.41	25.83	9.100	-0.035	-0.662	-0.674	-0.643	-0.712	-0.690	-0.725	-0.704	-0.761	-0.824	-0.798	-0.690	-0.765	-0.799
265.0	-33.90	-17.04	8.182	136.9	414.5	256.6	417.6	2348	8754	9413	227.0	10.51	3.199	1.874	0.734	0.067	-0.131	-0.169	0.229	-0.506	-0.297	-0.288	-0.152	-0.239	-0.529	-0.248	-0.430	-0.427	-0.021	-0.344	-0.481	-0.452	-0.500	-0.457	-0.397	-0.488	-0.635	-0.619	-0.699	-0.692	-0.698	-0.658	-0.587	-0.653	-0.579	-0.529	-0.496	-0.410	-0.454	-0.368	-0.244	0.308	1.190	1.531	0.640	-0.132	-0.067	0.737	3.828	9.555	30.00	54.08	32.42	17.34	2.635	-0.442	-0.653	-0.686	-0.715	-0.697	-0.670	-0.678	-0.733	-0.777	-0.711	-0.786	-0.818
270.0	-35.56	-8.494	4.253	37.19	202.9	427.7	329.8	578.9	2963	9999.9	9999.9	909.9	41.82	3.936	1.938	1.313	0.131	0.281	0.804	-0.064	-0.197	0.160	-0.074	-0.139	-0.239	-0.115	-0.403	-0.261	-0.083	-0.287	-0.485	-0.415	-0.394	-0.472	-0.312	-0.470	-0.547	-0.594	-0.616	-0.631	-0.629	-0.667	-0.622	-0.586	-0.558	-0.536	-0.486	-0.457	-0.385	-0.364	-0.379	-0.332	0.018	0.611	1.294	1.398	0.936	0.156	0.586	1.776	6.660	16.15	22.20	29.79	32.08	30.93	12.67	2.850	-0.478	-0.673	-0.676	-0.680	-0.709	-0.713	-0.734	-0.767	-0.813
275.0	-2.201	24.32	24.27	20.05	59.61	214.8	582.8	369.4	705.3	2602	9999.9	9999.9	1192	30.72	4.009	2.973	1.193	0.770	1.511	0.499	0.018	0.499	0.075	-0.085	-0.146	-0.116	-0.155	-0.200	-0.076	-0.295	-0.423	-0.383	-0.352	-0.282	-0.191	-0.416	-0.387	-0.564	-0.609	-0.607	-0.540	-0.569	-0.618	-0.504	-0.439	-0.511	-0.454	-0.400	-0.340	-0.313	-0.399	-0.490	-0.362	-0.193	0.003	0.430	1.708	2.235	1.333	0.384	1.077	3.460	4.611	6.583	10.81	29.97	55.46	31.53	17.66	3.020	-0.475	-0.700	-0.697	-0.671	-0.777	-0.738	-0.793
280.0	26.20	57.54	72.73	38.00	33.33	86.30	408.0	634.4	304.4	652.8	3078	9999.9	9609	162.8	16.37	4.767	2.342	1.909	2.428	0.897	0.352	0.559	0.301	0.057	-0.121	-0.219	-0.103	-0.165	0.079	-0.044	-0.215	-0.379	-0.252	-0.212	-0.144	-0.363	-0.316	-0.520	-0.472	-0.494	-0.421	-0.470	-0.495	-0.511	-0.422	-0.436	-0.255	-0.236	-0.243	-0.199	-0.337	-0.346	-0.404	-0.408	-0.304	-0.256	0.349	1.632	2.880	2.116	0.522	0.608	0.709	1.179	2.218	7.330	22.15	42.85	52.16	29.75	13.88	0.402	-0.614	-0.660	-0.730	-0.730	-0.739
285.0	79.11	116.2	111.7	61.94	44.83	59.12	176.0	616.9	376.3	271.6	802.4	3622	9999.9	6776	125.3	7.937	3.130	2.317	3.700	1.275	0.234	1.099	0.302	0.076	0.178	-0.020	-0.121	-0.122	0.246	-0.002	-0.319	-0.393	-0.330	-0.335	-0.156	-0.173	-0.237	-0.477	-0.391	-0.474	-0.456	-0.502	-0.427	-0.408	-0.231	-0.254	-0.123	-0.066	-0.109	-0.079	-0.224	-0.330	-0.361	-0.358	-0.372	-0.317	-0.168	0.173	1.341	2.799	2.532	1.001	0.104	0.147	0.412	1.408	4.938	11.51	25.90	56.80	72.62	22.96	5.406	-0.323	-0.648	-0.679	-0.737
290.0	132.5	187.9	186.2	117.2	76.15	79.34	109.8	279.9	627.0	559.6	376.0	993.6	3549	8986	6371	488.4	23.25	4.654	5.767	2.360	1.057	1.578	0.687	0.317	0.294	0.034	0.023	0.053	0.400	-0.062	-0.360	-0.273	-0.147	-0.157	-0.074	-0.024	-0.217	-0.398	-0.437	-0.402	-0.362	-0.416	-0.347	-0.300	-0.217	-0.133	0.163	0.132	0.152	0.059	-0.059	-0.135	-0.192	-0.219	-0.290	-0.298	-0.235	-0.114	0.212	0.779	1.678	2.528	2.541	1.517	0.664	0.456	1.291	2.709	5.971	15.32	33.70	32.16	34.87	38.51	17.32	6.634	-0.182
295.0	193.5	269.5	259.8	170.4	123.6	113.3	125.6	184.4	338.1	824.7	756.2	505.3	1007	2357	6224	7404	636.5	21.54	9.732	4.614	2.185	2.076	1.083	0.681	0.413	0.307	-0.042	0.183	0.405	0.027	-0.347	-0.247	-0.101	-0.113	0.029	-0.085	-0.131	-0.255	-0.306	-0.347	-0.326	-0.332	-0.377	-0.214	-0.221	-0.066	0.248	0.241	0.443	0.317	0.128	-0.064	-0.017	-0.090	-0.169	-0.110	-0.124	0.033	-0.009	0.244	0.412	0.834	1.719	3.301	3.922	1.957	1.030	1.037	1.815	3.777	7.839	7.394	9.971	27.33	57.12	76.27	27.79
300.0	241.4	323.4	317.4	233.5	161.9	158.3	176.2	223.4	296.8	610.4	1142	694.6	547.2	746.0	1966	9138	5769	94.38	18.29	6.424	2.755	2.993	1.608	0.614	0.901	0.544	0.418	0.351	0.529	0.227	-0.245	-0.211	0.036	-0.005	-0.009	-0.082	0.055	-0.207	-0.127	-0.307	-0.261	-0.180	-0.250	-0.145	-0.131	0.092	0.271	0.416	0.593	0.399	0.411	0.206	0.091	0.064	-0.067	0.000	0.018	0.192	0.181	0.415	0.407	0.652	1.176	1.871	3.677	4.512	3.246	1.551	1.273	1.460	2.385	2.031	2.354	6.498	17.80	51.16	71.23
305.0	291.4	392.6	402.2	290.3	218.4	216.3	268.4	318.2	369.4	586.9	1090	1284	694.8	534.8	708.1	3201	8664	4722	78.57	9.967	4.400	4.239	2.469	1.158	1.258	0.871	0.354	0.285	0.805	0.199	-0.158	0.078	-0.019	0.030	0.130	0.012	0.192	-0.127	-0.195	-0.159	-0.140	-0.091	-0.162	-0.044	0.106	0.286	0.500	0.576	0.735	0.537	0.452	0.494	0.318	0.362	0.217	0.292	0.487	0.684	0.696	0.817	0.873	1.002	1.517	1.715	2.418	3.977	5.386	4.914	2.873	1.860	1.720	1.486	1.410	2.090	4.470	13.06	25.75
310.0	342.6	448.6	489.3	372.5	292.6	298.7	357.5	431.3	533.3	689.2	938.2	1335	1276	735.4	557.0	1000	2969	7498	9000	331.9	19.51	7.112	3.865	1.919	1.649	1.056	0.665	0.699	0.997	0.478	-0.048	0.093	0.047	-0.051	0.094	0.046	0.230	-0.020	-0.103	-0.090	-0.133	-0.036	-0.077	0.065	0.213	0.495	0.625	0.832	0.932	0.766	0.719	0.732	0.641	0.553	0.572	0.639	0.773	0.926	1.189	1.237	1.353	1.423	1.901	2.159	2.505	2.940	3.822	4.915	5.285	4.775	3.498	2.178	1.794	1.779	2.027	3.825	6.322
315.0	481.9	635.7	623.1	464.9	360.6	376.2	439.3	524.8	616.5	778.0	957.9	1142	1363	1266	713.2	597.7	971.1	1984	8395	9999.9	474.0	24.05	6.262	3.047	2.407	1.823	1.183	1.067	1.292	0.568	0.168	0.106	0.134	0.125	0.360	0.307	0.333	-0.028	-0.065	-0.015	-0.122	-0.015	-0.014	0.375	0.484	0.780	1.243	1.444	1.404	0.996	0.995	1.018	0.860	0.820	0.890	0.947	1.058	1.183	1.674	1.658	1.712	1.916	2.154	2.395	2.879	3.190	3.548	3.762	4.110	4.898	5.860	4.905	3.412	2.421	1.931	2.126	2.432
320.0	738.8	1115	936.6	605.7	447.2	431.5	499.4	603.3	710.8	878.7	1074	1224	1312	1515	1103	651.3	629.5	703.4	2401	9315	4546	414.0	12.38	4.586	3.460	2.181	1.563	1.302	1.506	0.745	0.443	0.413	0.180	0.144	0.489	0.368	0.361	0.072	0.057	0.072	0.081	0.097	0.215	0.590	0.983	1.705	2.258	2.703	2.182	1.556	1.487	1.297	1.177	1.079	1.065	1.090	1.663	1.632	1.871	1.961	2.031	2.249	2.821	2.698	3.180	3.586	3.921	4.073	4.343	4.351	4.884	6.007	6.134	4.423	2.900	2.568	2.035
325.0	1019	1603	1335	887.8	604.7	507.8	576.6	671.3	776.6	954.0	1178	1341	1366	1420	1444	862.3	621.6	470.9	711.0	2922	9438	4208	59.88	8.017	5.010	2.763	1.795	1.461	1.804	1.004	0.607	0.389	0.426	0.306	0.506	0.247	0.398	0.083	0.144	0.030	0.112	0.336	0.444	0.737	1.343	2.278	3.423	3.996	3.700	2.941	2.230	2.108	1.940	1.567	1.453	1.378	1.868	1.832	2.023	2.079	2.287	2.479	2.987	2.981	3.763	3.914	4.063	4.572	4.867	4.782	4.779	4.884	5.855	6.011	5.266	3.649	2.591
330.0	1326	2194	2195	1654	1029	689.2	674.3	751.8	863.5	1059	1275	1461	1493	1419	1393	1178	800.1	500.8	405.9	821.9	3050	8767	6661	1067	20.73	5.140	2.900	2.142	2.497	1.518	0.797	0.576	0.537	0.407	0.619	0.328	0.401	0.229	0.164	0.169	0.292	0.494	0.627	1.321	2.177	3.111	4.762	5.737	5.665	5.005	4.478	4.374	3.311	2.653	2.184	2.000	2.184	2.025	2.294	2.492	2.779	2.912	3.219	3.659	4.056	4.376	4.575	5.046	5.205	5.325	5.320	5.074	5.258	5.606	5.748	5.436	4.810
335.0	1607	2677	2798	2319	1545	985.3	804.8	837.5	955.6	1147	1400	1574	1636	1558	1412	1231	1174	705.9	443.3	451.5	892.0	2275	5946	6788	437.0	21.03	5.127	3.524	3.679	2.070	1.035	0.700	0.653	0.764	0.779	0.421	0.488	0.377	0.229	0.311	0.330	0.739	0.965	1.589	2.687	3.860	6.064	7.155	7.430	6.792	6.501	6.598	5.236	4.465	3.420	2.583	2.620	2.303	2.719	2.877	3.023	3.297	3.779	4.159	4.404	5.003	5.063	5.380	5.424	6.010	5.914	5.775	5.823	5.519	5.319	5.020	5.662
340.0	1710	2810	3178	2662	1805	1143	875.1	891.9	1002	1182	1419	1595	1665	1600	1420	1181	1159	946.0	528.8	415.1	456.6	710.1	1782	5742	7281	351.4	11.27	4.897	4.748	2.489	1.167	1.157	0.701	0.885	0.774	0.391	0.460	0.395	0.359	0.288	0.618	0.765	1.257	1.942	2.904	4.035	6.154	7.580	8.599	7.658	7.473	7.521	6.268	5.085	3.725	2.988	2.817	2.669	2.838	3.187	3.361	3.618	3.873	4.180	4.772	4.848	5.287	5.599	6.133	5.812	5.919	5.774	5.878	5.737	5.322	4.804	4.680
345.0	1724	2840	3272	2793	1895	1182	904.2	919.8	1020	1186	1391	1574	1630	1574	1398	1162	1013	1003	679.4	443.5	383.9	393.2	593.5	1895	7537	3429	51.57	7.558	6.199	3.570	1.363	1.302	0.801	1.025	0.923	0.422	0.601	0.496	0.306	0.291	0.624	0.853	1.202	1.898	2.958	4.123	5.961	7.705	8.043	7.414	7.963	8.007	6.391	5.152	4.132	3.469	2.954	2.983	2.995	2.980	3.282	3.571	3.889	4.283	4.457	4.663	5.095	5.185	5.687	5.868	5.744	5.785	5.719	6.098	4.854	4.681	4.701
350.0	1569	2613	3082	2752	1941	1261	969.1	947.8	1033	1176	1354	1492	1549	1496	1346	1130	949.2	857.4	799.9	601.7	426.0	368.1	368.7	594.6	2247	4505	4322	1059	22.16	5.278	2.127	1.576	1.252	0.946	1.067	0.565	0.641	0.511	0.250	0.234	0.534	0.723	1.013	1.670	2.610	3.895	5.396	7.163	7.815	7.318	7.610	8.159	6.733	5.659	4.327	3.490	3.279	3.211	3.191	3.258	3.509	3.529	3.679	4.080	4.156	4.555	4.870	5.076	5.252	5.541	5.539	5.539	5.526	5.625	4.930	4.608	4.191
355.0	1406	2316	2771	2580	1934	1282	993.8	964.7	1041	1160	1290	1386	1440	1404	1279	1096	922.4	796.6	713.9	744.2	565.6	408.3	354.2	334.4	635.6	1127	3009	6298	2043	21.96	3.768	2.490	1.572	0.879	1.370	0.596	0.634	0.435	0.144	0.071	0.545	0.645	0.819	1.607	2.375	3.260	4.584	6.637	7.076	6.875	7.050	7.342	6.467	5.675	4.229	3.715	3.507	3.404	3.215	3.279	3.671	3.476	3.496	3.901	3.994	4.190	4.286	4.658	4.776	5.368	5.258	5.098	5.218	5.023	4.555	4.901	3.802
360.0	1269	2062	2560	2369	1820	1253	994.5	965.0	1020	1116	1235	1314	1352	1312	1206	1051	900.5	780.6	678.9	702.8	703.2	486.6	375.2	300.6	307.9	358.5	822.7	4735	9969	359.4	10.13	3.702	2.132	1.187	1.541	0.647	0.924	0.572	0.195	0.286	0.543	0.571	0.795	1.427	2.041	2.919	4.136	5.720	6.390	6.084	6.308	6.944	6.179	5.594	4.446	3.265	3.451	3.022	3.243	3.465	3.542	3.446	3.489	3.669	3.985	3.974	4.271	4.055	4.400	4.839	4.753	4.773	4.775	4.968	4.464	4.597	3.926
365.0	1156	1860	2324	2166	1724	1236	1011	981.4	994.1	1095	1174	1246	1270	1250	1150	1016	892.2	778.9	687.8	649.1	706.4	612.2	422.1	319.8	260.8	208.7	262.8	1380	9162	6424	49.17	6.785	3.283	1.985	1.816	0.930	0.983	0.455	0.199	0.252	0.273	0.641	0.758	1.276	1.928	2.776	3.669	5.235	5.927	5.608	5.986	6.630	5.834	5.089	4.319	3.473	3.659	3.131	3.160	3.428	3.464	3.313	3.275	4.015	3.790	4.015	4.006	4.104	4.156	4.351	4.596	4.638	4.294	4.454	4.160	3.854	3.911
370.0	993.4	1651	2028	1980	1635	1213	1011	965.2	992.5	1068	1138	1171	1185	1156	1082	967.5	870.3	781.1	706.9	657.8	648.3	673.3	571.2	391.8	293.5	215.7	171.8	386.1	2549	5010	3566	1027	17.09	3.855	3.127	1.635	1.181	0.674	0.429	0.344	0.482	0.601	0.720	1.016	1.825	2.388	2.990	4.301	5.323	5.091	5.340	6.161	5.436	4.896	4.087	3.391	3.351	3.231	3.305	3.298	3.302	3.292	3.380	3.549	3.593	3.863	3.653	3.829	3.794	4.011	4.090	4.048	4.010	3.993	3.970	3.782	3.797
375.0	871.0	1400	1762	1761	1506	1175	1016	975.0	974.2	1037	1074	1107	1109	1072	1011	925.7	844.7	782.4	718.9	678.5	643.9	625.7	647.7	527.4	352.3	260.3	190.5	197.6	647.9	1204	2141	5032	348.2	20.83	6.479	3.126	2.021	1.014	0.703	0.557	0.489	0.647	0.581	0.970	1.442	2.067	2.867	3.687	4.448	4.487	4.751	5.260	4.831	4.628	3.825	3.455	3.345	3.275	3.288	3.265	3.329	3.580	3.173	3.388	3.402	3.550	3.453	3.587	3.698	3.743	3.928	3.620	3.711	4.055	3.704	3.784	3.689
380.0	767.0	1278	1600	1627	1406	1156	1010	959.1	967.8	1009	1044	1067	1063	1030	960.3	894.3	829.9	781.3	735.9	694.6	658.7	624.9	620.2	617.0	439.9	308.8	229.0	185.9	250.8	345.1	587.7	3397	4525	301.3	19.94	6.222	4.038	1.946	0.993	0.678	0.477	0.624	0.630	1.003	1.269	1.943	2.511	3.509	4.057	3.979	4.075	4.696	4.758	4.377	3.919	3.481	3.269	3.388	3.410	3.426	3.392	3.432	3.266	3.163	3.238	3.239	3.345	3.247	3.423	3.514	3.253	3.663	3.543	3.718	3.381	3.509	3.487
385.0	722.8	1155	1462	1524	1373	1179	1026	982.8	968.2	1008	1055	1061	1049	1009	952.3	880.6	820.9	775.5	737.9	712.9	680.8	650.9	616.9	625.3	564.1	388.2	286.1	229.8	202.8	188.4	213.8	975.0	4062	2686	275.4	15.50	8.395	4.063	1.637	0.782	0.755	0.758	0.623	0.953	1.207	1.755	2.145	3.207	3.533	3.625	3.779	4.244	4.670	4.183	3.683	3.627	3.537	3.433	3.531	3.138	3.364	3.255	3.416	3.110	3.434	3.315	3.258	3.363	3.396	3.574	3.568	3.603	3.641	3.697	3.468	3.607	3.220
390.0	704.6	1092	1409	1477	1375	1239	1132	1087	1086	1149	1218	1232	1206	1146	1057	952.5	862.5	809.4	781.8	768.2	757.8	740.7	714.7	696.9	692.8	605.6	431.6	375.4	328.3	287.9	249.2	376.7	1217	2829	4368	876.7	29.56	17.01	6.145	2.343	1.311	0.857	0.824	1.146	1.293	1.768	2.204	3.063	3.443	3.496	3.804	4.648	4.630	4.293	3.890	3.888	3.957	3.546	3.813	3.558	3.634	3.482	3.662	3.553	3.912	3.673	3.790	3.657	3.774	3.975	3.790	3.672	3.870	3.780	3.856	3.529	3.555
395.0	745.4	1060	1355	1514	1471	1426	1369	1371	1433	1576	1747	1786	1673	1500	1421	1204	1030	930.2	903.1	913.2	932.7	960.1	967.9	981.5	968.0	974.2	905.3	769.2	688.8	624.6	438.8	437.3	582.9	917.4	2939	4171	1183	78.52	20.57	6.448	2.562	1.518	1.298	1.343	1.731	2.140	2.573	3.116	3.768	3.620	3.951	4.848	5.119	4.777	4.777	4.756	4.802	4.743	4.351	4.629	4.496	4.672	4.889	4.871	5.302	5.039	5.094	5.330	5.229	5.032	5.315	4.865	5.004	4.876	4.793	4.389	4.185
400.0	783.1	1067	1411	1601	1658	1677	1707	1729	1899	2205	2336	2600	2458	2239	1946	1590	1284	1116	1072	1105	1166	1240	1321	1369	1391	1408	1419	1302	1172	1085	965.2	841.0	741.9	713.9	1161	2952	3671	295.5	38.54	13.70	4.898	2.282	1.710	1.649	1.883	2.485	2.790	3.350	4.228	3.832	4.434	5.316	5.802	5.866	5.659	6.098	6.160	6.003	5.854	5.689	5.861	6.297	6.418	6.738	7.001	7.106	7.435	7.051	7.275	6.977	7.184	6.610	6.662	6.487	5.795	5.756	5.255
405.0	797.5	1153	1562	1765	1892	2007	2085	2198	2469	2968	3362	3558	3371	3035	2569	2052	1594	1340	1273	1328	1433	1568	1719	1825	1894	1923	1952	1912	1755	1632	1506	1313	1102	941.4	932.3	1325	3267	2315	236.8	24.69	8.048	3.752	2.352	1.992	2.131	2.927	3.082	3.812	4.482	4.481	4.946	6.260	6.873	6.830	6.984	7.047	7.556	7.300	7.173	8.080	7.853	7.575	8.588	9.299	9.694	9.345	10.34	10.10	10.12	9.254	9.434	8.959	8.514	8.529	7.928	7.333	6.508
410.0	889.0	1252	1637	1877	2105	2297	2427	2614	3004	3623	4177	4400	4180	3739	3140	2460	1865	1524	1448	1518	1669	1849	2056	2228	2333	2385	2411	2406	2305	2142	1987	1758	1467	1230	1088	1030	1369	2253	2475	689.6	20.18	5.631	3.444	2.702	2.881	3.106	3.626	4.399	4.876	4.879	5.386	7.304	7.432	7.895	8.175	7.944	8.802	8.693	8.819	9.155	9.052	9.317	10.41	11.30	11.52	11.92	12.06	12.11	12.19	11.52	11.42	11.13	10.50	9.989	9.215	8.512	7.656
