Sample:	'1
File name:	T2025042309农业综合开发165桥.FD3
Run date:	'11:16:08, 04/24/2025
Operator:	Administrator
Comment:	'

Instrument
Model:	F-2700 FL Spectrophotometer
Serial number:	23B8-004
ROM Version:	4J14000 07

Instrument parameters
Measurement type:	3-D scan
Data mode:	Fluorescence
EX  Start WL:	220.0 nm
EX  End WL:	600.0 nm
EX Sampling interval:	5.0 nm
EM  Start WL:	230.0 nm
EM  End WL:	650.0 nm
EM Sampling interval:	5.0 nm
Scan speed:	12000 nm/min
EX Slit:	5.0 nm
EM Slit:	5.0 nm
PMT Voltage:	700 V
Response:	Auto 
Corrected spectra:	Off
Contour interval:	50.000

Peak integration
Integration method:	Rectangular
Sensitivity:	1
Threshold:	1.000

Peaks
No.	ApexEX/EM(nm)	Height(Data)
1	225.0/575.0	48.01
2	225.0/585.0	48.07
3	225.0/625.0	36.19
4	225.0/635.0	30.78
5	230.0/345.0	989.4
6	230.0/580.0	49.68
7	230.0/590.0	46.38
8	235.0/355.0	927.3
9	235.0/510.0	245.9
10	240.0/265.0	330.3
11	240.0/390.0	786.7
12	240.0/525.0	224.3
13	245.0/270.0	344.5
14	245.0/535.0	186.1
15	250.0/275.0	440.4
16	250.0/545.0	155.9
17	255.0/280.0	519.6
18	255.0/560.0	128.0
19	260.0/290.0	490.9
20	260.0/570.0	104.9
21	265.0/585.0	104.6
22	270.0/300.0	957.8
23	270.0/595.0	91.08
24	275.0/305.0	1061
25	275.0/610.0	78.03
26	280.0/310.0	956.1
27	280.0/340.0	818.3
28	280.0/625.0	68.03
29	285.0/320.0	891.2
30	285.0/635.0	50.22
31	290.0/325.0	823.3
32	305.0/345.0	533.0
33	315.0/355.0	432.9
34	320.0/360.0	409.8
35	325.0/370.0	386.7
36	330.0/375.0	369.0
37	335.0/380.0	368.1
38	430.0/505.0	29.92
39	445.0/525.0	18.01
40	460.0/345.0	3.128
41	475.0/565.0	4.511
42	505.0/275.0	3.085
43	510.0/280.0	3.784
44	515.0/285.0	3.681
45	530.0/290.0	3.457
46	540.0/295.0	4.996
47	545.0/300.0	5.691
48	550.0/305.0	6.073
49	560.0/310.0	5.605
50	570.0/315.0	5.458
51	580.0/320.0	5.660
52	585.0/325.0	5.585

Data points
	220.0	225.0	230.0	235.0	240.0	245.0	250.0	255.0	260.0	265.0	270.0	275.0	280.0	285.0	290.0	295.0	300.0	305.0	310.0	315.0	320.0	325.0	330.0	335.0	340.0	345.0	350.0	355.0	360.0	365.0	370.0	375.0	380.0	385.0	390.0	395.0	400.0	405.0	410.0	415.0	420.0	425.0	430.0	435.0	440.0	445.0	450.0	455.0	460.0	465.0	470.0	475.0	480.0	485.0	490.0	495.0	500.0	505.0	510.0	515.0	520.0	525.0	530.0	535.0	540.0	545.0	550.0	555.0	560.0	565.0	570.0	575.0	580.0	585.0	590.0	595.0	600.0
230.0	30.99	449.0	1372	533.5	26.65	5.580	4.978	4.208	3.641	3.222	3.134	2.754	2.403	1.906	1.835	1.457	1.395	1.201	1.094	1.014	0.882	0.789	0.725	0.763	0.705	0.597	0.623	0.526	0.540	0.500	0.470	0.493	0.455	0.421	0.419	0.383	0.427	0.390	0.379	0.352	0.348	0.384	0.356	0.327	0.336	0.269	0.755	2.826	5.103	4.013	1.488	0.381	0.271	0.244	0.254	0.239	0.274	0.246	0.234	0.246	0.258	0.276	0.228	0.241	0.255	0.247	0.246	0.255	0.269	0.230	0.258	0.283	0.261	0.274	0.267	0.264	0.268
235.0	61.53	143.3	948.6	1902	504.3	46.36	5.401	4.597	3.319	3.715	3.203	2.807	2.654	2.379	2.203	1.415	1.236	1.407	1.081	1.040	1.064	0.887	0.728	0.841	0.760	0.657	0.640	0.526	0.485	0.607	0.505	0.493	0.418	0.492	0.414	0.350	0.379	0.394	0.424	0.367	0.333	0.368	0.394	0.460	0.491	0.354	0.363	0.959	2.210	4.597	6.285	6.705	3.037	0.682	0.262	0.200	0.244	0.275	0.295	0.248	0.229	0.294	0.245	0.212	0.276	0.268	0.231	0.252	0.291	0.266	0.235	0.252	0.235	0.252	0.270	0.251	0.288
240.0	85.53	96.33	301.0	1664	2281	399.3	23.95	4.960	5.208	3.898	3.564	3.216	2.726	2.419	2.003	1.571	1.217	1.392	1.252	1.062	0.747	0.794	0.786	0.798	0.638	0.722	0.597	0.547	0.548	0.556	0.540	0.542	0.422	0.449	0.509	0.400	0.369	0.375	0.430	0.392	0.369	0.378	0.333	0.376	0.516	0.482	0.480	0.489	0.791	1.591	3.927	9.346	11.88	7.688	2.582	0.420	0.245	0.248	0.316	0.258	0.250	0.289	0.243	0.217	0.245	0.252	0.260	0.264	0.251	0.244	0.243	0.273	0.257	0.288	0.288	0.270	0.278
245.0	79.36	137.3	124.2	576.7	2492	2426	292.7	10.01	4.976	4.565	4.051	3.397	3.142	2.820	2.174	1.556	1.505	1.292	1.195	1.134	0.751	0.784	0.726	0.750	0.653	0.580	0.665	0.520	0.573	0.562	0.480	0.515	0.521	0.445	0.455	0.427	0.309	0.362	0.477	0.361	0.378	0.402	0.306	0.343	0.360	0.522	0.695	0.572	0.503	0.575	1.129	3.493	9.228	15.22	13.95	6.211	1.453	0.299	0.244	0.263	0.240	0.259	0.272	0.254	0.260	0.238	0.245	0.240	0.286	0.282	0.292	0.274	0.287	0.342	0.286	0.230	0.239
250.0	41.79	107.3	196.3	210.0	809.9	2401	3028	1003	57.11	5.612	5.089	4.098	3.232	2.964	2.424	1.887	1.821	1.408	1.210	1.133	0.944	0.852	0.897	0.784	0.714	0.669	0.696	0.629	0.581	0.580	0.469	0.535	0.534	0.476	0.521	0.404	0.377	0.412	0.406	0.429	0.372	0.391	0.365	0.351	0.332	0.389	0.473	0.737	0.845	0.840	0.637	1.112	2.488	5.324	9.844	14.07	17.35	14.36	6.748	1.585	0.373	0.285	0.283	0.284	0.344	0.257	0.214	0.266	0.286	0.262	0.282	0.283	0.289	0.286	0.287	0.262	0.259
255.0	28.05	42.11	141.3	278.0	264.8	616.7	2469	4729	1385	51.94	6.646	5.487	4.786	3.155	2.355	2.440	1.911	1.630	1.411	1.155	1.078	0.893	1.000	0.994	0.792	0.715	0.753	0.703	0.606	0.536	0.605	0.674	0.569	0.452	0.428	0.378	0.479	0.452	0.390	0.369	0.365	0.425	0.384	0.376	0.343	0.349	0.316	0.387	0.594	0.945	1.273	1.198	1.111	1.447	2.444	3.644	7.722	18.67	28.84	23.37	9.616	1.757	0.393	0.361	0.293	0.245	0.303	0.292	0.319	0.308	0.292	0.254	0.375	0.281	0.300	0.252	0.268
260.0	26.60	28.75	59.24	245.7	284.2	184.9	750.9	4020	5270	244.9	23.97	6.758	5.767	4.105	3.182	2.659	1.912	1.679	1.405	1.333	1.196	1.106	0.943	0.925	0.971	0.826	0.682	0.670	0.621	0.634	0.641	0.631	0.567	0.487	0.404	0.484	0.466	0.400	0.447	0.465	0.385	0.489	0.396	0.366	0.359	0.337	0.328	0.379	0.384	0.469	0.890	1.497	1.753	0.984	0.862	1.092	2.056	5.517	14.49	28.95	31.19	21.57	6.740	0.805	0.338	0.408	0.372	0.294	0.298	0.315	0.292	0.277	0.296	0.259	0.306	0.325	0.267
265.0	29.42	23.25	29.82	118.8	330.3	208.5	205.9	1350	5691	5004	194.8	12.10	6.400	4.718	3.689	2.921	2.034	1.713	1.587	1.405	1.302	1.077	0.995	1.010	0.902	0.799	0.680	0.614	0.715	0.629	0.539	0.601	0.628	0.576	0.405	0.444	0.428	0.404	0.402	0.468	0.405	0.413	0.432	0.361	0.369	0.358	0.308	0.352	0.321	0.342	0.419	0.957	1.769	1.799	1.323	0.731	0.785	1.562	3.718	9.152	22.44	40.25	30.53	17.26	3.397	0.443	0.357	0.299	0.321	0.278	0.319	0.271	0.290	0.252	0.305	0.295	0.301
270.0	38.96	38.61	35.06	49.72	161.3	344.5	254.4	350.1	1785	5208	6302	768.4	43.53	7.512	4.879	3.323	2.687	2.178	1.729	1.384	1.265	1.361	1.187	1.092	0.963	0.707	0.653	0.705	0.699	0.683	0.636	0.646	0.601	0.555	0.520	0.493	0.518	0.449	0.397	0.494	0.396	0.484	0.355	0.424	0.397	0.423	0.358	0.395	0.367	0.325	0.294	0.466	0.738	1.212	1.782	2.005	1.579	1.046	1.218	2.412	5.598	12.50	21.02	33.50	34.58	32.53	12.71	3.449	0.515	0.385	0.382	0.359	0.305	0.289	0.356	0.340	0.347
275.0	75.49	91.11	77.33	55.48	63.19	160.6	440.4	300.2	445.8	1292	4593	9103	1057	40.61	6.973	4.353	3.610	2.748	2.001	1.775	1.543	1.390	1.220	0.965	0.994	0.948	0.809	0.818	0.788	0.785	0.772	0.611	0.605	0.604	0.595	0.590	0.477	0.543	0.464	0.531	0.416	0.413	0.385	0.483	0.463	0.551	0.484	0.441	0.509	0.424	0.376	0.436	0.424	0.596	0.721	1.215	2.381	3.085	2.052	1.145	1.681	3.225	5.166	8.197	12.17	30.16	53.34	31.93	19.41	3.639	0.529	0.400	0.405	0.339	0.383	0.378	0.359
280.0	112.3	143.8	134.4	85.00	51.20	73.74	282.6	519.6	245.9	356.2	1299	7105	8484	740.3	18.30	6.447	4.757	3.358	2.640	1.882	1.764	1.461	1.336	1.224	1.233	1.015	1.015	0.865	0.846	0.798	0.840	0.632	0.633	0.778	0.735	0.660	0.542	0.629	0.521	0.524	0.524	0.527	0.565	0.510	0.533	0.615	0.700	0.721	0.643	0.557	0.477	0.432	0.429	0.504	0.476	0.639	1.145	2.470	3.784	2.671	1.355	1.193	1.647	2.418	3.317	7.861	20.76	41.84	63.71	30.19	14.44	1.646	0.436	0.367	0.322	0.351	0.343
285.0	148.5	218.5	195.9	125.1	65.95	59.36	131.7	466.6	325.7	200.8	391.0	2166	8877	6672	113.1	9.916	6.004	3.752	2.846	2.198	1.727	1.418	1.384	1.530	1.164	1.143	1.055	0.920	0.982	0.773	0.794	0.682	0.704	0.812	0.729	0.678	0.646	0.583	0.563	0.534	0.500	0.457	0.602	0.579	0.714	0.780	0.882	0.967	0.885	0.797	0.591	0.533	0.454	0.438	0.452	0.488	0.650	1.147	2.073	3.681	3.490	1.790	1.102	1.170	1.380	2.464	5.329	11.74	29.55	52.98	64.47	26.02	8.673	0.861	0.374	0.368	0.410
290.0	201.8	298.9	296.4	182.1	99.37	79.71	98.22	224.5	490.9	482.2	311.3	657.1	2627	6533	6579	436.6	27.13	6.104	3.952	2.822	2.297	1.903	1.729	1.500	1.335	1.185	1.173	1.066	0.990	0.791	0.825	0.677	0.742	0.802	0.801	0.795	0.851	0.698	0.649	0.595	0.575	0.538	0.638	0.595	0.830	0.885	0.998	1.211	1.101	0.968	0.787	0.755	0.625	0.492	0.528	0.576	0.658	0.824	1.059	1.697	2.637	3.257	3.457	2.680	1.710	1.573	2.258	3.681	7.698	14.58	27.23	38.23	48.57	42.22	18.05	8.189	1.195
295.0	265.2	362.1	377.3	240.3	151.8	117.1	130.8	180.0	290.8	648.5	718.2	444.0	807.8	1652	4430	6468	636.1	24.12	5.677	3.838	2.857	2.418	1.950	1.729	1.387	1.338	1.196	1.022	0.867	0.799	0.895	0.832	0.888	0.954	0.861	0.847	0.872	0.836	0.662	0.611	0.653	0.674	0.633	0.653	0.927	0.979	1.111	1.409	1.297	1.175	0.970	0.980	0.775	0.658	0.721	0.715	0.803	0.854	0.909	1.248	1.497	1.798	2.805	4.324	4.996	3.126	2.236	2.265	3.184	4.491	7.104	9.587	13.03	23.39	49.28	64.76	29.32
300.0	293.3	396.0	422.1	290.2	184.0	152.3	164.1	201.1	270.9	473.4	957.8	673.2	484.3	565.8	1245	5674	5566	463.3	11.89	5.042	3.621	3.132	2.190	1.822	1.478	1.331	1.384	1.129	1.057	0.983	0.924	0.829	0.928	0.881	0.884	0.872	0.943	0.886	0.782	0.627	0.638	0.705	0.776	0.774	0.948	1.107	1.191	1.445	1.473	1.365	1.084	1.173	0.959	0.841	0.912	0.872	0.966	0.995	1.048	1.266	1.422	1.637	2.078	2.853	4.604	5.691	4.613	2.825	2.489	2.666	2.947	3.434	4.075	6.232	14.81	35.37	58.41
305.0	309.9	417.6	439.2	330.1	214.3	192.3	214.6	247.8	315.2	435.9	778.3	1061	581.9	395.5	437.5	1708	6663	4571	70.04	7.583	4.595	3.230	2.382	2.007	1.917	1.457	1.395	1.148	1.062	1.130	0.899	0.844	0.914	0.877	0.979	0.904	0.983	0.894	0.783	0.716	0.633	0.643	0.775	0.860	0.891	1.127	1.259	1.505	1.534	1.363	1.161	1.209	1.133	1.089	0.953	1.037	1.220	1.197	1.344	1.484	1.820	1.825	2.230	2.537	3.241	4.563	6.073	5.708	3.885	2.807	2.563	2.358	2.445	2.625	4.319	9.145	20.06
310.0	313.9	424.6	459.2	358.5	249.4	227.6	259.9	309.1	370.8	470.0	631.5	922.6	956.1	528.8	316.9	504.9	1948	4769	4841	1153	19.73	4.717	3.175	2.394	2.022	1.614	1.620	1.370	1.139	1.077	1.023	0.901	0.916	0.942	0.970	0.920	0.903	0.900	0.714	0.734	0.692	0.830	0.757	0.853	0.933	1.144	1.277	1.495	1.567	1.460	1.277	1.343	1.297	1.200	1.172	1.197	1.423	1.436	1.566	1.726	1.941	2.141	2.447	2.570	2.994	3.442	4.179	5.272	5.605	5.387	4.135	2.687	2.227	2.145	2.256	3.208	5.316
315.0	310.3	422.2	482.7	367.6	285.5	263.6	294.5	349.4	412.0	506.1	620.9	743.1	856.5	888.0	417.7	282.0	547.6	1164	3155	6175	476.7	19.94	4.619	3.013	2.334	1.905	1.798	1.528	1.194	1.226	1.087	0.875	0.973	0.927	0.976	1.064	0.895	0.890	0.788	0.762	0.761	0.846	0.787	0.916	0.869	1.237	1.233	1.514	1.711	1.469	1.256	1.408	1.421	1.320	1.337	1.326	1.606	1.594	1.707	1.905	2.047	2.255	2.707	2.844	3.107	3.339	3.467	3.829	4.318	4.711	5.458	5.340	3.747	2.408	2.214	2.028	2.173
320.0	321.4	474.3	553.4	407.1	319.2	298.4	330.2	380.3	453.7	541.1	656.3	724.7	748.3	891.2	690.0	304.2	274.8	362.0	855.7	4251	4106	382.3	9.534	3.957	3.288	2.188	1.932	1.656	1.418	1.383	1.148	1.021	0.952	1.160	1.087	1.056	0.852	0.817	0.862	0.767	0.671	0.831	0.791	0.876	0.996	1.335	1.433	1.621	1.732	1.549	1.361	1.576	1.427	1.391	1.460	1.450	1.690	1.777	1.845	2.062	2.304	2.385	2.801	2.827	3.336	3.444	3.535	3.761	3.814	4.039	4.259	5.403	5.660	4.427	2.831	1.999	1.931
325.0	358.1	561.0	655.1	527.4	374.0	322.0	355.3	397.1	484.4	571.2	679.7	754.0	739.5	744.6	823.3	466.6	256.0	212.2	275.0	1215	4614	3610	56.89	6.466	3.676	2.524	2.144	1.792	1.602	1.441	1.185	1.191	0.940	0.959	0.997	1.036	0.903	0.919	0.830	0.841	0.729	0.824	0.827	0.892	1.072	1.449	1.592	2.073	2.073	2.007	1.672	1.816	1.672	1.555	1.716	1.570	1.743	1.922	1.987	2.126	2.463	2.550	2.900	3.126	3.537	3.407	3.498	3.788	3.908	3.986	3.945	4.028	4.643	5.585	4.753	2.955	2.079
330.0	398.6	652.4	822.4	687.2	464.4	377.4	381.1	423.4	496.8	598.6	704.5	779.6	774.8	707.3	685.0	654.7	410.9	227.8	175.7	353.3	1327	3422	3824	1051	17.95	3.719	2.777	2.138	1.741	1.523	1.349	1.193	1.054	1.057	1.053	0.984	0.884	0.881	0.874	0.799	0.701	0.833	0.844	0.909	1.162	1.529	1.749	2.333	2.652	2.488	2.217	2.328	1.921	1.775	1.807	1.777	1.884	2.058	2.034	2.203	2.535	2.674	2.937	3.186	3.590	3.732	3.781	3.935	4.033	4.096	4.044	3.920	3.805	4.249	4.427	4.520	4.259
335.0	429.6	729.5	897.3	816.1	568.3	436.5	420.3	447.0	529.0	627.5	724.9	791.9	807.9	730.5	644.9	576.3	610.6	366.8	198.8	193.4	365.3	828.4	2420	4967	406.7	19.21	4.050	2.860	2.110	1.920	1.413	1.365	1.146	1.081	1.086	0.903	0.910	0.836	0.875	0.816	0.702	0.853	0.892	0.976	1.273	1.727	1.970	2.562	3.013	2.575	2.376	2.636	2.266	1.911	2.080	1.854	2.131	2.201	2.221	2.296	2.575	2.902	3.143	3.304	3.766	3.776	4.024	4.128	4.255	4.111	4.197	4.225	3.955	3.968	3.589	3.801	4.128
340.0	438.9	756.8	977.2	879.4	636.1	487.7	447.8	471.8	541.3	634.5	732.4	803.1	818.3	756.2	647.4	537.7	556.5	529.7	263.6	178.0	172.0	242.8	644.0	3286	3408	346.2	9.636	3.485	2.654	2.100	1.661	1.436	1.205	1.247	1.004	0.934	1.053	0.897	0.837	0.909	0.741	0.896	0.977	1.064	1.375	1.742	1.854	2.600	3.087	2.967	2.665	2.996	2.467	2.264	2.181	2.115	2.123	2.317	2.517	2.454	2.660	2.965	3.230	3.315	3.579	3.791	3.991	4.014	4.249	4.144	4.079	4.128	4.341	3.874	3.758	3.638	3.441
345.0	447.1	725.5	989.4	918.0	671.5	526.9	474.8	477.6	542.9	636.2	723.8	794.1	803.9	754.7	655.0	542.4	482.7	533.0	399.7	209.1	148.9	129.8	196.1	921.0	3597	3105	51.03	5.772	3.121	2.533	1.871	1.612	1.398	1.273	1.174	1.045	0.961	0.878	0.820	0.838	0.764	0.813	0.948	1.041	1.344	1.666	1.931	2.612	3.128	3.010	2.931	3.069	2.590	2.528	2.366	2.114	2.144	2.338	2.499	2.410	2.721	2.896	3.234	3.356	3.567	3.530	3.910	3.970	4.170	4.365	3.892	4.211	4.544	3.978	3.963	3.634	3.528
350.0	412.5	704.4	956.0	914.5	713.4	575.7	513.1	508.6	555.1	620.2	709.0	762.1	782.3	732.3	661.6	552.6	474.5	445.3	457.3	340.9	188.4	134.5	120.0	258.8	1019	2687	3104	936.9	17.41	3.596	2.238	1.873	1.453	1.373	1.193	1.075	0.911	0.934	0.979	0.848	0.796	0.820	0.941	1.021	1.213	1.578	1.915	2.558	3.002	2.981	2.938	3.152	2.943	2.542	2.502	2.424	2.388	2.394	2.441	2.612	2.679	2.916	3.210	3.316	3.513	3.459	3.606	3.932	3.998	4.170	4.067	4.004	4.256	4.006	3.934	3.681	3.416
355.0	392.5	678.5	887.8	927.3	747.1	619.5	547.8	547.8	584.9	635.1	696.9	744.6	760.6	726.3	659.0	568.7	499.1	434.9	398.0	432.9	314.7	178.2	133.2	136.2	277.2	648.2	1804	3891	380.6	20.55	3.488	2.507	1.832	1.652	1.229	1.121	1.043	1.014	0.933	0.733	0.833	0.786	0.968	0.990	1.140	1.497	1.814	2.341	2.663	2.846	2.654	3.079	3.003	2.788	2.560	2.762	2.681	2.637	2.618	2.785	2.905	3.030	3.117	3.365	3.351	3.553	3.508	3.949	3.848	3.689	3.936	3.940	4.096	3.856	3.976	3.863	3.597
360.0	390.4	643.9	846.4	921.3	765.8	651.8	591.9	579.0	616.1	644.8	699.3	735.3	748.0	718.9	659.1	579.2	519.6	449.9	390.0	400.3	409.8	248.8	158.1	129.7	131.3	191.5	475.5	2481	3134	337.4	10.40	3.057	2.101	1.943	1.304	1.152	1.111	1.098	0.925	0.822	0.816	0.743	0.897	1.052	1.180	1.446	1.769	2.393	2.503	2.862	2.575	3.150	3.224	2.912	2.847	2.604	2.870	2.711	2.771	2.772	2.883	3.047	3.167	3.728	3.480	3.599	3.530	3.820	3.901	3.686	4.145	3.850	4.154	3.978	3.981	3.853	3.783
365.0	368.3	611.9	836.1	883.2	766.7	674.2	615.0	604.0	632.4	660.1	703.1	728.9	735.9	709.4	654.2	585.3	530.9	466.8	403.6	375.0	407.6	354.9	204.5	148.3	117.8	103.9	147.3	695.5	2957	2885	49.14	5.294	2.821	2.199	1.665	1.160	1.120	1.151	0.977	0.967	0.883	0.790	0.922	1.001	1.194	1.374	1.635	2.260	2.527	2.645	2.613	3.101	3.019	2.953	2.975	2.931	2.954	3.003	2.845	3.011	3.037	3.172	3.148	3.535	3.462	3.637	3.543	3.716	3.681	3.975	3.960	4.006	3.810	3.803	3.836	3.813	3.669
370.0	348.7	580.4	795.6	845.9	781.2	706.3	658.1	645.2	643.7	676.3	706.6	722.9	721.1	690.2	647.7	593.5	541.1	496.5	435.7	392.4	369.2	386.7	321.5	203.1	143.8	109.7	95.26	196.3	828.9	2339	2814	893.3	16.24	2.917	2.017	1.519	1.250	1.167	0.960	1.023	0.853	0.952	0.971	1.017	1.170	1.436	1.593	2.098	2.388	2.552	2.474	3.092	2.971	3.015	3.063	3.034	3.106	3.018	2.943	3.077	3.041	3.174	3.321	3.382	3.538	3.420	3.550	3.598	3.789	3.903	3.796	3.808	4.043	3.891	3.993	3.891	3.716
375.0	359.5	561.1	737.4	815.9	788.7	740.2	678.1	672.0	660.8	684.1	704.1	712.3	699.0	679.4	637.0	590.7	554.2	510.8	463.1	420.3	378.4	354.9	369.0	309.1	190.4	137.9	105.2	105.8	226.9	562.2	1576	3431	333.8	19.33	2.776	1.892	1.455	1.258	1.029	0.988	1.004	0.895	0.978	1.003	1.182	1.396	1.690	1.892	2.201	2.515	2.501	2.986	3.105	3.160	3.140	3.044	3.258	3.165	3.207	3.115	3.026	3.369	3.252	3.416	3.541	3.475	3.315	3.561	3.547	3.739	3.632	3.991	3.689	3.649	3.996	3.986	3.980
380.0	343.3	540.8	728.5	803.5	778.2	763.8	703.0	675.1	668.6	698.6	702.8	700.2	691.0	666.1	626.9	583.5	554.9	516.7	478.3	438.9	397.5	356.0	347.6	368.1	254.6	166.6	126.8	101.0	103.9	164.0	416.3	2137	2692	291.8	9.758	2.344	1.807	1.473	1.011	1.015	1.028	0.858	0.984	1.068	1.115	1.498	1.568	1.992	2.267	2.567	2.528	3.003	2.840	3.293	3.067	2.983	3.339	3.125	3.156	3.287	3.138	3.480	3.251	3.430	3.508	3.554	3.356	3.547	3.552	3.635	3.605	3.755	3.683	3.680	3.894	3.910	3.661
385.0	309.6	517.4	723.5	798.6	785.7	761.3	703.8	692.4	673.5	696.1	697.3	691.1	683.7	658.7	619.6	578.9	550.7	518.9	487.0	453.8	410.5	368.6	339.1	354.6	328.0	210.4	151.2	115.7	90.85	83.18	128.3	592.4	2329	2415	216.5	4.330	2.261	1.723	1.297	1.254	1.038	0.911	1.008	1.043	1.117	1.417	1.456	1.730	2.214	2.323	2.424	2.850	3.163	3.212	3.043	3.230	3.277	3.030	3.244	3.342	3.230	3.384	3.357	3.446	3.552	3.632	3.171	3.638	3.520	3.609	3.583	3.783	3.802	3.738	3.655	3.718	3.843
390.0	304.7	499.7	688.6	774.5	786.7	752.5	714.4	693.2	671.7	686.3	687.8	674.8	668.1	637.1	608.4	568.1	541.6	516.9	487.0	458.1	420.4	387.5	355.1	333.4	337.2	292.5	198.3	144.3	111.7	87.87	78.16	166.3	644.0	1822	2135	660.9	14.01	2.346	1.682	1.313	1.119	1.039	0.949	1.055	1.136	1.424	1.377	1.842	2.073	2.206	2.378	2.833	3.090	3.116	3.347	3.230	3.412	3.252	3.164	3.209	3.217	3.305	3.564	3.548	3.335	3.442	3.309	3.386	3.447	3.540	3.513	3.519	3.628	3.878	3.678	3.542	3.812
395.0	305.9	487.7	650.4	752.7	778.8	750.2	728.4	691.8	672.1	678.9	674.8	669.4	649.7	622.4	594.2	557.0	530.6	512.2	483.4	461.7	425.2	402.8	372.8	340.1	317.3	317.9	280.3	184.7	141.5	109.2	84.34	84.62	174.7	436.4	1173	2414	277.5	16.48	2.369	1.652	1.314	1.198	1.044	0.975	1.131	1.345	1.434	1.853	2.072	2.097	2.517	2.759	3.123	2.981	3.294	3.328	3.392	3.308	3.252	3.312	3.385	3.466	3.099	3.509	3.287	3.269	3.120	3.294	3.435	3.396	3.352	3.519	3.491	3.504	3.618	3.866	3.716
400.0	308.8	479.9	652.0	745.6	772.7	750.0	710.7	696.9	680.4	665.6	664.1	650.7	634.8	617.2	575.9	545.6	516.2	500.9	477.4	457.7	432.1	407.6	382.2	353.0	320.6	305.1	315.6	241.1	165.4	131.6	100.4	77.86	78.15	124.8	308.1	1498	2126	240.0	8.261	1.926	1.574	1.283	1.135	1.328	1.278	1.253	1.508	1.899	2.149	2.144	2.270	2.662	3.097	3.081	3.145	3.027	3.616	3.449	3.340	3.313	3.416	3.216	3.281	3.488	3.493	3.222	3.234	3.292	3.435	3.322	3.394	3.511	3.335	3.581	3.457	3.786	3.771
405.0	294.2	472.3	634.1	723.8	756.3	742.0	706.5	703.2	679.6	659.6	652.1	644.3	623.5	602.9	570.2	532.7	506.7	489.2	468.5	451.6	427.9	409.6	389.6	359.4	331.6	301.0	305.9	291.1	203.6	152.8	116.6	86.64	65.85	61.10	92.18	411.9	1692	1864	182.5	3.766	1.613	1.413	1.356	1.304	1.366	1.251	1.528	1.905	2.010	2.021	2.178	2.729	2.961	2.968	3.007	3.119	3.498	3.445	3.361	3.065	3.105	3.249	3.156	3.455	3.180	3.240	3.178	3.177	3.188	3.063	3.178	3.481	3.426	3.424	3.335	3.546	3.576
410.0	294.2	449.5	617.9	708.6	735.9	727.1	707.4	691.0	664.3	659.3	643.6	628.8	608.8	585.1	552.8	517.3	490.2	470.2	453.2	437.6	420.6	405.2	387.0	365.7	339.4	310.3	290.5	291.6	263.1	191.5	139.0	104.1	76.25	56.55	51.01	113.9	461.2	1315	1595	511.2	12.15	1.939	1.456	1.406	1.329	1.337	1.514	1.866	1.989	2.038	2.145	2.713	2.898	2.934	3.003	3.003	3.342	3.273	3.368	3.203	3.067	3.334	3.242	3.164	3.151	3.198	3.170	3.248	3.147	3.123	3.192	3.277	3.224	3.426	3.246	3.484	3.444
