Sample:	'1
File name:	T2025061002»ôÆÂÇÅÎ÷Ö§Á÷.FD3
Run date:	'09:32:05, 06/11/2025
Operator:	Administrator
Comment:	'

Instrument
Model:	F-2700 FL Spectrophotometer
Serial number:	23B8-004
ROM Version:	4J14000 07

Instrument parameters
Measurement type:	3-D scan
Data mode:	Fluorescence
EX  Start WL:	220.0 nm
EX  End WL:	600.0 nm
EX Sampling interval:	5.0 nm
EM  Start WL:	230.0 nm
EM  End WL:	650.0 nm
EM Sampling interval:	5.0 nm
Scan speed:	12000 nm/min
EX Slit:	5.0 nm
EM Slit:	5.0 nm
PMT Voltage:	700 V
Response:	Auto 
Corrected spectra:	Off
Contour interval:	50.000

Peak integration
Integration method:	Rectangular
Sensitivity:	1
Threshold:	1.000

Peaks
No.	ApexEX/EM(nm)	Height(Data)
1	225.0/335.0	1708
2	225.0/575.0	58.69
3	225.0/595.0	50.63
4	225.0/620.0	54.65
5	225.0/640.0	58.70
6	230.0/340.0	1704
7	230.0/500.0	351.9
8	230.0/600.0	48.97
9	235.0/510.0	299.3
10	240.0/520.0	248.0
11	245.0/425.0	668.3
12	245.0/535.0	204.4
13	250.0/545.0	171.6
14	255.0/280.0	591.0
15	255.0/560.0	146.6
16	260.0/285.0	606.0
17	260.0/570.0	115.4
18	265.0/290.0	637.0
19	265.0/585.0	111.0
20	270.0/300.0	1021
21	270.0/600.0	94.81
22	275.0/305.0	1405
23	275.0/610.0	97.74
24	280.0/310.0	1435
25	280.0/625.0	93.81
26	285.0/320.0	1563
27	285.0/635.0	78.40
28	315.0/355.0	401.4
29	320.0/360.0	385.3
30	325.0/370.0	354.3
31	330.0/375.0	344.1
32	335.0/380.0	341.6
33	340.0/390.0	305.6
34	350.0/400.0	288.1
35	415.0/485.0	54.01
36	430.0/505.0	34.97
37	445.0/525.0	21.35
38	460.0/340.0	5.240
39	505.0/275.0	3.371
40	515.0/280.0	3.591
41	520.0/285.0	3.763
42	530.0/290.0	3.796
43	540.0/295.0	5.045
44	555.0/305.0	7.247
45	560.0/310.0	7.764
46	570.0/315.0	7.978
47	580.0/320.0	7.879
48	585.0/325.0	7.593

Data points
	220.0	225.0	230.0	235.0	240.0	245.0	250.0	255.0	260.0	265.0	270.0	275.0	280.0	285.0	290.0	295.0	300.0	305.0	310.0	315.0	320.0	325.0	330.0	335.0	340.0	345.0	350.0	355.0	360.0	365.0	370.0	375.0	380.0	385.0	390.0	395.0	400.0	405.0	410.0	415.0	420.0	425.0	430.0	435.0	440.0	445.0	450.0	455.0	460.0	465.0	470.0	475.0	480.0	485.0	490.0	495.0	500.0	505.0	510.0	515.0	520.0	525.0	530.0	535.0	540.0	545.0	550.0	555.0	560.0	565.0	570.0	575.0	580.0	585.0	590.0	595.0	600.0
230.0	65.35	1258	5317	2518	140.1	7.106	5.646	4.778	3.792	3.612	3.373	3.576	3.285	3.309	2.361	2.351	1.787	1.928	1.615	1.564	1.331	1.313	1.019	1.137	0.913	0.966	0.914	0.780	0.791	0.788	0.673	0.668	0.699	0.606	0.596	0.546	0.484	0.478	0.449	0.361	0.451	0.620	0.696	0.516	0.342	0.376	1.133	7.732	17.51	16.56	7.115	1.554	0.338	0.240	0.212	0.233	0.234	0.186	0.179	0.157	0.146	0.144	0.163	0.162	0.142	0.108	0.096	0.099	0.124	0.092	0.096	0.076	0.063	0.073	0.072	0.050	0.047
235.0	181.8	347.3	2415	5540	2875	219.6	9.285	6.262	4.936	4.662	3.881	3.355	3.237	3.549	2.847	2.583	1.614	1.818	1.657	1.543	1.400	1.249	1.082	1.084	0.988	1.006	0.918	0.922	0.721	0.814	0.703	0.776	0.730	0.613	0.548	0.591	0.469	0.493	0.457	0.453	0.376	0.431	0.572	0.725	0.809	0.513	0.569	2.046	5.449	10.72	17.27	21.54	12.92	3.338	0.462	0.295	0.265	0.234	0.187	0.218	0.180	0.159	0.138	0.190	0.099	0.095	0.073	0.106	0.067	0.098	0.080	0.086	0.060	0.044	0.072	0.068	0.026
240.0	219.8	214.5	637.7	3495	6747	2483	131.4	9.498	6.493	5.847	5.490	4.129	3.687	4.002	3.213	2.609	1.648	1.861	1.714	1.893	1.752	1.156	1.214	1.163	1.173	0.923	0.947	0.854	0.889	0.882	0.775	0.860	0.771	0.622	0.568	0.545	0.532	0.438	0.439	0.430	0.364	0.342	0.453	0.549	0.860	0.810	0.715	0.834	1.441	2.874	6.984	19.08	31.75	23.46	11.53	2.030	0.334	0.291	0.228	0.169	0.161	0.214	0.191	0.092	0.161	0.164	0.109	0.104	0.119	0.179	0.094	0.063	0.076	0.048	0.073	0.053	0.038
245.0	122.6	290.5	257.3	999.6	5290	7399	1978	54.08	10.18	6.511	5.404	4.590	3.923	4.468	3.092	2.598	2.064	2.336	2.093	1.805	1.597	1.462	1.287	1.297	1.319	1.171	0.972	0.800	0.833	0.970	0.772	0.826	0.746	0.667	0.600	0.653	0.520	0.436	0.570	0.462	0.451	0.380	0.440	0.416	0.595	0.691	0.945	1.061	0.815	0.883	1.789	5.309	16.53	31.36	39.85	22.14	9.903	0.951	0.195	0.265	0.188	0.228	0.228	0.152	0.164	0.148	0.160	0.126	0.144	0.156	0.155	0.111	0.085	0.094	0.042	0.081	0.044
250.0	54.19	167.9	299.0	365.3	1466	5118	8804	3995	140.7	12.35	8.694	6.726	5.438	4.999	3.758	3.272	2.715	2.255	2.328	1.728	1.767	1.568	1.336	1.370	1.205	1.035	1.080	0.989	1.016	0.899	0.816	0.955	0.711	0.711	0.570	0.630	0.482	0.487	0.521	0.468	0.436	0.480	0.468	0.394	0.389	0.468	0.544	0.897	1.096	1.012	1.034	1.536	4.043	8.806	18.40	33.52	47.72	39.36	16.94	7.671	1.079	0.244	0.220	0.216	0.188	0.189	0.164	0.141	0.129	0.130	0.118	0.125	0.099	0.091	0.092	0.118	0.073
255.0	36.04	58.25	154.2	380.6	471.4	1206	4568	9999.9	6630	181.9	14.11	9.938	8.224	6.737	5.408	4.411	2.920	2.474	2.646	2.057	2.451	1.862	1.491	1.537	1.349	1.217	1.040	1.145	0.978	1.089	0.923	0.961	0.877	0.657	0.697	0.712	0.551	0.601	0.508	0.437	0.463	0.515	0.518	0.464	0.396	0.492	0.402	0.487	0.620	0.813	1.466	1.587	1.522	2.243	4.387	7.877	13.74	27.13	57.74	71.04	26.46	11.19	0.844	0.317	0.236	0.198	0.207	0.178	0.220	0.134	0.105	0.101	0.099	0.099	0.110	0.146	0.121
260.0	34.21	33.83	59.59	251.7	412.5	359.4	1197	7058	9999.9	1992	116.6	16.14	11.46	8.876	5.912	5.856	3.319	3.208	2.826	2.272	2.467	2.147	1.662	1.724	1.549	1.453	1.181	1.101	1.038	1.034	1.009	0.882	0.840	0.707	0.737	0.614	0.582	0.590	0.573	0.535	0.506	0.512	0.518	0.488	0.393	0.402	0.336	0.382	0.446	0.474	0.855	1.685	1.935	1.606	1.433	2.032	3.456	6.766	20.18	49.75	81.02	82.83	22.43	5.885	0.424	0.268	0.297	0.213	0.171	0.207	0.158	0.134	0.111	0.087	0.114	0.163	0.128
265.0	35.48	36.77	33.37	103.1	362.4	352.5	321.0	2018	9999.9	9999.9	1557	65.12	16.20	12.06	6.905	5.621	4.294	3.557	3.323	2.620	2.458	2.190	1.772	1.641	1.639	1.453	1.317	1.210	1.303	1.258	0.959	1.096	0.947	0.894	0.907	0.590	0.657	0.719	0.594	0.566	0.524	0.519	0.639	0.536	0.451	0.442	0.346	0.371	0.433	0.374	0.467	0.865	1.427	2.302	1.917	1.229	1.217	1.880	5.078	13.03	34.31	79.24	100.5	32.20	18.04	2.403	0.425	0.278	0.292	0.242	0.199	0.139	0.166	0.114	0.130	0.169	0.092
270.0	51.92	49.40	39.43	45.04	146.7	374.2	361.6	527.2	2814	9999.9	9999.9	6012	95.55	19.93	10.85	9.006	5.712	4.742	3.940	3.520	2.885	2.514	2.048	2.071	1.937	1.616	1.569	1.306	1.211	1.362	1.104	1.239	0.964	1.075	0.958	0.733	0.679	0.693	0.616	0.536	0.552	0.619	0.609	0.604	0.552	0.599	0.504	0.500	0.498	0.402	0.418	0.467	0.690	1.166	1.792	2.199	2.233	1.591	1.700	3.283	8.101	20.42	39.38	61.98	93.83	78.88	64.69	12.51	3.012	0.400	0.304	0.343	0.250	0.165	0.195	0.163	0.186
275.0	102.2	89.18	68.44	52.24	58.80	143.6	454.5	430.8	698.5	2347	6407	9999.9	8265	118.1	19.60	13.46	8.916	6.446	5.674	4.650	3.588	3.025	2.730	2.322	2.346	2.105	1.608	1.351	1.513	1.494	1.382	1.312	1.100	1.079	0.973	1.015	0.753	0.757	0.685	0.631	0.623	0.605	0.730	0.743	0.572	0.706	0.659	0.638	0.551	0.466	0.466	0.445	0.506	0.692	0.775	0.982	1.960	3.371	2.969	1.687	2.247	4.980	9.224	14.52	23.89	41.93	103.8	150.9	32.91	19.76	2.180	0.677	0.364	0.267	0.209	0.226	0.273
280.0	162.2	151.9	128.3	69.91	49.65	67.83	238.1	591.0	374.0	595.7	1663	9999.9	9999.9	5998	78.27	18.60	11.60	8.464	6.469	5.224	4.240	3.494	2.850	2.660	2.126	2.281	1.788	1.727	1.484	1.781	1.532	1.334	1.413	1.155	1.180	0.990	0.977	0.928	0.868	0.742	0.701	0.726	0.758	0.799	0.681	0.817	0.789	0.753	0.774	0.643	0.572	0.544	0.407	0.554	0.513	0.582	0.980	1.856	3.522	3.591	2.078	1.812	2.559	3.845	6.053	10.25	29.87	79.23	143.1	172.7	31.39	13.36	1.007	0.464	0.379	0.306	0.365
285.0	215.8	237.3	183.3	104.8	58.17	52.20	104.8	403.9	606.0	293.6	473.3	2829	9999.9	9999.9	897.7	47.78	16.35	11.13	8.017	6.698	5.318	4.057	3.227	3.036	2.330	2.356	2.080	1.937	1.612	1.749	1.551	1.397	1.387	1.520	1.391	1.216	1.125	0.998	0.950	0.889	0.884	1.004	0.915	0.984	0.910	0.992	1.063	1.065	0.978	0.818	0.654	0.584	0.642	0.589	0.589	0.524	0.664	0.985	1.767	2.995	3.763	3.031	1.597	1.694	2.046	2.943	7.349	19.53	48.93	118.5	168.3	159.0	26.23	7.242	0.719	0.444	0.338
290.0	327.1	344.7	283.8	165.9	91.30	71.44	90.93	183.9	491.2	637.0	368.5	812.7	2979	9999.9	9999.9	3616	58.14	17.81	11.77	8.876	6.742	5.049	4.080	3.612	3.028	2.779	2.369	2.141	1.966	1.992	1.586	1.475	1.540	1.497	1.552	1.505	1.406	1.390	1.245	1.165	1.018	1.099	1.077	1.211	1.173	1.290	1.261	1.332	1.150	1.102	0.913	0.768	0.734	0.641	0.670	0.672	0.702	0.816	0.981	1.290	2.092	3.341	3.796	3.297	2.195	1.682	2.643	5.413	12.09	28.97	53.82	96.27	123.0	138.5	102.3	17.81	7.453
295.0	453.7	480.6	411.0	257.2	145.5	116.2	125.0	169.6	279.0	617.8	852.1	523.9	918.2	2524	7535	9999.9	5132	69.00	18.86	13.59	9.302	6.522	5.141	4.285	3.614	3.283	2.747	2.501	2.271	2.301	1.879	2.019	1.740	1.582	1.637	1.736	1.581	1.702	1.497	1.280	1.304	1.227	1.247	1.282	1.530	1.533	1.524	1.845	1.496	1.323	1.238	1.082	1.027	0.864	0.842	0.859	0.950	0.932	1.010	1.069	1.334	1.910	2.422	3.972	5.045	3.940	2.695	2.959	4.313	7.972	13.32	22.64	29.55	47.59	106.1	182.4	169.1
300.0	540.3	607.5	529.3	331.5	206.1	172.5	191.5	242.2	312.5	541.4	1021	897.5	625.7	927.5	2085	9999.9	9999.9	3779	51.11	18.87	12.96	8.690	6.104	5.180	4.440	3.903	3.176	2.841	2.284	2.599	2.222	2.311	1.910	1.620	1.857	1.892	1.530	1.882	1.764	1.527	1.384	1.313	1.525	1.387	1.683	1.847	2.045	2.047	1.813	1.773	1.469	1.228	1.181	1.162	1.061	1.112	1.235	1.382	1.350	1.413	1.564	1.941	2.128	2.807	4.313	5.712	5.772	3.815	3.561	4.025	5.109	6.972	8.187	12.28	28.07	74.31	156.8
305.0	684.3	792.1	667.0	436.7	288.9	247.4	295.2	369.6	466.9	688.1	968.5	1405	939.2	785.5	849.7	3034	9999.9	9999.9	572.2	33.84	16.09	11.50	7.755	6.320	5.026	4.338	3.743	3.229	2.372	3.086	2.439	2.539	2.038	1.938	1.955	1.886	1.942	2.004	1.847	1.526	1.811	1.523	1.847	1.603	1.740	2.035	2.182	2.423	2.217	1.898	1.687	1.474	1.464	1.268	1.332	1.475	1.490	1.763	2.015	2.022	2.205	2.506	2.845	3.516	3.909	4.975	7.034	7.247	6.111	4.565	4.187	4.473	4.274	5.290	8.247	18.74	44.14
310.0	796.9	971.6	832.3	540.4	376.6	324.7	395.1	488.3	593.3	851.6	987.2	1314	1435	1081	711.5	1006	3171	9999.9	9999.9	2442	43.88	16.75	10.85	8.409	6.409	5.586	4.468	3.768	3.345	3.487	2.640	2.617	2.331	2.214	2.117	2.050	2.132	2.157	2.026	1.906	1.975	1.802	2.091	1.900	2.162	2.368	2.592	2.815	2.751	2.334	2.188	1.951	1.621	1.589	1.632	1.814	1.929	2.223	2.433	2.488	2.747	3.121	3.550	3.865	4.518	4.891	5.673	6.686	7.764	7.520	6.168	4.927	4.224	4.196	4.464	6.164	11.59
315.0	945.6	1134	992.7	658.5	457.2	402.1	485.1	572.8	692.7	1011	1068	1249	1394	1555	885.0	625.1	997.9	2470	8370	9999.9	3827	51.34	16.06	11.85	8.928	6.787	5.223	4.059	3.886	3.198	2.835	2.802	2.582	2.271	2.118	2.184	2.143	2.457	2.222	1.980	2.026	2.049	2.393	2.283	2.426	2.913	3.155	3.136	3.111	2.709	2.607	2.115	2.044	2.024	1.990	2.116	2.378	2.557	2.874	2.913	3.122	3.790	4.090	4.460	4.975	4.945	5.737	6.075	7.345	6.891	7.978	7.895	5.999	4.933	4.187	3.687	4.415
320.0	1045	1332	1124	751.6	524.3	450.3	530.6	630.2	746.4	1094	1120	1273	1336	1563	1132	612.8	547.4	743.8	2186	9999.9	9999.9	2877	37.20	15.75	11.19	8.489	5.959	4.792	4.442	3.965	3.068	2.990	2.764	2.409	2.382	2.256	2.222	2.306	2.382	2.218	2.055	2.468	2.394	2.556	2.772	3.460	3.338	3.938	3.661	3.262	2.774	2.430	2.303	2.064	2.234	2.200	2.560	2.952	3.192	3.099	3.282	4.032	4.274	4.910	5.123	5.127	5.864	6.295	7.306	6.756	6.932	7.139	7.879	6.765	4.892	3.720	3.348
325.0	1166	1514	1330	873.9	575.2	475.0	549.9	646.1	770.1	1136	1129	1279	1322	1420	1289	765.5	461.8	369.3	590.8	3014	9999.9	9999.9	430.6	25.96	13.78	10.18	7.392	5.707	4.503	4.531	3.487	3.130	3.016	2.564	2.769	2.501	2.444	2.522	2.297	2.033	2.194	2.453	2.519	2.708	3.141	3.409	3.799	4.269	4.432	3.678	3.179	2.857	2.343	2.187	2.434	2.375	2.743	2.822	3.165	3.383	3.410	4.156	4.418	4.895	5.295	5.155	5.833	6.396	7.330	6.772	6.574	6.342	7.123	7.593	6.529	4.669	3.397
330.0	1253	1623	1515	1068	710.9	536.1	565.4	652.9	770.1	1144	1116	1259	1303	1350	1108	900.2	577.4	309.7	253.0	759.9	3283	9999.9	9999.9	1826	35.59	15.22	10.31	7.232	5.791	5.577	4.138	3.708	3.292	3.033	2.607	2.442	2.513	2.542	2.328	2.283	2.203	2.319	2.462	2.864	3.234	3.615	4.035	4.632	4.773	4.114	3.695	3.481	2.964	2.692	2.643	2.608	2.805	3.128	3.212	3.241	3.485	4.008	4.454	4.848	5.509	5.014	5.987	6.349	7.337	6.762	6.244	6.071	5.954	6.039	5.970	5.546	4.936
335.0	1277	1708	1677	1234	869.6	621.2	593.7	669.7	768.1	1141	1096	1229	1271	1321	1016	780.1	736.2	424.3	214.3	281.0	808.9	2387	9152	9999.9	3095	42.29	15.68	10.06	7.673	6.943	4.956	4.306	3.588	3.387	2.923	2.552	2.788	2.587	2.499	2.307	2.345	2.458	2.580	2.947	3.171	3.716	4.259	4.981	5.080	4.351	4.137	3.863	3.616	3.391	3.067	2.769	2.945	3.189	3.163	3.346	3.473	3.918	4.234	4.846	5.034	5.127	5.758	6.026	7.312	6.793	5.950	5.952	5.613	5.318	5.297	4.608	4.732
340.0	1273	1696	1704	1315	925.8	663.6	615.2	658.7	745.7	1104	1046	1182	1216	1266	970.0	707.7	647.4	562.2	256.7	188.8	272.0	602.9	2406	9999.9	9999.9	2428	31.76	13.05	9.502	7.890	5.534	4.638	3.981	3.570	3.192	2.855	2.620	2.744	2.428	2.301	2.381	2.478	2.565	3.000	3.466	3.753	4.128	5.188	5.240	4.580	4.254	3.947	3.865	3.362	3.188	3.048	2.935	2.983	3.089	3.255	3.261	3.933	4.497	4.426	5.194	5.042	5.234	5.890	6.776	6.463	5.806	5.696	5.609	5.238	4.973	4.365	4.126
345.0	1219	1625	1629	1309	939.7	677.7	611.2	645.5	712.6	1054	983.8	1110	1146	1197	925.8	667.7	538.9	555.2	379.5	192.3	166.2	214.4	601.5	3163	9999.9	9999.9	381.0	19.96	11.66	9.538	6.689	5.500	4.464	3.794	3.236	2.989	2.630	2.812	2.283	2.251	2.295	2.362	2.612	2.859	3.322	3.662	4.252	4.749	5.042	4.757	4.460	4.175	3.805	3.550	3.132	2.767	2.838	3.104	3.261	3.289	3.400	3.674	3.884	4.357	4.761	4.911	5.348	5.477	6.569	6.138	5.638	5.662	5.367	4.904	4.724	4.208	3.694
350.0	1175	1492	1523	1263	948.0	714.4	617.9	630.1	688.1	992.1	903.9	1011	1040	1090	865.6	642.1	500.0	441.1	436.0	317.0	181.2	148.1	214.3	771.8	3338	9999.9	9999.9	1645	31.52	14.04	9.027	6.826	5.022	4.274	3.553	3.103	2.661	2.668	2.526	2.214	2.263	2.397	2.469	2.723	3.145	3.663	3.927	4.424	4.694	4.435	4.170	4.163	3.962	3.609	3.321	2.721	2.949	3.071	3.295	3.237	3.229	3.580	3.727	3.943	4.462	4.464	4.823	4.936	6.088	5.485	5.024	5.068	4.787	4.613	4.429	4.010	3.566
355.0	1041	1313	1400	1193	934.9	719.7	620.5	632.1	674.9	926.9	845.6	918.5	944.1	987.9	802.4	621.0	488.6	403.3	362.5	401.4	289.9	168.0	149.0	251.9	801.6	2371	8750	9999.9	2878	39.97	13.03	9.144	6.527	5.270	4.053	3.275	3.051	2.898	2.539	2.322	2.440	2.302	2.379	2.381	2.837	3.388	3.654	4.052	4.399	4.064	3.899	4.176	4.068	3.523	3.332	2.838	2.807	3.201	3.168	3.175	3.438	3.453	3.686	3.829	4.142	4.211	4.081	4.453	5.445	4.785	4.716	5.050	4.872	4.301	4.305	3.657	3.306
360.0	942.2	1208	1278	1128	910.2	712.5	642.1	635.0	661.2	885.7	790.1	864.6	871.9	913.4	757.9	598.3	487.9	405.7	344.1	356.4	385.3	228.4	153.4	149.6	246.5	581.5	2283	9999.9	9999.9	2421	29.53	12.24	8.308	6.133	4.462	3.554	3.247	2.942	2.635	2.307	2.362	2.406	2.343	2.294	2.761	3.060	3.507	3.851	4.145	3.945	3.524	3.833	3.803	3.322	3.289	2.923	3.079	3.158	2.993	3.199	3.201	3.565	3.535	3.687	3.910	4.165	3.926	4.266	5.187	4.570	4.357	4.407	4.158	4.359	4.071	3.529	3.422
365.0	922.4	1140	1195	1064	872.0	727.8	622.0	629.5	651.0	843.2	753.9	811.7	820.1	847.0	716.5	578.9	484.1	414.5	353.7	326.1	377.6	325.3	186.4	142.2	137.2	191.8	559.8	3031	9999.9	9999.9	372.5	21.72	10.86	7.399	5.730	3.983	3.369	3.270	2.835	2.402	2.391	2.390	2.408	2.294	2.718	2.937	3.228	3.599	3.760	3.571	3.248	3.868	3.642	3.411	3.308	3.098	3.040	3.031	2.994	3.430	3.113	3.393	3.413	3.441	3.610	3.744	3.795	4.068	4.524	4.062	4.251	4.200	4.294	4.206	3.880	3.850	3.556
370.0	853.0	1049	1098	982.0	853.7	723.2	644.0	625.3	648.8	799.7	716.4	766.1	754.2	787.8	674.7	562.2	483.8	426.3	373.3	337.2	326.9	354.3	298.1	184.4	137.4	125.7	188.6	727.3	3193	9999.9	9999.9	5477	29.01	11.02	7.498	5.146	3.976	3.667	3.250	2.655	2.553	2.453	2.523	2.524	2.527	2.826	3.027	3.442	3.445	3.283	3.128	3.668	3.626	3.405	3.170	3.004	3.078	3.061	3.197	3.220	3.122	3.518	3.506	3.603	3.539	3.611	3.567	3.891	4.228	3.870	4.012	4.054	3.955	3.934	3.791	3.626	3.303
375.0	784.5	952.2	1007	927.1	829.5	721.8	656.4	644.2	647.1	758.2	690.3	718.5	711.0	722.5	636.4	543.6	484.8	444.8	397.1	361.6	327.8	317.2	344.1	284.5	170.0	132.7	123.6	223.7	759.7	2370	8220	9999.9	2590	33.68	10.40	6.751	5.238	4.080	3.536	3.102	2.868	2.565	2.550	2.565	2.616	2.747	3.025	3.265	3.194	3.220	2.817	3.448	3.599	3.286	3.107	3.124	3.147	3.288	3.214	3.141	2.985	3.336	3.346	3.428	3.585	3.491	3.530	3.744	3.950	3.786	3.701	3.808	3.946	4.106	3.689	3.236	3.176
380.0	728.7	909.4	946.0	889.3	802.1	723.7	662.2	637.4	637.5	730.9	671.0	686.2	673.6	686.3	609.5	535.1	482.1	446.8	407.6	379.0	342.1	309.7	314.7	341.6	230.2	149.6	122.9	124.9	226.0	574.6	2140	9999.9	9999.9	2071	25.70	9.318	6.464	5.104	4.018	3.411	3.025	2.680	2.766	2.436	2.686	2.849	2.689	3.432	3.264	3.041	2.918	3.391	3.634	3.341	3.209	3.050	3.148	3.169	3.168	3.214	3.125	3.145	3.350	3.331	3.571	3.227	3.350	3.481	3.823	3.464	3.473	3.586	3.624	3.665	3.664	3.427	3.309
385.0	689.6	873.5	893.6	844.7	791.7	715.3	655.2	639.7	635.8	715.0	650.2	672.1	656.0	651.0	583.9	524.6	475.2	450.4	415.8	385.6	350.7	319.4	300.6	325.0	300.2	189.3	137.4	115.2	117.5	181.2	520.5	2980	9999.9	9999.9	313.3	17.64	8.040	6.248	4.925	3.637	3.249	2.974	3.045	2.768	2.571	2.834	2.617	3.234	3.062	3.127	2.840	3.179	3.542	3.231	3.280	3.108	3.196	3.266	3.049	3.223	2.992	3.204	3.301	3.322	3.169	3.223	3.307	3.321	3.650	3.306	2.990	3.394	3.432	3.600	3.394	3.315	3.534
390.0	707.5	843.0	855.8	817.4	775.2	709.9	669.8	644.5	636.0	684.1	636.4	647.0	630.5	617.1	562.1	512.9	471.9	447.9	422.6	394.3	367.2	333.6	306.9	297.1	305.6	269.3	180.7	135.4	111.6	107.7	167.1	706.8	2984	9999.9	9999.9	4256	23.88	8.774	6.251	4.321	3.720	3.228	2.990	2.817	2.806	2.961	2.719	3.200	3.110	2.901	2.739	3.144	3.375	3.279	3.253	3.202	3.221	3.417	3.139	3.231	3.097	3.154	3.126	3.320	3.095	3.392	3.196	3.258	3.338	3.218	3.154	3.436	3.243	3.450	3.172	3.230	3.210
395.0	691.0	809.8	819.2	802.3	753.9	708.7	681.5	653.0	639.8	664.2	625.1	624.3	612.0	586.3	536.7	497.1	463.8	445.3	425.4	396.9	376.8	349.6	322.7	302.9	281.7	289.5	259.1	171.1	131.4	109.8	104.1	206.8	701.1	2313	6455	9999.9	2216	30.99	8.978	5.866	4.248	3.990	3.314	2.987	2.830	3.148	2.760	2.971	3.139	2.812	2.729	3.075	3.059	3.456	3.205	3.026	3.123	3.408	3.221	3.126	3.204	3.101	3.079	3.181	3.035	3.123	3.272	3.043	3.104	3.208	3.010	3.123	3.246	3.181	3.108	3.130	2.990
400.0	674.5	779.3	780.1	778.2	760.3	701.5	672.0	650.6	636.8	655.9	619.6	607.6	591.7	574.4	521.3	485.5	457.1	438.3	423.7	397.7	377.9	354.6	331.5	309.5	280.4	269.5	288.1	223.1	153.7	123.8	100.2	103.7	198.6	548.3	1623	7845	9999.9	1926	24.91	7.415	5.354	4.420	3.637	3.429	3.065	3.025	2.899	3.013	3.081	2.617	2.623	3.243	3.094	3.268	3.239	2.963	3.161	3.300	3.255	3.165	3.238	3.165	3.292	3.146	3.204	3.037	3.003	2.908	3.031	3.046	2.920	3.051	3.196	3.133	2.967	3.251	3.200
405.0	686.7	751.3	774.3	761.5	741.4	691.7	674.7	650.4	634.3	652.6	619.5	599.1	578.4	559.6	513.5	469.8	448.1	434.2	414.7	396.2	380.7	358.3	337.0	316.4	286.8	264.3	274.2	268.7	185.4	140.2	110.1	89.85	92.60	159.4	391.1	2098	9452	9999.9	1482	18.16	6.930	5.315	4.331	3.534	3.374	3.184	2.960	3.066	3.109	2.844	2.717	3.071	3.235	3.111	3.302	2.875	3.549	3.116	3.194	3.264	3.185	3.267	3.057	3.186	2.905	3.014	2.887	2.800	3.091	3.027	2.712	3.103	3.097	2.933	2.962	2.905	2.914
410.0	651.8	719.5	750.8	736.7	717.1	697.2	679.1	657.2	635.7	643.2	610.3	587.3	559.9	540.4	498.4	454.6	430.7	419.3	403.2	389.4	374.7	358.8	339.9	321.1	295.7	271.0	256.1	262.3	242.8	175.8	126.4	97.15	79.69	78.43	119.7	493.5	2470	7719	9999.9	3903	22.96	7.633	5.480	4.352	3.710	3.308	3.053	3.159	2.930	2.823	2.633	3.098	3.229	3.168	3.268	3.020	3.349	3.192	3.315	3.158	3.273	2.984	3.086	3.103	3.041	3.032	2.964	2.840	3.030	2.935	2.966	2.950	2.883	2.851	3.060	2.847	2.844
415.0	627.8	678.4	699.9	716.8	711.0	675.3	665.5	653.9	635.7	625.5	603.2	574.5	544.2	515.0	475.8	434.8	415.9	402.5	392.4	378.1	363.8	351.8	339.0	317.6	300.1	274.4	255.0	242.5	245.6	227.2	152.8	109.8	85.86	68.50	65.18	139.3	572.5	1762	4767	9999.9	2091	30.78	7.722	5.469	4.228	3.756	3.053	3.511	2.970	2.869	2.781	3.109	3.097	3.000	3.175	3.139	3.161	3.146	3.399	3.378	3.257	3.056	3.149	2.951	3.000	2.863	2.745	2.811	3.036	2.860	2.802	2.823	2.780	3.037	2.702	2.838	2.772
