Sample:	'1
File name:	中远重工原水32倍.FD3
Run date:	'11:28:21, 04/03/2025
Operator:	Administrator
Comment:	'

Instrument
Model:	F-2700 FL Spectrophotometer
Serial number:	23B8-004
ROM Version:	4J14000 07

Instrument parameters
Measurement type:	3-D scan
Data mode:	Fluorescence
EX  Start WL:	220.0 nm
EX  End WL:	600.0 nm
EX Sampling interval:	5.0 nm
EM  Start WL:	230.0 nm
EM  End WL:	650.0 nm
EM Sampling interval:	5.0 nm
Scan speed:	12000 nm/min
EX Slit:	5.0 nm
EM Slit:	5.0 nm
PMT Voltage:	700 V
Response:	Auto 
Corrected spectra:	Off
Contour interval:	50.000

Peak integration
Integration method:	Rectangular
Sensitivity:	1
Threshold:	1.000

Peaks
No.	ApexEX/EM(nm)	Height(Data)
1	225.0/490.0	177.4
2	230.0/505.0	167.9
3	235.0/515.0	150.3
4	240.0/265.0	455.1
5	240.0/525.0	137.5
6	245.0/270.0	449.0
7	245.0/535.0	121.4
8	250.0/550.0	120.3
9	260.0/410.0	60.00
10	265.0/585.0	484.1
11	270.0/300.0	6285
12	270.0/595.0	474.5
13	300.0/335.0	326.8
14	305.0/345.0	284.1
15	310.0/350.0	218.3
16	315.0/355.0	204.2
17	320.0/360.0	185.7
18	325.0/370.0	146.7
19	330.0/375.0	137.0
20	335.0/380.0	147.7
21	335.0/415.0	39.64
22	340.0/385.0	123.4
23	350.0/400.0	108.4
24	355.0/405.0	100.2
25	360.0/410.0	81.03
26	365.0/420.0	80.32
27	370.0/425.0	74.97
28	375.0/430.0	56.80
29	380.0/440.0	53.56
30	385.0/445.0	49.14
31	390.0/300.0	23.37
32	390.0/450.0	38.04
33	395.0/455.0	33.70
34	400.0/465.0	31.31
35	405.0/470.0	23.55
36	410.0/480.0	20.22
37	415.0/485.0	18.01
38	420.0/490.0	15.08
39	425.0/500.0	13.74
40	430.0/505.0	12.72
41	435.0/510.0	10.46
42	440.0/520.0	9.793
43	445.0/300.0	23.20
44	445.0/525.0	8.408
45	455.0/540.0	5.897
46	465.0/555.0	3.526
47	470.0/560.0	3.134
48	480.0/575.0	2.128
49	485.0/265.0	2.263
50	535.0/590.0	2.461
51	545.0/300.0	28.14
52	550.0/305.0	26.38
53	575.0/290.0	34.94

Data points
	220.0	225.0	230.0	235.0	240.0	245.0	250.0	255.0	260.0	265.0	270.0	275.0	280.0	285.0	290.0	295.0	300.0	305.0	310.0	315.0	320.0	325.0	330.0	335.0	340.0	345.0	350.0	355.0	360.0	365.0	370.0	375.0	380.0	385.0	390.0	395.0	400.0	405.0	410.0	415.0	420.0	425.0	430.0	435.0	440.0	445.0	450.0	455.0	460.0	465.0	470.0	475.0	480.0	485.0	490.0	495.0	500.0	505.0	510.0	515.0	520.0	525.0	530.0	535.0	540.0	545.0	550.0	555.0	560.0	565.0	570.0	575.0	580.0	585.0	590.0	595.0	600.0
230.0	88.26	1564	3925	1154	43.25	6.545	4.751	4.082	3.861	4.050	3.881	2.816	2.229	1.661	1.232	1.103	0.866	0.793	0.836	0.680	0.518	0.549	0.569	0.607	0.437	0.380	0.394	0.390	0.354	0.363	0.387	0.325	0.313	0.314	0.306	0.296	0.292	0.276	0.275	0.287	0.475	0.844	0.848	0.444	0.281	0.251	1.695	8.138	11.91	8.013	2.573	0.507	0.214	0.207	0.192	0.161	0.203	0.165	0.193	0.173	0.166	0.167	0.168	0.185	0.188	0.170	0.179	0.181	0.150	0.184	0.168	0.155	0.160	0.159	0.183	0.153	0.181
235.0	224.9	441.5	2324	3359	598.5	54.19	5.410	4.758	3.624	4.413	3.393	2.956	2.383	1.944	1.376	1.039	0.941	0.984	0.788	0.598	0.655	0.561	0.492	0.623	0.475	0.429	0.415	0.398	0.358	0.408	0.374	0.359	0.335	0.312	0.303	0.284	0.314	0.272	0.303	0.259	0.363	0.420	0.657	0.822	0.779	0.460	0.611	2.143	4.508	8.401	11.64	11.56	3.999	0.931	0.234	0.158	0.200	0.165	0.184	0.180	0.192	0.185	0.157	0.183	0.202	0.171	0.176	0.153	0.175	0.156	0.202	0.151	0.187	0.151	0.160	0.172	0.202
240.0	292.3	254.1	692.1	2887	3536	454.1	21.32	6.878	4.942	4.952	3.450	3.272	2.368	2.074	1.378	0.978	0.929	1.086	0.933	0.666	0.616	0.496	0.465	0.632	0.418	0.387	0.406	0.364	0.301	0.444	0.359	0.327	0.353	0.262	0.268	0.272	0.270	0.279	0.288	0.295	0.319	0.283	0.373	0.546	0.966	0.996	0.568	0.715	1.257	2.565	6.622	16.60	15.07	10.26	2.887	0.453	0.221	0.174	0.172	0.200	0.192	0.187	0.153	0.157	0.173	0.166	0.177	0.180	0.153	0.174	0.170	0.181	0.195	0.168	0.195	0.179	0.194
245.0	209.6	348.9	252.8	983.8	4038	3052	318.4	11.64	6.276	5.643	4.581	3.604	2.696	2.404	1.651	0.989	0.883	1.117	0.762	0.688	0.548	0.538	0.482	0.668	0.448	0.378	0.390	0.389	0.380	0.377	0.329	0.350	0.338	0.269	0.326	0.200	0.271	0.275	0.257	0.292	0.291	0.249	0.309	0.313	0.522	0.876	1.053	1.023	0.667	0.727	1.776	5.782	12.08	20.53	16.95	7.580	1.716	0.243	0.186	0.246	0.239	0.238	0.248	0.157	0.180	0.196	0.228	0.180	0.232	0.147	0.162	0.194	0.195	0.162	0.181	0.184	0.223
250.0	76.94	234.9	336.4	341.1	1319	3266	3548	1191	59.29	7.316	6.104	4.155	3.149	2.318	1.679	1.285	1.125	1.163	0.789	0.626	0.682	0.695	0.552	0.710	0.546	0.425	0.427	0.434	0.390	0.441	0.373	0.364	0.309	0.345	0.318	0.242	0.375	0.283	0.322	0.262	0.312	0.277	0.255	0.291	0.331	0.428	0.691	0.987	1.226	1.000	0.789	1.555	3.091	7.006	11.78	16.81	21.38	15.96	7.325	1.710	0.287	0.217	0.271	0.188	0.204	0.205	0.223	0.207	0.201	0.185	0.171	0.170	0.174	0.182	0.171	0.205	0.184
255.0	36.16	75.08	231.8	408.6	396.8	853.0	3102	5979	1512	43.81	8.438	5.890	3.301	2.950	2.345	1.586	1.280	1.273	1.039	0.906	0.672	0.664	0.690	0.767	0.587	0.545	0.474	0.377	0.456	0.457	0.329	0.403	0.364	0.335	0.287	0.284	0.289	0.290	0.332	0.317	0.306	0.242	0.254	0.306	0.287	0.281	0.313	0.428	0.644	1.152	1.539	1.491	1.182	1.765	2.865	4.205	9.414	19.98	30.71	24.11	10.42	1.561	0.351	0.234	0.201	0.195	0.219	0.211	0.172	0.189	0.173	0.171	0.195	0.155	0.193	0.249	0.193
260.0	32.02	36.08	91.93	356.4	383.3	249.7	977.1	5262	6310	255.0	20.27	7.389	5.416	3.212	2.072	1.929	1.699	1.144	1.087	0.990	0.677	0.809	0.707	0.796	0.668	0.474	0.486	0.447	0.475	0.408	0.351	0.487	0.403	0.329	0.325	0.253	0.294	0.315	0.295	0.319	0.262	0.340	0.317	0.270	0.326	0.211	0.259	0.275	0.296	0.531	1.124	2.160	1.865	1.189	0.973	1.169	2.413	5.789	15.46	29.33	31.80	21.81	6.996	0.780	0.255	0.213	0.271	0.291	0.187	0.183	0.164	0.168	0.238	0.149	0.178	0.206	0.173
265.0	34.52	28.54	37.75	168.7	455.1	263.6	256.6	1877	7460	4749	190.1	11.76	6.839	4.103	2.743	2.085	1.629	1.295	1.159	1.127	0.883	0.766	0.734	0.862	0.650	0.538	0.554	0.481	0.500	0.462	0.386	0.592	0.428	0.343	0.314	0.323	0.282	0.342	0.296	0.271	0.302	0.376	0.285	0.303	0.296	0.243	0.204	0.262	0.243	0.261	0.486	1.105	2.065	2.263	1.493	0.598	0.831	1.568	3.874	9.521	22.51	39.65	31.00	17.72	3.262	0.383	0.242	0.266	0.233	0.224	0.160	0.157	0.234	0.189	0.189	0.191	0.179
270.0	96.33	77.66	40.20	60.55	219.5	449.0	294.3	485.3	2531	5850	4859	758.6	36.38	6.987	3.566	2.558	2.078	1.648	1.515	1.175	1.005	0.882	0.832	0.975	0.649	0.642	0.550	0.581	0.549	0.446	0.452	0.499	0.496	0.518	0.533	0.462	0.470	0.422	0.394	0.373	0.431	0.378	0.384	0.390	0.429	0.381	0.302	0.306	0.315	0.260	0.273	0.452	0.862	1.377	2.042	2.173	1.861	1.108	1.177	2.477	5.690	12.40	20.13	31.57	32.21	28.22	12.37	3.394	0.474	0.261	0.215	0.213	0.195	0.221	0.230	0.225	0.213
275.0	782.1	502.2	186.1	69.83	95.15	258.9	648.7	420.0	816.9	1939	5565	8376	983.1	30.97	7.415	4.169	2.613	2.202	1.825	1.427	1.149	0.989	0.809	1.024	0.753	0.730	0.714	0.583	0.488	0.531	0.527	1.027	1.383	2.235	1.929	1.434	1.067	0.962	1.006	1.255	1.170	1.285	1.698	1.598	1.799	1.778	1.328	0.999	0.700	0.422	0.331	0.369	0.520	0.651	0.883	1.440	3.048	3.809	2.666	1.841	2.494	4.248	6.331	9.408	13.64	28.12	47.37	31.40	20.63	3.418	0.408	0.347	0.323	0.305	0.271	0.290	0.266
280.0	2264	1543	570.3	217.4	145.8	225.8	651.9	1147	1126	1584	2924	8654	6901	143.9	14.95	6.064	3.609	2.702	2.167	1.890	1.390	1.095	0.970	1.163	0.795	0.804	0.823	0.670	0.693	0.535	0.722	1.845	3.665	5.614	5.339	3.755	2.871	2.261	2.504	2.790	3.028	3.614	4.027	4.495	4.825	5.074	3.815	2.753	1.791	1.006	0.634	0.627	0.672	0.647	0.877	1.197	2.011	3.902	5.585	5.303	4.414	4.706	6.127	7.618	8.756	12.22	23.06	40.17	63.20	29.30	14.09	1.844	0.565	0.638	0.498	0.474	0.374
285.0	4438	3311	1254	673.1	389.9	364.9	698.5	1609	2145	2276	2833	4614	9085	5175	102.2	9.010	5.383	3.972	2.669	2.453	1.687	1.271	1.210	1.371	1.027	0.960	0.817	0.778	0.792	0.624	1.105	2.978	6.364	10.08	9.843	7.253	5.399	5.201	5.325	5.134	5.748	6.668	7.464	8.889	9.033	9.237	7.563	6.154	4.501	2.656	2.015	1.694	1.445	1.337	1.406	1.809	2.421	3.657	5.599	8.198	9.889	8.906	9.414	11.36	12.13	11.89	14.00	18.45	34.73	47.15	54.82	24.63	7.033	1.154	0.662	0.637	0.584
290.0	7660	6256	3686	1983	905.5	663.2	1003	1900	3261	4202	4283	3977	4240	6898	5226	410.9	18.79	5.602	4.118	2.965	2.123	1.696	1.421	1.768	1.217	1.127	1.012	0.991	0.827	0.825	1.500	4.359	10.20	16.39	16.97	13.35	11.05	10.10	9.291	9.150	9.887	10.88	12.76	14.69	15.28	16.20	14.20	12.53	9.688	7.201	5.645	4.693	3.447	2.771	2.458	2.748	3.452	4.649	6.385	8.792	12.39	15.50	17.92	19.28	19.52	17.93	17.93	17.74	17.19	18.68	27.69	34.94	33.56	33.94	16.20	7.570	1.202
295.0	9667	8557	5785	3255	1494	942.0	1255	2166	3562	5337	5751	4558	2796	2369	5035	6214	545.4	13.58	5.376	3.922	2.650	2.081	1.769	2.434	1.428	1.222	1.174	1.071	1.135	0.941	1.789	5.547	12.37	20.77	21.57	17.80	15.37	13.89	12.70	12.54	12.95	14.39	16.97	18.06	20.16	21.14	19.29	18.44	15.36	12.04	9.328	7.889	5.292	4.354	3.411	3.465	4.337	5.508	7.845	9.677	13.33	16.26	20.10	24.93	27.40	24.56	22.92	20.26	15.62	12.57	12.78	11.51	11.61	22.70	42.21	55.05	24.66
300.0	9999.9	9467	6788	3882	1814	1063	1313	2220	3581	5195	6285	4979	2636	1272	1635	6644	4989	82.45	8.099	4.652	3.130	2.606	1.994	2.353	1.558	1.485	1.219	1.108	1.118	0.994	1.848	5.579	13.55	21.65	23.37	20.29	17.39	15.13	13.62	13.08	13.52	15.22	17.57	19.41	21.55	23.20	21.25	21.08	18.30	14.36	11.23	9.641	6.216	4.751	3.898	3.565	4.467	5.470	7.968	10.17	12.89	16.48	19.90	24.33	28.12	28.14	26.20	21.67	16.41	11.81	9.546	6.600	4.946	6.752	15.01	34.86	50.91
305.0	9921	9406	6978	4129	1925	1066	1252	2118	3376	4773	5809	5233	2669	1037	510.0	2371	6882	3755	60.24	5.980	4.444	3.253	2.606	2.711	1.575	1.572	1.295	1.161	1.126	1.034	1.750	5.341	12.74	21.07	22.74	19.59	18.10	15.41	13.60	12.94	13.45	14.61	16.68	18.84	20.63	22.60	21.25	21.43	19.01	14.93	12.00	9.935	6.462	5.138	3.861	3.870	4.593	5.533	7.520	9.491	12.94	15.67	18.50	21.84	25.12	25.43	26.38	23.62	16.65	11.67	8.905	5.650	3.443	2.898	4.542	9.691	20.95
310.0	8447	8334	6413	3852	1755	948.6	1099	1772	2813	3956	4654	4428	2763	1011	249.5	580.2	2245	4806	4017	278.9	13.08	3.773	2.849	3.411	1.806	1.624	1.376	1.146	1.101	1.110	1.622	4.687	11.10	17.72	20.12	16.92	16.22	13.82	12.15	11.43	11.68	12.74	13.91	16.08	18.29	19.57	18.67	19.22	17.44	14.01	11.05	9.187	6.182	4.595	3.546	3.490	4.114	4.791	6.360	8.209	10.46	13.21	15.35	18.32	20.37	20.54	20.52	20.04	16.45	12.89	9.227	5.234	2.852	1.897	2.048	3.132	5.555
315.0	6804	6757	5275	3224	1479	784.2	855.8	1352	2144	2991	3511	3219	2256	1216	228.2	170.5	525.3	1199	3690	4319	392.3	9.249	3.670	4.477	2.009	1.658	1.568	1.230	1.203	1.105	1.353	3.860	8.443	13.93	16.13	14.04	13.63	11.06	9.842	8.812	9.406	10.28	11.32	12.89	14.41	15.19	15.59	15.90	14.33	11.83	8.813	7.711	5.026	3.840	2.886	2.757	3.205	3.731	4.851	5.954	7.952	10.15	11.71	14.40	15.58	16.01	16.17	14.58	11.79	10.27	9.744	6.810	3.293	1.659	1.294	1.422	1.885
320.0	5287	5411	4307	2661	1200	652.6	684.8	1042	1676	2337	2751	2490	1680	1115	408.2	90.51	143.0	288.4	1074	4286	3631	62.00	6.036	5.698	2.464	1.808	1.520	1.312	1.404	1.080	1.399	3.183	6.697	10.85	12.24	11.37	10.81	9.314	8.390	7.391	7.628	7.841	9.039	9.998	11.63	12.34	12.36	12.88	11.87	9.730	7.431	6.539	4.354	3.018	2.565	2.482	2.499	2.873	4.011	4.977	6.167	7.614	9.316	11.26	12.36	12.32	12.57	11.97	9.259	7.732	6.997	6.020	4.865	2.658	1.460	1.086	1.082
325.0	4163	4289	3513	2168	1010	527.3	546.4	815.8	1304	1829	2140	1955	1283	761.0	565.6	120.4	58.61	84.33	258.2	1418	4568	2819	48.27	7.324	2.833	2.162	1.603	1.435	1.434	1.068	1.302	2.630	5.265	9.071	10.13	9.605	8.855	7.887	6.879	6.086	6.161	6.363	7.371	7.628	9.112	10.04	10.02	10.56	9.842	7.847	6.302	5.538	3.506	2.796	2.126	1.799	2.086	2.362	3.165	3.867	4.924	6.041	7.342	8.867	9.471	9.578	9.608	9.214	7.377	5.975	5.449	3.825	3.575	3.909	2.945	1.583	0.808
330.0	3039	3126	2614	1646	759.7	398.6	402.8	596.8	941.8	1291	1529	1410	943.0	484.0	337.5	346.0	140.3	42.14	73.69	335.0	1436	3390	3077	1060	11.33	3.050	2.077	1.564	1.527	1.165	1.288	2.197	4.025	6.441	7.544	6.844	6.490	5.722	5.086	4.548	4.464	4.741	5.314	5.594	6.626	7.263	7.327	7.635	7.172	5.894	4.741	4.279	2.735	2.119	1.597	1.413	1.704	1.883	2.239	2.930	3.592	4.281	5.163	6.060	6.898	6.844	6.730	6.669	5.352	4.559	3.795	2.436	1.832	2.046	2.389	2.642	2.411
335.0	2121	2238	1854	1174	555.5	296.7	294.6	419.5	651.2	870.4	1044	978.0	677.9	339.5	162.7	215.2	326.8	83.66	34.14	89.89	333.8	831.0	2545	6702	348.0	9.125	2.832	1.988	1.696	1.282	1.257	1.877	3.262	5.017	5.250	5.109	4.756	4.214	3.642	3.246	3.151	3.297	3.750	4.075	4.732	5.307	5.033	5.348	5.091	4.418	3.495	2.999	1.996	1.567	1.130	1.259	1.235	1.361	1.649	2.156	2.495	3.058	3.701	4.378	4.577	4.642	4.801	4.480	3.804	3.263	2.767	1.936	1.232	1.175	1.120	1.309	2.000
340.0	1633	1652	1401	918.6	438.9	237.2	232.2	316.7	492.3	653.6	773.2	729.9	514.8	268.8	117.2	104.4	265.1	246.8	50.44	34.80	88.44	198.3	714.7	5568	3022	54.34	4.514	2.356	1.892	1.429	1.365	1.528	2.584	3.683	4.039	3.976	3.749	3.373	2.768	2.536	2.386	2.420	3.024	3.113	3.438	3.962	3.838	4.163	4.102	3.388	2.828	2.359	1.767	1.314	1.047	1.051	1.059	1.163	1.382	1.729	1.919	2.433	2.845	3.381	3.798	3.516	3.594	3.591	2.950	2.625	2.131	1.618	0.964	0.926	0.716	0.860	1.123
345.0	1230	1267	1088	706.7	355.8	194.7	185.6	254.3	378.5	495.3	588.9	555.8	403.6	224.4	99.38	67.53	125.5	284.1	150.8	28.73	33.06	57.29	172.6	1715	3415	2315	44.51	3.530	2.110	1.817	1.389	1.645	2.017	3.000	3.352	2.984	2.979	2.682	2.220	2.082	1.847	2.008	2.376	2.496	2.697	2.871	3.006	3.282	3.161	2.559	2.331	1.967	1.356	0.989	0.897	0.912	0.856	1.048	1.127	1.336	1.551	1.796	2.178	2.444	2.782	2.601	2.953	2.636	2.525	2.142	1.940	1.312	0.966	0.753	0.676	0.668	0.719
350.0	868.6	894.6	781.2	532.9	275.1	159.8	150.8	193.4	276.6	354.4	412.9	397.9	300.2	175.4	86.63	56.51	59.92	132.3	218.3	117.8	31.36	26.10	50.18	396.3	1027	2352	2282	212.9	12.25	2.149	1.593	1.575	1.875	2.209	2.574	2.352	2.466	2.050	1.756	1.642	1.513	1.521	1.778	1.804	1.933	2.140	2.117	2.405	2.278	1.923	1.653	1.525	1.154	1.027	0.724	0.805	0.773	0.856	0.839	1.041	1.217	1.376	1.711	1.858	1.991	2.019	2.150	1.979	1.769	1.561	1.457	1.086	0.840	0.693	0.620	0.574	0.618
355.0	599.8	641.5	550.3	383.9	220.2	134.2	123.8	147.8	203.9	252.8	284.7	281.5	217.2	139.1	78.49	52.39	43.84	55.29	102.1	204.2	73.28	23.70	23.28	100.1	237.8	559.2	1630	2793	341.3	12.39	2.186	1.791	1.783	1.937	2.247	1.853	1.857	1.640	1.521	1.248	1.223	1.159	1.366	1.334	1.469	1.605	1.618	1.766	1.650	1.438	1.170	1.155	0.870	0.754	0.695	0.600	0.583	0.743	0.689	0.891	0.912	1.087	1.232	1.378	1.545	1.533	1.381	1.381	1.375	1.132	1.111	0.931	0.831	0.639	0.637	0.483	0.506
360.0	455.6	487.6	434.3	304.2	178.4	121.2	113.2	122.4	164.8	195.1	223.7	220.7	172.6	116.5	72.62	50.29	39.00	37.02	46.94	132.8	185.7	54.30	18.15	34.18	62.34	133.1	433.4	2086	2534	285.7	5.532	2.250	1.894	1.830	1.773	1.588	1.508	1.403	1.238	0.990	1.089	1.072	1.011	1.108	1.215	1.171	1.355	1.373	1.406	1.108	0.936	1.007	0.757	0.718	0.603	0.517	0.558	0.569	0.682	0.726	0.864	0.917	1.064	1.153	1.127	1.129	1.028	1.055	1.074	1.095	1.055	0.799	0.716	0.638	0.544	0.483	0.421
365.0	369.1	397.4	354.6	257.6	156.9	107.3	99.31	108.8	138.1	160.5	182.8	178.3	146.1	98.80	68.38	49.29	38.79	33.73	32.75	61.32	166.5	142.5	31.43	19.31	23.73	38.18	105.3	598.6	2405	2308	46.95	3.611	2.057	1.943	1.725	1.410	1.419	1.236	1.124	0.875	0.892	1.017	1.028	1.056	0.994	1.126	1.168	1.125	1.145	0.918	0.936	0.824	0.702	0.607	0.546	0.587	0.557	0.475	0.708	0.739	0.687	0.790	0.861	0.931	0.909	0.939	1.085	0.939	0.915	0.869	0.840	0.631	0.521	0.612	0.544	0.497	0.457
370.0	301.1	306.3	277.2	204.8	134.0	94.59	91.08	96.33	113.4	128.4	140.5	140.2	119.9	86.04	62.10	48.21	39.55	34.05	31.86	36.22	74.81	146.7	104.3	33.08	16.54	17.50	31.03	141.3	678.3	1935	2063	697.3	13.60	2.300	1.668	1.489	1.346	1.208	0.916	0.851	0.763	0.846	0.935	0.971	0.881	0.895	0.914	0.943	0.945	0.758	0.754	0.689	0.646	0.597	0.565	0.490	0.512	0.479	0.584	0.629	0.638	0.682	0.742	0.796	0.796	0.716	0.888	0.841	0.766	0.725	0.767	0.590	0.579	0.547	0.573	0.492	0.417
375.0	231.2	229.3	217.8	165.5	116.9	85.00	80.44	83.45	97.24	106.5	112.7	114.4	95.98	74.18	56.42	48.82	39.55	35.62	31.51	31.77	38.59	65.52	137.0	107.1	25.79	14.20	15.29	38.98	157.7	451.2	1228	2879	328.3	14.86	2.347	1.743	1.427	1.181	1.030	0.924	0.685	0.796	0.797	0.747	0.811	0.866	0.774	0.771	0.751	0.680	0.604	0.621	0.625	0.581	0.457	0.428	0.511	0.527	0.553	0.555	0.533	0.599	0.641	0.583	0.652	0.711	0.678	0.734	0.676	0.526	0.629	0.583	0.489	0.508	0.519	0.486	0.485
380.0	204.7	212.9	185.4	139.6	106.6	80.87	75.64	76.22	83.80	90.69	98.58	97.89	86.10	66.54	54.33	45.08	38.50	35.42	31.96	31.07	31.43	36.42	81.98	147.7	56.41	16.18	12.80	17.15	41.55	107.0	315.1	1863	2387	272.8	6.838	1.792	1.387	1.323	1.102	0.806	0.739	0.791	0.712	0.673	0.787	0.773	0.614	0.695	0.691	0.608	0.618	0.564	0.514	0.579	0.469	0.394	0.482	0.569	0.496	0.483	0.418	0.511	0.588	0.526	0.593	0.654	0.571	0.652	0.605	0.558	0.556	0.577	0.498	0.590	0.502	0.473	0.419
385.0	198.8	191.8	163.3	123.6	97.92	80.67	75.13	70.75	76.14	83.02	87.03	85.20	77.51	64.29	53.27	43.75	39.43	36.40	33.83	33.56	30.61	29.77	42.70	110.0	123.4	36.13	13.75	13.02	17.15	30.46	76.92	503.4	1963	2200	40.84	3.484	1.747	1.386	1.028	0.890	0.738	0.654	0.654	0.691	0.733	0.691	0.530	0.644	0.560	0.572	0.568	0.596	0.452	0.549	0.542	0.389	0.499	0.461	0.483	0.498	0.418	0.505	0.643	0.504	0.711	0.515	0.498	0.542	0.470	0.495	0.562	0.473	0.668	0.501	0.419	0.413	0.380
390.0	160.1	158.1	137.7	113.6	91.77	77.38	71.26	65.42	69.70	72.23	77.10	75.87	69.26	61.35	51.08	44.43	41.03	36.95	34.80	33.05	31.29	30.13	31.04	53.52	102.8	97.80	34.29	13.91	12.53	14.78	23.28	118.0	522.6	1589	1852	576.1	12.89	1.841	1.242	1.035	0.751	0.744	0.732	0.698	0.721	0.652	0.599	0.636	0.589	0.528	0.504	0.545	0.462	0.470	0.467	0.414	0.469	0.469	0.404	0.430	0.455	0.515	0.470	0.497	0.623	0.580	0.534	0.540	0.488	0.550	0.518	0.442	0.517	0.480	0.473	0.468	0.392
395.0	151.2	137.6	125.5	101.5	82.75	72.25	68.72	62.97	63.79	67.10	71.26	66.51	66.13	57.15	49.45	44.19	40.90	37.70	35.95	34.06	33.07	31.52	30.03	35.33	48.95	95.87	93.29	28.18	13.63	12.41	12.36	32.06	121.2	365.8	997.5	2173	282.6	14.96	1.744	1.094	0.904	0.745	0.745	0.729	0.644	0.640	0.546	0.690	0.580	0.490	0.441	0.514	0.450	0.544	0.450	0.410	0.463	0.454	0.556	0.396	0.415	0.490	0.424	0.530	0.538	0.520	0.492	0.482	0.603	0.526	0.503	0.395	0.507	0.446	0.451	0.526	0.467
400.0	144.7	131.4	112.4	94.29	78.56	71.39	64.70	58.87	61.76	62.57	64.43	62.34	61.92	56.63	47.91	42.58	39.77	37.11	35.27	34.25	33.40	32.55	31.22	32.25	31.25	56.58	108.4	55.92	17.94	12.22	9.977	13.69	31.76	86.33	248.8	1329	2078	243.4	6.899	1.526	1.168	0.841	0.735	0.878	0.652	0.672	0.613	0.595	0.506	0.499	0.446	0.565	0.450	0.490	0.446	0.380	0.491	0.507	0.457	0.472	0.466	0.414	0.464	0.474	0.440	0.496	0.476	0.495	0.474	0.449	0.495	0.422	0.433	0.421	0.434	0.524	0.480
405.0	122.8	125.6	102.0	88.14	77.97	67.30	60.74	60.17	57.28	57.87	62.66	59.32	57.60	53.79	48.35	42.74	39.66	36.67	34.52	33.69	33.08	32.40	30.37	33.38	28.66	34.94	76.17	100.2	39.54	14.21	10.58	9.561	12.54	23.41	59.69	354.3	1648	1845	36.66	2.784	1.297	0.966	0.797	0.790	0.695	0.585	0.547	0.659	0.565	0.488	0.399	0.475	0.436	0.498	0.479	0.388	0.416	0.444	0.494	0.424	0.419	0.395	0.540	0.468	0.482	0.477	0.502	0.477	0.489	0.459	0.422	0.456	0.463	0.462	0.370	0.511	0.559
410.0	110.8	113.5	99.76	81.82	72.26	65.20	62.25	57.23	60.00	54.42	56.21	56.56	54.16	50.79	46.32	40.89	37.62	36.09	35.34	33.92	32.73	31.92	31.04	36.84	28.35	28.07	39.75	74.87	81.03	34.88	13.17	9.320	8.852	10.37	17.16	82.95	435.2	1290	1508	462.6	10.97	1.225	1.016	0.857	0.769	0.661	0.513	0.563	0.491	0.474	0.401	0.468	0.451	0.480	0.435	0.403	0.474	0.432	0.427	0.423	0.462	0.454	0.415	0.439	0.404	0.410	0.428	0.467	0.434	0.412	0.486	0.412	0.482	0.458	0.413	0.477	0.460
415.0	105.2	102.1	92.58	75.56	73.85	61.89	62.07	58.41	56.26	55.99	53.49	54.36	52.61	49.21	43.81	38.91	35.79	34.59	32.72	32.26	32.34	31.14	30.62	39.64	27.60	27.63	28.91	38.26	71.62	76.07	26.32	10.65	8.733	7.749	8.274	21.92	100.1	295.9	760.4	1590	252.0	12.13	1.281	1.032	0.765	0.718	0.517	0.532	0.454	0.392	0.384	0.427	0.484	0.436	0.462	0.394	0.510	0.374	0.435	0.429	0.350	0.474	0.373	0.468	0.384	0.431	0.456	0.414	0.438	0.498	0.456	0.418	0.433	0.404	0.364	0.441	0.459
