Sample:	'1
File name:	Default_20230112_142215.FD3
Run date:	'14:15:53, 01/12/2023
Operator:	dsjg
Comment:	'

Instrument
Model:	F-2700 FL Spectrophotometer
Serial number:	2198-001
ROM Version:	4J14000 07

Instrument parameters
Measurement type:	3-D scan
Data mode:	Fluorescence
EX  Start WL:	220.0 nm
EX  End WL:	600.0 nm
EX Sampling interval:	5.0 nm
EM  Start WL:	230.0 nm
EM  End WL:	650.0 nm
EM Sampling interval:	5.0 nm
Scan speed:	12000 nm/min
EX Slit:	5.0 nm
EM Slit:	5.0 nm
PMT Voltage:	700 V
Response:	Auto 
Corrected spectra:	Off
Contour interval:	50.000

Peak integration
Integration method:	Rectangular
Sensitivity:	1
Threshold:	1.000

Peaks
No.	ApexEX/EM(nm)	Height(Data)
1	225.0/305.0	 1044
2	225.0/495.0	109.3
3	225.0/590.0	68.83
4	230.0/250.0	139.7
5	230.0/505.0	102.6
6	235.0/260.0	168.5
7	235.0/515.0	85.04
8	240.0/265.0	199.8
9	240.0/530.0	65.91
10	245.0/270.0	177.2
11	245.0/535.0	59.48
12	250.0/275.0	212.3
13	250.0/550.0	49.61
14	255.0/560.0	46.22
15	260.0/575.0	48.25
16	265.0/585.0	60.57
17	270.0/300.0	920.0
18	270.0/595.0	67.29
19	275.0/305.0	969.4
20	275.0/350.0	666.5
21	275.0/605.0	59.34
22	310.0/350.0	183.6
23	315.0/355.0	168.0
24	320.0/360.0	175.6
25	325.0/365.0	151.3
26	330.0/375.0	139.8
27	335.0/380.0	151.8
28	340.0/385.0	139.7
29	350.0/400.0	124.6
30	355.0/405.0	123.3
31	360.0/410.0	108.1
32	365.0/420.0	105.9
33	370.0/425.0	100.6
34	380.0/440.0	74.24
35	385.0/445.0	66.10
36	395.0/305.0	3.638
37	400.0/465.0	40.52
38	405.0/470.0	31.88
39	410.0/475.0	26.95
40	415.0/485.0	23.66
41	420.0/490.0	18.94
42	425.0/495.0	16.16
43	430.0/505.0	14.14
44	435.0/510.0	11.53
45	440.0/515.0	10.09
46	445.0/525.0	9.047
47	450.0/305.0	3.184
48	450.0/530.0	7.426
49	455.0/300.0	3.023
50	455.0/535.0	6.392
51	460.0/545.0	5.535
52	470.0/555.0	3.555
53	475.0/565.0	2.808
54	545.0/300.0	4.859
55	550.0/305.0	5.043

Data points
	220.0	225.0	230.0	235.0	240.0	245.0	250.0	255.0	260.0	265.0	270.0	275.0	280.0	285.0	290.0	295.0	300.0	305.0	310.0	315.0	320.0	325.0	330.0	335.0	340.0	345.0	350.0	355.0	360.0	365.0	370.0	375.0	380.0	385.0	390.0	395.0	400.0	405.0	410.0	415.0	420.0	425.0	430.0	435.0	440.0	445.0	450.0	455.0	460.0	465.0	470.0	475.0	480.0	485.0	490.0	495.0	500.0	505.0	510.0	515.0	520.0	525.0	530.0	535.0	540.0	545.0	550.0	555.0	560.0	565.0	570.0	575.0	580.0	585.0	590.0	595.0	600.0
230.0	38.43	666.9	 1119	244.0	4.748	1.244	0.911	0.889	0.803	0.646	0.780	0.711	0.493	0.500	0.293	0.216	0.219	0.193	0.167	0.157	0.112	0.124	0.104	0.125	0.118	0.118	0.111	0.114	0.119	0.084	0.083	0.086	0.060	0.076	0.096	0.204	0.218	0.168	0.157	0.150	0.211	0.388	0.443	0.257	0.139	0.119	0.336	1.840	3.995	3.515	1.502	0.273	0.067	0.051	0.037	0.038	0.040	0.038	0.016	0.034	0.023	0.013	0.018	0.014	0.020	0.008	0.010	0.019	0.007	0.002	0.003	-0.005	0.010	-0.007	-0.008	-0.003	-0.004
235.0	64.12	194.9	755.8	977.1	259.5	6.767	1.542	1.016	0.691	0.806	0.758	0.646	0.439	0.547	0.393	0.250	0.222	0.177	0.160	0.187	0.176	0.117	0.130	0.119	0.091	0.117	0.118	0.109	0.127	0.170	0.087	0.108	0.044	0.091	0.087	0.096	0.159	0.144	0.170	0.167	0.185	0.167	0.300	0.384	0.409	0.247	0.213	0.487	1.249	2.205	2.961	3.739	1.874	0.396	0.050	0.052	0.031	0.063	0.022	0.016	0.011	0.023	0.008	0.021	0.010	0.003	0.009	0.024	0.000	0.014	0.011	-0.007	0.003	-0.003	-0.007	0.001	-0.003
240.0	118.3	86.96	254.0	885.1	922.0	164.6	2.669	1.314	0.917	1.021	0.745	0.767	0.542	0.616	0.288	0.294	0.202	0.205	0.207	0.152	0.169	0.106	0.100	0.112	0.101	0.086	0.139	0.097	0.099	0.101	0.134	0.080	0.065	0.072	0.076	0.064	0.088	0.171	0.168	0.200	0.149	0.178	0.198	0.240	0.400	0.609	0.395	0.302	0.352	0.628	1.300	3.473	4.591	3.376	1.362	0.172	0.033	0.055	0.026	0.017	0.013	0.023	-0.001	0.010	0.017	0.017	0.016	0.000	0.013	0.001	0.011	-0.012	-0.008	0.004	0.004	-0.003	0.002
245.0	107.8	127.5	83.34	336.9	 1043	782.7	92.77	2.585	1.969	1.209	0.953	0.739	0.662	0.508	0.375	0.239	0.241	0.197	0.148	0.135	0.224	0.171	0.114	0.112	0.154	0.143	0.130	0.125	0.098	0.114	0.120	0.079	0.112	0.097	0.065	0.105	0.070	0.115	0.142	0.237	0.136	0.147	0.190	0.164	0.257	0.440	0.599	0.664	0.295	0.226	0.376	1.107	2.707	4.797	4.787	2.627	0.707	0.072	0.027	0.033	0.016	0.015	0.038	0.024	0.015	0.012	0.015	0.006	0.017	0.007	0.022	-0.011	-0.004	-0.002	0.005	-0.002	-0.012
250.0	36.53	115.8	139.7	114.9	370.5	857.3	716.0	163.0	10.48	1.522	1.002	1.204	0.836	0.508	0.396	0.311	0.263	0.224	0.231	0.203	0.233	0.159	0.147	0.150	0.134	0.129	0.129	0.113	0.147	0.089	0.108	0.102	0.083	0.083	0.118	0.087	0.063	0.056	0.106	0.173	0.190	0.172	0.175	0.166	0.196	0.217	0.328	0.488	0.592	0.560	0.395	0.373	0.709	1.501	2.552	3.503	4.286	3.692	2.264	0.599	0.073	0.022	0.022	0.020	0.014	0.016	0.005	0.011	0.019	0.013	0.006	0.000	0.006	-0.004	0.004	0.000	0.001
255.0	10.08	37.85	123.0	163.2	117.1	233.8	709.2	 1078	212.8	10.16	1.552	1.500	1.076	0.570	0.568	0.260	0.465	0.327	0.226	0.231	0.230	0.196	0.185	0.167	0.147	0.143	0.144	0.071	0.173	0.107	0.091	0.039	0.065	0.058	0.097	0.073	0.074	0.037	0.083	0.092	0.190	0.239	0.187	0.159	0.154	0.140	0.225	0.214	0.269	0.506	0.703	0.836	0.455	0.444	0.651	0.924	1.546	3.241	6.003	6.091	3.185	0.641	0.070	0.022	0.019	0.015	-0.003	0.020	0.007	0.004	0.001	0.003	0.002	-0.004	-0.004	0.002	0.004
260.0	3.922	11.98	52.47	168.5	145.6	73.95	241.2	935.2	 1069	165.7	4.889	2.019	1.322	0.821	0.844	0.363	0.336	0.287	0.332	0.154	0.189	0.124	0.184	0.199	0.152	0.105	0.125	0.099	0.195	0.080	0.098	0.099	0.079	0.088	0.108	0.046	0.046	0.077	0.078	0.050	0.141	0.192	0.174	0.183	0.125	0.138	0.154	0.158	0.150	0.221	0.398	0.791	0.993	0.668	0.355	0.270	0.431	0.917	2.537	5.286	7.302	5.671	2.025	0.229	0.008	0.022	0.016	0.023	0.014	0.012	0.005	-0.001	0.001	0.017	-0.008	0.016	0.001
265.0	2.272	6.909	16.39	92.78	199.8	98.50	67.12	353.1	 1145	996.8	118.5	2.852	1.505	0.866	0.962	0.483	0.413	0.333	0.313	0.196	0.228	0.170	0.175	0.160	0.188	0.180	0.151	0.128	0.199	0.121	0.083	0.088	0.079	0.095	0.102	0.061	0.086	0.076	0.072	0.048	0.092	0.159	0.201	0.187	0.120	0.131	0.120	0.158	0.133	0.133	0.172	0.336	0.746	1.123	0.837	0.375	0.185	0.272	0.643	1.654	4.022	7.115	7.642	4.394	1.090	0.074	0.022	0.037	0.046	0.004	0.002	0.003	0.011	0.015	-0.002	0.002	-0.006
270.0	12.55	12.05	12.43	27.92	104.7	177.2	118.2	105.9	394.3	956.3	 1059	399.2	21.99	1.526	1.071	0.795	0.678	0.392	0.272	0.241	0.301	0.231	0.190	0.172	0.189	0.163	0.126	0.169	0.123	0.120	0.088	0.078	0.113	0.194	0.179	0.174	0.182	0.189	0.186	0.168	0.170	0.160	0.204	0.250	0.222	0.192	0.163	0.178	0.177	0.122	0.106	0.149	0.264	0.533	0.795	0.975	0.860	0.507	0.331	0.488	1.033	2.228	3.821	5.631	6.404	5.621	2.933	0.795	0.086	0.027	0.025	0.023	0.007	0.014	0.002	0.010	0.005
275.0	60.46	45.66	28.16	15.87	33.97	98.10	212.3	156.9	133.6	281.7	776.6	 1347	566.9	18.20	1.564	0.975	0.745	0.585	0.357	0.246	0.307	0.285	0.243	0.211	0.213	0.169	0.212	0.143	0.179	0.165	0.121	0.115	0.135	0.314	0.364	0.421	0.474	0.449	0.300	0.337	0.327	0.333	0.345	0.316	0.358	0.367	0.300	0.301	0.224	0.192	0.121	0.112	0.144	0.286	0.293	0.462	0.823	1.333	1.201	0.566	0.457	0.680	1.066	1.606	2.251	4.603	7.333	7.720	3.792	0.771	0.073	0.025	0.021	0.027	0.006	-0.002	0.024
280.0	154.6	142.7	71.06	28.57	22.34	46.51	164.2	261.9	164.0	159.0	327.5	 1017	 1391	125.0	7.099	1.493	0.858	0.674	0.543	0.349	0.404	0.295	0.358	0.259	0.202	0.157	0.180	0.106	0.198	0.151	0.103	0.175	0.236	0.489	0.632	0.873	0.818	0.756	0.618	0.554	0.470	0.481	0.626	0.488	0.503	0.594	0.537	0.573	0.432	0.294	0.201	0.169	0.149	0.157	0.170	0.261	0.383	0.897	1.469	1.519	1.014	0.586	0.641	0.862	1.062	1.669	3.223	6.652	8.643	6.813	2.328	0.176	0.037	0.037	0.026	0.031	0.062
285.0	329.9	324.6	173.8	59.30	28.39	40.47	103.3	266.6	277.8	225.3	263.4	517.5	 1218	 1031	91.27	2.762	1.019	0.766	0.562	0.631	0.408	0.297	0.350	0.362	0.278	0.177	0.188	0.135	0.145	0.186	0.239	0.118	0.225	0.749	1.133	1.477	1.549	1.293	0.930	0.868	0.780	0.873	0.964	0.936	0.933	1.055	1.113	1.096	0.803	0.566	0.376	0.224	0.199	0.192	0.177	0.243	0.341	0.488	0.946	1.578	2.094	1.684	1.096	1.105	1.193	1.448	1.652	2.675	5.028	8.482	8.878	4.781	1.033	0.079	0.017	0.033	0.062
290.0	597.0	613.5	339.5	113.0	48.31	57.33	100.4	212.1	395.1	512.4	480.8	488.4	616.0	914.5	940.3	365.1	18.15	1.234	0.779	0.722	0.527	0.417	0.420	0.292	0.277	0.198	0.241	0.214	0.171	0.218	0.193	0.138	0.341	1.020	2.008	2.421	2.278	1.818	1.454	1.249	1.321	1.313	1.406	1.536	1.632	1.938	1.961	2.046	1.520	1.054	0.646	0.396	0.273	0.248	0.248	0.310	0.425	0.481	0.692	1.022	1.699	2.245	2.626	2.579	2.304	2.117	2.134	2.174	2.647	3.368	4.818	6.092	6.565	5.475	2.790	0.690	0.126
295.0	862.6	910.4	501.8	159.2	69.02	80.32	125.3	218.7	376.0	653.9	822.0	647.0	514.3	382.7	582.9	 1248	488.7	13.63	1.107	0.957	0.635	0.528	0.486	0.388	0.383	0.244	0.246	0.270	0.241	0.187	0.186	0.140	0.440	1.259	2.678	3.010	3.015	2.369	1.884	1.505	1.552	1.633	1.708	2.011	2.254	2.545	2.639	2.781	2.302	1.460	0.932	0.583	0.421	0.334	0.349	0.383	0.533	0.515	0.755	1.020	1.523	1.935	2.473	3.428	4.202	3.815	2.859	2.823	2.577	2.323	1.990	1.967	2.488	4.422	8.247	8.152	3.133
300.0	957.6	 1042	560.7	183.3	79.54	92.24	139.5	227.6	378.9	623.2	920.0	845.6	537.7	274.0	215.8	799.6	 1302	75.87	4.257	1.279	0.713	0.659	0.619	0.505	0.340	0.347	0.216	0.251	0.238	0.202	0.231	0.228	0.463	1.434	2.888	3.595	3.508	2.558	1.990	1.582	1.613	1.691	1.867	2.023	2.528	2.910	3.001	3.023	2.412	1.648	0.924	0.635	0.448	0.427	0.362	0.444	0.548	0.695	0.912	1.088	1.424	1.873	2.450	3.268	4.249	4.859	4.275	3.330	2.784	2.208	1.493	1.083	0.853	1.419	3.540	7.553	9.840
305.0	954.6	 1044	583.2	190.9	92.87	97.10	150.3	236.2	379.7	584.6	845.6	969.4	629.7	267.8	117.2	272.8	958.5	 1138	58.25	2.075	1.064	0.713	0.667	0.576	0.542	0.349	0.363	0.231	0.273	0.302	0.183	0.253	0.400	1.459	3.035	3.638	3.161	2.529	1.892	1.533	1.618	1.670	1.700	2.093	2.546	3.094	3.184	2.989	2.400	1.714	1.048	0.710	0.562	0.492	0.439	0.460	0.575	0.757	1.004	1.231	1.472	1.949	2.371	3.002	3.418	4.239	5.043	4.680	3.456	2.304	1.542	0.900	0.547	0.656	1.079	2.476	5.480
310.0	889.5	952.9	543.8	187.8	98.06	106.7	158.5	241.9	377.6	548.5	728.1	842.3	741.2	355.9	115.8	103.6	300.7	792.4	987.1	253.0	13.03	1.105	0.762	0.602	0.466	0.390	0.355	0.302	0.309	0.259	0.218	0.226	0.436	1.299	2.680	3.408	2.979	2.168	1.588	1.479	1.418	1.569	1.670	1.979	2.312	2.787	2.902	2.810	2.204	1.496	0.924	0.777	0.551	0.505	0.454	0.474	0.613	0.764	1.000	1.234	1.488	1.827	2.220	2.759	3.160	3.520	4.090	4.071	3.984	3.488	2.032	1.035	0.653	0.575	0.564	0.849	1.519
315.0	785.5	809.1	478.5	187.6	108.8	119.0	161.8	248.0	364.7	507.1	645.6	686.4	648.7	504.6	198.8	87.04	106.3	211.0	523.1	 1150	366.6	8.944	1.020	0.835	0.559	0.409	0.450	0.369	0.346	0.296	0.219	0.244	0.432	1.170	2.246	2.912	2.552	1.864	1.356	1.155	1.168	1.438	1.541	1.740	2.051	2.448	2.426	2.474	2.009	1.354	0.942	0.579	0.575	0.477	0.544	0.559	0.685	0.774	0.915	1.110	1.472	1.856	2.181	2.508	2.783	3.146	3.425	3.196	3.063	3.024	2.874	1.995	1.143	0.724	0.564	0.601	0.641
320.0	709.6	745.8	450.7	181.7	120.7	126.5	172.5	249.8	362.3	488.1	613.9	640.9	566.9	483.3	336.3	108.9	73.14	79.04	157.8	690.9	 1157	56.86	3.486	0.963	0.774	0.641	0.567	0.369	0.432	0.322	0.290	0.202	0.413	0.968	1.839	2.389	2.148	1.628	1.328	1.113	1.108	1.223	1.257	1.642	1.799	2.105	2.368	2.216	1.913	1.372	0.798	0.555	0.531	0.539	0.511	0.594	0.784	0.910	0.867	1.203	1.595	1.815	2.129	2.507	2.679	2.929	3.077	2.953	2.668	2.516	2.531	2.501	2.226	1.319	0.664	0.617	0.465
325.0	653.4	699.9	419.7	191.0	130.2	139.9	185.7	257.0	362.2	489.1	592.8	618.1	544.3	419.4	388.4	217.9	82.39	56.80	58.55	212.2	856.7	989.4	47.25	1.691	0.886	0.699	0.552	0.392	0.393	0.307	0.355	0.230	0.314	0.828	1.681	2.022	1.812	1.425	1.212	1.065	1.024	1.175	1.251	1.429	1.701	2.009	2.059	2.069	1.713	1.226	0.783	0.660	0.533	0.559	0.577	0.684	0.717	0.909	1.155	1.274	1.476	1.845	2.064	2.390	2.608	2.692	2.946	2.875	2.692	2.391	2.146	2.178	2.346	2.229	1.444	0.730	0.524
330.0	608.5	642.2	422.6	229.9	155.3	160.6	203.7	279.3	383.7	494.6	590.6	615.7	553.0	418.1	333.4	304.8	180.9	69.60	46.08	67.87	250.9	685.1	880.0	199.1	10.61	0.925	0.697	0.504	0.502	0.455	0.356	0.320	0.363	0.784	1.216	1.459	1.408	1.247	0.992	0.931	0.955	1.167	1.204	1.359	1.626	1.861	1.984	1.859	1.698	1.282	0.876	0.791	0.683	0.573	0.642	0.766	0.811	1.030	1.210	1.344	1.676	1.910	2.338	2.479	2.661	2.776	2.868	2.909	2.632	2.533	2.155	1.975	1.755	1.908	1.953	1.616	1.183
335.0	575.0	613.8	441.3	271.4	186.0	191.3	235.1	308.5	404.5	514.1	609.6	635.3	581.5	460.3	334.1	257.5	273.1	152.2	55.57	42.01	74.49	173.7	460.2	 1066	297.9	9.247	1.064	0.789	0.470	0.427	0.423	0.328	0.361	0.693	1.002	1.192	1.183	1.104	0.963	0.941	0.812	1.023	1.136	1.430	1.581	1.823	1.816	1.977	1.719	1.238	0.917	0.933	0.875	0.728	0.786	0.889	1.019	1.131	1.379	1.490	1.810	2.075	2.387	2.550	2.921	2.916	2.796	2.762	2.741	2.622	2.341	2.079	1.807	1.504	1.474	1.373	1.669
340.0	578.0	595.8	446.9	288.8	208.6	208.9	254.4	331.1	427.2	532.5	622.8	653.5	607.5	496.1	356.8	241.9	231.4	236.5	77.58	43.64	41.50	57.49	134.0	649.7	 1096	47.79	3.416	0.928	0.653	0.539	0.445	0.421	0.302	0.581	0.923	1.075	1.158	1.009	0.939	0.845	0.881	1.004	1.135	1.250	1.486	1.845	1.714	1.904	1.813	1.331	0.993	1.161	0.939	0.854	0.833	0.864	1.115	1.315	1.528	1.680	1.885	2.251	2.412	2.862	2.959	2.890	2.912	3.022	2.905	2.913	2.557	2.260	1.877	1.600	1.298	1.273	1.266
345.0	548.2	578.8	438.4	306.3	231.6	232.0	277.8	349.9	443.4	546.2	630.0	663.7	634.7	524.6	387.6	250.4	187.0	228.2	162.5	58.08	39.20	36.01	48.47	196.8	861.5	924.8	39.54	1.585	0.771	0.739	0.470	0.353	0.284	0.516	0.748	0.978	0.923	0.895	0.856	0.717	0.872	1.032	1.044	1.161	1.437	1.673	1.794	1.974	1.748	1.350	1.137	1.195	1.038	0.936	0.873	0.901	1.096	1.326	1.545	1.656	1.947	2.239	2.458	2.657	2.938	2.992	2.937	3.100	3.059	3.149	2.561	2.691	2.070	1.717	1.328	1.220	1.079
350.0	512.6	549.3	437.7	309.7	245.3	243.2	289.8	363.7	454.3	548.7	628.5	666.5	636.3	538.5	403.9	261.1	174.7	156.9	183.6	137.0	53.76	39.04	35.93	62.66	248.3	681.0	822.7	181.8	9.707	0.880	0.598	0.444	0.384	0.607	0.745	0.918	0.861	0.886	0.875	0.840	0.858	0.915	1.104	1.220	1.306	1.686	1.676	1.748	1.586	1.313	1.162	1.192	1.111	0.962	0.908	0.966	1.115	1.300	1.600	1.880	2.029	2.279	2.463	2.751	2.823	2.972	3.041	2.928	3.169	2.974	2.824	2.654	2.224	1.906	1.441	1.169	1.098
355.0	492.8	498.8	405.3	302.4	252.3	247.6	300.1	373.1	453.2	537.5	625.2	653.0	627.6	542.8	414.8	270.6	178.9	132.2	125.7	168.0	130.0	53.32	39.49	39.13	72.40	168.8	436.9	998.0	278.2	8.510	0.904	0.609	0.497	0.596	0.749	0.848	0.812	0.705	0.774	0.782	0.896	0.926	1.103	1.222	1.266	1.594	1.537	1.582	1.407	1.286	1.098	1.214	1.038	1.016	1.006	1.052	1.154	1.286	1.557	1.775	2.021	2.340	2.485	2.670	2.972	2.978	3.106	3.033	3.046	3.091	2.803	2.665	2.372	2.070	1.527	1.336	1.083
360.0	460.7	471.6	387.9	301.0	250.6	254.5	298.0	372.3	457.5	534.9	615.0	645.2	625.4	544.3	420.5	273.4	182.1	131.6	107.5	129.3	175.6	92.66	47.89	38.84	37.43	51.94	120.5	611.1	 1037	44.28	2.442	0.811	0.552	0.558	0.636	0.832	0.778	0.731	0.684	0.711	0.761	0.837	1.103	1.188	1.193	1.360	1.412	1.516	1.359	1.282	1.013	1.180	1.001	1.000	1.020	1.036	1.192	1.270	1.569	1.777	2.086	2.339	2.535	2.589	2.792	2.909	2.949	3.091	3.081	3.057	2.692	2.552	2.395	1.827	1.458	1.359	1.186
365.0	452.5	455.1	365.0	283.0	246.1	260.5	290.4	367.9	450.7	526.6	595.7	628.4	605.6	526.6	410.4	271.7	185.5	133.0	108.1	103.2	150.3	151.3	60.54	43.97	33.34	29.56	38.82	179.0	834.2	856.1	37.65	1.314	0.667	0.635	0.705	0.754	0.704	0.774	0.698	0.751	0.736	0.872	1.010	1.093	1.197	1.326	1.393	1.460	1.264	1.046	0.910	1.070	1.053	1.121	1.016	1.081	1.169	1.285	1.491	1.810	1.994	2.199	2.472	2.598	2.519	2.758	2.965	2.934	3.105	2.979	2.760	2.554	2.349	1.818	1.496	1.376	1.152
370.0	410.7	410.9	328.4	275.9	241.7	251.1	284.9	352.3	427.5	502.2	564.5	594.6	574.9	502.0	393.0	267.3	186.4	139.4	114.8	102.0	108.7	146.1	129.8	67.85	39.85	30.11	25.21	51.27	234.8	656.8	597.6	162.2	8.480	0.774	0.771	0.742	0.655	0.719	0.629	0.754	0.824	0.880	0.966	0.999	1.142	1.207	1.299	1.262	1.269	0.998	0.924	1.018	1.016	1.086	1.049	1.039	1.152	1.330	1.488	1.645	1.873	2.077	2.285	2.488	2.671	2.739	2.805	2.875	2.895	2.834	2.571	2.457	2.288	1.855	1.526	1.361	1.187
375.0	396.0	377.7	303.2	252.2	236.7	242.8	276.3	338.1	403.3	473.2	531.7	555.8	533.5	471.4	371.8	256.2	185.0	147.1	122.8	108.1	100.9	106.4	139.8	129.5	59.18	37.53	28.13	27.34	63.47	159.2	389.2	907.1	243.6	7.957	0.984	0.726	0.673	0.718	0.648	0.836	0.816	0.820	0.979	0.879	0.968	1.061	1.103	1.149	1.158	1.023	0.831	0.917	0.994	0.995	1.039	0.988	1.165	1.295	1.354	1.650	1.732	1.995	2.139	2.419	2.580	2.623	2.749	2.619	2.747	2.662	2.466	2.400	2.101	1.848	1.418	1.417	1.112
380.0	364.5	341.5	283.6	238.6	230.1	236.6	266.5	326.0	381.6	437.4	501.1	525.6	504.1	444.8	353.6	250.1	183.7	148.5	126.0	114.3	105.1	98.93	111.3	151.8	98.22	47.39	33.19	25.78	28.60	45.27	106.4	571.6	876.9	182.8	2.688	0.926	0.740	0.741	0.637	0.763	0.762	0.748	0.870	0.889	1.008	1.042	1.083	1.016	1.081	0.892	0.758	0.968	0.914	0.940	0.952	1.083	1.077	1.207	1.321	1.523	1.620	1.804	1.917	2.131	2.341	2.315	2.431	2.364	2.432	2.413	2.328	2.120	2.068	1.706	1.425	1.194	1.188
385.0	337.3	324.2	277.4	233.5	219.5	227.4	257.2	310.5	362.9	421.9	467.1	494.7	469.7	421.0	341.3	240.6	182.3	147.5	130.4	119.9	110.3	103.5	99.25	127.5	139.7	69.26	40.16	29.90	24.91	23.11	32.87	165.6	712.5	829.7	31.65	1.159	0.803	0.786	0.673	0.795	0.742	0.805	0.794	0.896	1.020	0.981	0.977	0.993	0.999	0.811	0.716	0.976	0.898	0.912	0.918	1.041	1.118	1.194	1.274	1.276	1.578	1.543	1.875	1.962	2.288	2.382	2.322	2.333	2.374	2.273	2.243	2.109	1.914	1.658	1.444	1.220	1.172
390.0	317.5	304.5	253.7	219.3	216.2	222.0	240.0	286.1	336.6	382.4	428.6	449.7	438.4	389.2	315.8	230.6	178.7	150.0	133.2	124.0	116.5	108.7	101.6	103.4	124.5	118.4	64.85	39.93	31.09	23.88	20.72	46.03	201.1	611.8	676.8	127.4	7.220	0.889	0.744	0.768	0.745	0.735	0.739	0.837	0.952	0.944	0.986	1.026	0.949	0.824	0.755	0.876	0.860	0.884	0.922	0.963	1.012	1.106	1.292	1.312	1.500	1.494	1.670	1.779	1.994	2.024	2.089	2.113	2.107	2.081	1.948	1.973	1.754	1.485	1.469	1.228	1.117
395.0	280.7	277.0	233.1	208.0	204.9	208.8	228.0	270.2	306.9	353.0	385.8	405.0	396.8	354.7	288.9	215.8	173.1	147.6	134.9	126.5	121.8	114.7	106.3	100.0	98.55	117.1	116.2	63.03	40.61	30.65	23.45	23.09	53.41	146.4	356.5	690.5	193.7	5.808	0.909	0.888	0.812	0.687	0.850	0.856	0.836	0.964	0.963	0.929	0.854	0.734	0.656	0.805	0.760	0.914	0.887	0.880	0.957	1.139	1.195	1.378	1.360	1.352	1.530	1.641	1.723	1.828	2.063	1.819	1.936	1.922	1.907	1.798	1.623	1.430	1.224	1.132	1.133
400.0	260.5	262.1	217.2	202.4	199.1	202.2	225.0	250.5	283.8	328.6	364.1	375.2	366.3	328.4	271.0	206.6	168.3	147.2	135.8	128.1	125.0	117.7	110.4	103.0	96.46	98.10	124.6	97.78	49.64	37.88	28.08	21.29	23.05	39.88	93.96	425.0	627.2	32.92	2.193	0.889	0.886	0.691	0.869	0.740	0.805	0.784	0.951	0.933	0.840	0.759	0.671	0.819	0.793	0.855	0.813	0.891	0.925	0.902	1.054	1.144	1.284	1.317	1.326	1.513	1.626	1.786	1.829	1.865	1.671	1.866	1.622	1.625	1.590	1.427	1.302	1.166	1.066
405.0	255.0	252.6	210.4	199.4	192.0	194.1	216.9	239.3	268.8	304.7	335.6	353.2	337.3	303.5	254.8	197.2	161.6	145.9	133.5	127.5	126.0	119.3	113.2	107.6	97.78	93.18	106.0	123.3	74.35	44.09	32.96	24.28	18.62	18.04	27.37	120.8	484.1	494.6	26.18	1.299	0.791	0.673	0.748	0.721	0.720	0.835	0.833	0.845	0.761	0.786	0.676	0.797	0.771	0.812	0.793	0.862	1.007	1.064	0.992	1.245	1.238	1.211	1.408	1.541	1.576	1.659	1.505	1.618	1.648	1.615	1.515	1.583	1.517	1.339	1.197	1.064	1.130
410.0	226.8	231.8	200.9	190.3	190.0	195.8	206.4	227.9	249.5	286.6	311.7	323.0	307.0	280.4	233.3	187.5	154.7	140.8	130.0	125.9	123.2	119.4	116.3	110.5	102.8	95.60	92.19	106.0	108.1	68.28	41.34	30.14	21.32	16.18	14.50	32.82	134.1	365.8	365.5	114.9	6.223	0.905	0.792	0.738	0.748	0.852	0.792	0.750	0.716	0.709	0.664	0.723	0.751	0.808	0.747	0.863	0.973	0.979	1.008	1.103	1.190	1.200	1.349	1.312	1.377	1.543	1.480	1.537	1.500	1.543	1.444	1.378	1.416	1.236	1.105	1.047	1.075
