Sample:	'1
File name:	T2025031414Â³Ì©´óµÀ.FD3
Run date:	'11:16:22, 03/17/2025
Operator:	Administrator
Comment:	'

Instrument
Model:	F-2700 FL Spectrophotometer
Serial number:	23B8-004
ROM Version:	4J14000 07

Instrument parameters
Measurement type:	3-D scan
Data mode:	Fluorescence
EX  Start WL:	220.0 nm
EX  End WL:	600.0 nm
EX Sampling interval:	5.0 nm
EM  Start WL:	230.0 nm
EM  End WL:	650.0 nm
EM Sampling interval:	5.0 nm
Scan speed:	12000 nm/min
EX Slit:	5.0 nm
EM Slit:	5.0 nm
PMT Voltage:	700 V
Response:	Auto 
Corrected spectra:	Off
Contour interval:	50.000

Peak integration
Integration method:	Rectangular
Sensitivity:	1
Threshold:	1.000

Peaks
No.	ApexEX/EM(nm)	Height(Data)
1	225.0/595.0	32.74
2	225.0/615.0	39.94
3	225.0/640.0	46.99
4	230.0/580.0	32.91
5	230.0/630.0	42.50
6	235.0/345.0	2063
7	240.0/265.0	357.4
8	240.0/385.0	1999
9	240.0/400.0	1630
10	240.0/520.0	236.0
11	245.0/270.0	356.4
12	245.0/535.0	207.1
13	250.0/275.0	453.3
14	250.0/550.0	153.6
15	255.0/280.0	528.4
16	255.0/565.0	122.0
17	260.0/290.0	497.7
18	260.0/575.0	99.42
19	265.0/585.0	90.10
20	270.0/600.0	84.87
21	275.0/615.0	101.0
22	280.0/315.0	1525
23	280.0/385.0	2235
24	280.0/405.0	1888
25	280.0/625.0	93.71
26	285.0/320.0	1499
27	285.0/635.0	71.96
28	320.0/360.0	406.2
29	335.0/385.0	718.9
30	335.0/405.0	791.3
31	355.0/385.0	1035
32	355.0/405.0	1105
33	370.0/405.0	1047
34	430.0/505.0	23.43
35	445.0/525.0	14.81
36	475.0/345.0	6.590
37	475.0/565.0	3.793
38	485.0/385.0	7.688
39	490.0/380.0	7.416
40	495.0/270.0	2.159
41	505.0/275.0	2.861
42	515.0/280.0	3.076
43	520.0/285.0	3.765
44	530.0/290.0	3.305
45	545.0/385.0	7.893
46	555.0/305.0	7.551
47	560.0/310.0	7.815
48	570.0/385.0	11.99
49	575.0/315.0	8.408
50	580.0/320.0	8.439
51	585.0/325.0	8.500

Data points
	220.0	225.0	230.0	235.0	240.0	245.0	250.0	255.0	260.0	265.0	270.0	275.0	280.0	285.0	290.0	295.0	300.0	305.0	310.0	315.0	320.0	325.0	330.0	335.0	340.0	345.0	350.0	355.0	360.0	365.0	370.0	375.0	380.0	385.0	390.0	395.0	400.0	405.0	410.0	415.0	420.0	425.0	430.0	435.0	440.0	445.0	450.0	455.0	460.0	465.0	470.0	475.0	480.0	485.0	490.0	495.0	500.0	505.0	510.0	515.0	520.0	525.0	530.0	535.0	540.0	545.0	550.0	555.0	560.0	565.0	570.0	575.0	580.0	585.0	590.0	595.0	600.0
230.0	31.03	495.9	1372	487.4	23.16	5.186	3.904	3.592	2.865	2.827	2.706	2.800	2.323	2.064	1.601	1.417	1.188	1.102	0.962	0.911	0.759	0.758	0.721	0.692	0.584	0.638	0.600	0.637	0.593	0.558	0.523	0.505	0.450	0.379	0.344	0.361	0.297	0.265	0.291	0.275	0.253	0.296	0.302	0.253	0.258	0.218	0.577	2.252	4.485	3.778	1.668	0.418	0.203	0.197	0.187	0.194	0.178	0.189	0.178	0.183	0.203	0.199	0.177	0.193	0.187	0.170	0.190	0.192	0.167	0.196	0.192	0.194	0.190	0.201	0.203	0.184	0.202
235.0	57.19	156.3	945.2	1838	498.3	36.91	5.544	4.046	3.186	2.822	3.053	2.959	2.631	1.993	1.739	1.309	1.310	1.302	0.940	0.829	0.695	0.706	0.748	0.662	0.600	0.598	0.607	0.713	0.528	0.564	0.515	0.517	0.471	0.359	0.328	0.339	0.291	0.251	0.225	0.303	0.239	0.282	0.319	0.308	0.380	0.317	0.328	0.723	1.721	3.580	5.684	6.740	3.658	0.905	0.202	0.209	0.204	0.210	0.221	0.204	0.206	0.198	0.198	0.182	0.191	0.185	0.209	0.175	0.166	0.187	0.176	0.194	0.180	0.185	0.206	0.187	0.234
240.0	86.60	92.28	304.7	1641	2185	402.0	19.48	4.936	4.457	3.117	3.132	3.033	2.800	2.457	1.785	1.422	1.264	1.139	1.058	0.865	0.761	0.771	0.773	0.622	0.665	0.572	0.665	0.706	0.520	0.561	0.583	0.614	0.384	0.401	0.370	0.315	0.343	0.248	0.319	0.280	0.245	0.261	0.254	0.269	0.417	0.469	0.386	0.319	0.570	1.140	2.884	7.914	10.99	7.964	3.432	0.495	0.201	0.215	0.204	0.151	0.190	0.181	0.204	0.198	0.175	0.192	0.183	0.178	0.228	0.189	0.178	0.180	0.226	0.176	0.203	0.169	0.228
245.0	77.90	152.3	126.8	575.9	2399	2295	288.1	10.36	4.894	4.390	3.711	2.815	3.001	2.282	2.190	1.559	1.475	1.206	1.007	0.939	0.904	0.789	0.787	0.627	0.725	0.561	0.640	0.642	0.612	0.576	0.577	0.575	0.348	0.394	0.370	0.302	0.296	0.289	0.339	0.272	0.261	0.259	0.288	0.266	0.374	0.456	0.579	0.511	0.427	0.390	0.855	2.656	6.688	12.61	13.35	7.732	2.304	0.319	0.195	0.174	0.248	0.197	0.194	0.208	0.167	0.168	0.188	0.211	0.194	0.172	0.182	0.167	0.191	0.186	0.206	0.199	0.221
250.0	38.21	114.7	198.6	207.0	774.8	2285	2916	992.8	57.03	6.172	4.914	3.517	3.267	2.613	2.292	1.746	1.528	1.252	1.179	1.049	0.931	0.864	0.825	0.785	0.780	0.592	0.666	0.757	0.609	0.622	0.639	0.595	0.424	0.422	0.405	0.369	0.310	0.320	0.305	0.259	0.292	0.256	0.267	0.250	0.302	0.318	0.393	0.597	0.839	0.686	0.537	0.852	1.734	3.925	7.359	11.55	15.36	14.08	8.244	2.318	0.405	0.216	0.216	0.215	0.159	0.197	0.243	0.200	0.200	0.194	0.206	0.185	0.189	0.205	0.191	0.204	0.201
255.0	25.61	43.32	149.7	288.6	260.9	583.4	2249	4469	1382	56.92	6.091	5.208	4.167	3.593	2.930	1.659	1.643	1.455	1.327	1.042	0.959	0.937	0.801	0.776	0.824	0.759	0.723	0.693	0.639	0.579	0.574	0.629	0.477	0.488	0.415	0.316	0.338	0.335	0.297	0.291	0.324	0.275	0.314	0.236	0.257	0.264	0.255	0.321	0.508	0.609	1.127	1.187	0.851	1.134	1.913	2.859	5.107	12.18	23.51	24.42	12.07	2.672	0.309	0.314	0.199	0.219	0.228	0.200	0.225	0.187	0.210	0.253	0.181	0.215	0.229	0.194	0.216
260.0	28.51	23.18	62.43	254.8	306.4	183.9	673.4	3628	4937	255.1	24.80	6.415	4.798	4.004	2.672	2.156	1.778	1.535	1.319	1.145	1.093	0.935	0.803	0.751	0.736	0.676	0.757	0.671	0.720	0.666	0.535	0.648	0.467	0.406	0.426	0.323	0.331	0.339	0.282	0.335	0.336	0.348	0.347	0.269	0.266	0.293	0.278	0.249	0.338	0.320	0.731	1.383	1.576	1.171	0.754	0.872	1.396	3.207	9.079	20.85	30.26	23.73	9.678	1.441	0.259	0.282	0.213	0.226	0.234	0.216	0.207	0.252	0.249	0.194	0.240	0.209	0.220
265.0	25.24	20.44	28.54	122.3	357.4	227.9	190.1	1208	5126	4802	200.8	13.73	6.661	4.921	3.451	2.328	2.056	1.785	1.390	1.218	1.038	0.881	0.926	0.951	0.837	0.827	0.762	0.738	0.692	0.684	0.636	0.691	0.558	0.460	0.417	0.409	0.372	0.346	0.367	0.307	0.301	0.315	0.385	0.319	0.294	0.312	0.281	0.294	0.265	0.244	0.352	0.739	1.505	2.055	1.372	0.666	0.592	1.037	2.307	6.016	14.89	29.58	31.86	21.12	5.514	0.653	0.262	0.229	0.253	0.231	0.213	0.219	0.232	0.236	0.245	0.226	0.193
270.0	34.40	31.33	30.40	47.73	170.4	356.4	266.2	323.9	1604	4735	5813	783.6	50.19	7.278	4.940	3.276	2.493	2.072	1.685	1.329	1.242	1.096	1.097	0.948	0.936	0.812	0.882	0.792	0.706	0.675	0.686	0.596	0.544	0.482	0.478	0.456	0.412	0.325	0.366	0.293	0.309	0.333	0.342	0.335	0.307	0.309	0.269	0.300	0.260	0.220	0.266	0.355	0.636	1.070	1.635	2.159	1.724	1.089	0.897	1.631	3.641	8.156	15.15	25.89	28.33	30.38	14.57	5.420	0.668	0.310	0.251	0.225	0.247	0.252	0.237	0.249	0.235
275.0	61.16	59.51	50.02	41.71	63.62	165.1	453.3	310.1	402.2	1172	3984	8266	1113	53.12	6.898	4.498	3.430	2.285	2.030	1.687	1.535	1.199	1.045	1.002	1.080	0.883	0.917	0.815	0.816	0.755	0.699	0.596	0.612	0.647	0.534	0.542	0.498	0.414	0.384	0.299	0.375	0.328	0.378	0.327	0.345	0.396	0.360	0.313	0.371	0.306	0.269	0.305	0.424	0.496	0.662	0.958	1.910	2.861	2.100	1.193	1.136	2.117	3.811	6.177	8.036	18.67	39.37	49.99	23.09	5.573	0.563	0.288	0.297	0.291	0.239	0.244	0.238
280.0	90.58	91.06	85.06	57.57	51.69	74.82	282.2	528.4	245.3	319.0	1120	5902	8030	814.7	26.04	6.297	4.230	3.167	2.527	2.064	1.535	1.271	1.125	1.093	1.013	1.066	1.086	0.898	0.909	0.834	0.829	0.755	0.568	0.537	0.545	0.493	0.524	0.439	0.412	0.365	0.424	0.346	0.366	0.437	0.365	0.399	0.375	0.410	0.434	0.360	0.310	0.347	0.369	0.412	0.413	0.540	0.891	1.601	2.995	3.076	1.672	0.987	1.239	1.790	2.203	4.750	12.24	30.52	50.32	32.52	18.88	2.976	0.339	0.308	0.335	0.229	0.320
285.0	110.8	138.0	125.1	76.71	62.44	52.63	122.4	452.0	491.3	184.2	333.3	1754	7299	6848	119.9	12.16	6.142	3.567	2.885	2.141	1.753	1.437	1.297	1.349	1.047	1.008	1.099	0.990	0.963	0.866	0.863	0.759	0.749	0.640	0.601	0.623	0.551	0.442	0.456	0.419	0.418	0.355	0.436	0.458	0.509	0.478	0.509	0.513	0.530	0.481	0.391	0.439	0.411	0.428	0.346	0.400	0.494	0.755	1.489	2.961	3.765	2.421	1.107	0.907	0.990	1.660	3.258	7.894	18.48	35.39	54.55	29.65	13.31	1.261	0.345	0.292	0.345
290.0	142.6	185.0	185.8	118.6	79.36	70.75	88.65	206.6	497.7	474.3	239.4	527.2	2087	5470	6089	1683	34.69	5.470	3.998	2.782	2.231	1.852	1.653	1.509	1.238	1.127	1.128	1.046	0.966	0.921	0.829	0.793	0.787	0.730	0.629	0.608	0.612	0.488	0.484	0.464	0.442	0.450	0.477	0.498	0.515	0.543	0.609	0.726	0.681	0.634	0.522	0.568	0.501	0.478	0.432	0.502	0.472	0.639	0.840	1.239	2.109	2.928	3.305	2.592	1.615	1.156	1.529	2.524	4.875	9.166	18.85	27.93	39.23	37.22	19.83	9.904	1.786
295.0	191.4	243.2	244.0	176.3	125.0	117.2	128.2	169.8	280.5	617.9	707.5	386.1	653.7	1377	3354	7530	687.9	38.82	5.958	3.544	2.932	2.309	1.828	1.623	1.522	1.317	1.167	1.132	0.964	0.916	1.019	0.873	0.840	0.782	0.663	0.690	0.680	0.665	0.524	0.535	0.490	0.448	0.484	0.532	0.581	0.619	0.843	0.848	0.869	0.812	0.697	0.734	0.631	0.772	0.634	0.660	0.696	0.809	1.010	0.921	1.235	1.525	2.193	3.700	4.483	3.261	1.892	1.734	2.122	3.173	5.111	7.084	10.04	15.69	34.61	54.18	31.39
300.0	232.5	295.3	323.4	263.5	200.8	204.7	230.8	287.6	326.3	570.6	1037	765.8	523.4	570.1	1011	4715	5674	552.2	19.63	5.223	3.859	2.623	2.130	1.998	1.791	1.448	1.401	1.311	0.984	0.950	0.939	0.956	0.847	0.712	0.753	0.696	0.682	0.564	0.580	0.448	0.528	0.534	0.624	0.598	0.716	0.748	0.937	1.107	1.096	1.001	0.864	0.966	0.947	1.009	0.986	0.916	1.166	1.226	1.411	1.437	1.733	1.779	2.170	2.795	4.495	5.781	5.267	3.433	2.714	2.633	2.951	3.057	3.627	5.057	10.07	25.05	47.39
305.0	302.3	423.9	460.2	377.9	307.8	329.6	408.8	496.4	604.3	791.7	1132	1450	921.1	650.4	628.9	1531	5470	4842	77.83	10.22	4.813	3.208	2.618	2.344	1.777	1.459	1.413	1.335	1.179	1.063	0.967	1.032	0.959	0.870	0.843	0.723	0.733	0.652	0.669	0.505	0.619	0.622	0.684	0.701	0.813	1.033	1.124	1.387	1.469	1.324	1.162	1.414	1.295	1.236	1.378	1.376	1.740	2.078	2.352	2.438	2.767	2.973	3.420	3.796	4.258	5.321	7.102	7.551	5.849	4.305	3.785	3.395	3.404	3.856	4.474	7.722	15.80
310.0	368.7	564.3	619.0	519.2	434.7	463.2	573.0	684.0	792.0	974.5	1179	1475	1486	989.9	719.0	746.3	1773	4011	4615	1432	25.86	4.759	3.373	2.700	2.211	1.700	1.579	1.632	1.252	1.255	1.082	1.098	1.022	0.858	0.809	0.828	0.761	0.781	0.703	0.741	0.690	0.690	0.759	0.827	0.939	1.169	1.512	1.821	1.969	1.662	1.611	1.766	1.767	1.819	1.826	2.014	2.366	2.886	3.057	3.179	3.474	3.731	4.287	4.864	5.195	5.642	6.281	7.213	7.815	7.620	6.680	5.273	4.370	4.183	3.729	4.329	5.746
315.0	425.3	679.8	783.5	663.0	566.3	567.3	679.8	790.7	902.5	1073	1265	1424	1525	1462	929.8	655.6	797.8	1139	2427	5774	509.4	27.83	4.915	3.479	2.371	2.171	1.936	1.826	1.321	1.280	1.253	1.248	0.947	0.943	0.871	0.863	0.827	0.885	0.632	0.717	0.776	0.773	0.772	0.885	1.093	1.355	1.720	2.219	2.451	2.176	2.030	2.302	2.135	2.154	2.395	2.550	2.863	3.214	3.509	3.468	3.654	3.983	4.773	5.181	5.755	5.717	6.198	6.383	7.069	7.246	8.188	8.408	6.203	5.347	4.214	4.046	4.124
320.0	480.0	812.3	948.2	766.3	643.0	633.9	722.1	833.7	944.0	1115	1299	1461	1465	1499	1236	714.6	617.2	507.7	674.5	3384	5200	435.7	15.07	4.451	3.130	2.517	2.119	1.838	1.545	1.545	1.270	1.294	1.041	1.063	0.917	0.715	0.920	0.901	0.605	0.814	0.751	0.826	0.878	1.045	1.163	1.611	1.838	2.483	2.725	2.638	2.498	2.797	2.678	2.402	2.639	2.854	3.252	3.228	3.812	3.931	4.069	4.214	4.936	5.340	5.685	6.158	6.551	6.604	7.485	6.891	7.141	7.964	8.439	7.467	5.350	4.196	4.021
325.0	581.7	1023	1194	1021	767.7	680.0	759.2	849.8	943.0	1118	1304	1451	1452	1370	1356	876.7	591.8	385.4	262.8	939.6	4075	3748	60.79	8.140	4.172	2.902	2.438	2.005	1.629	1.526	1.375	1.309	1.124	1.086	0.929	0.826	0.783	0.800	0.710	0.881	0.829	0.885	0.879	1.105	1.327	1.967	2.288	3.061	3.406	3.399	3.074	3.280	2.866	2.703	2.688	2.831	3.128	3.438	3.604	3.838	4.418	4.249	4.851	5.481	5.747	5.931	6.499	6.859	7.237	7.285	6.898	6.852	7.296	8.500	6.910	5.371	4.366
330.0	686.9	1252	1649	1485	1074	806.9	765.1	859.8	937.9	1103	1282	1439	1443	1322	1203	1037	730.0	402.0	219.6	305.7	1132	3056	3729	1199	21.22	4.633	3.162	2.488	1.945	1.794	1.552	1.475	1.235	1.148	0.962	0.853	0.845	0.866	0.805	0.785	0.881	0.935	0.980	1.191	1.604	2.115	2.742	3.821	4.375	4.625	4.495	4.803	4.428	3.717	3.307	2.949	3.310	3.500	3.900	3.815	4.104	4.447	4.716	5.371	5.635	6.027	6.174	6.755	7.140	7.267	6.896	6.545	6.831	6.963	6.651	6.445	5.975
335.0	778.1	1428	1936	1918	1518	992.4	814.2	872.3	924.0	1064	1247	1404	1434	1322	1152	950.2	904.9	555.9	272.4	214.4	359.8	775.6	2072	4914	417.7	24.20	4.104	3.285	2.552	2.048	1.761	1.833	1.399	1.092	1.042	0.966	0.837	0.798	0.860	0.803	0.963	0.934	1.126	1.346	1.627	2.355	3.033	4.356	5.093	5.469	5.532	6.361	5.820	5.402	4.115	3.433	3.447	3.757	3.941	4.047	4.305	4.086	4.578	5.019	5.424	5.577	6.015	6.430	7.184	6.732	6.783	6.689	6.721	6.733	6.386	5.606	5.868
340.0	791.0	1464	2018	2059	1620	1066	819.3	852.4	896.4	1021	1182	1318	1358	1274	1101	876.5	817.0	683.1	332.0	212.0	203.0	265.6	577.8	3019	4416	367.9	12.10	4.151	3.336	2.428	2.081	1.882	1.317	1.263	1.033	0.948	1.002	0.807	0.859	0.845	1.014	0.956	1.076	1.196	1.668	2.303	3.014	4.608	5.354	5.909	5.875	6.534	6.349	5.483	4.489	3.572	3.545	3.527	3.710	3.841	4.166	4.137	4.382	5.036	5.207	5.415	5.631	5.968	6.399	6.722	6.572	6.436	6.045	6.286	5.902	5.469	5.083
345.0	771.3	1420	1984	2063	1628	1062	816.5	818.9	872.2	969.5	1106	1225	1263	1191	1030	828.5	689.0	653.9	452.3	232.5	179.4	163.1	205.7	850.9	3621	3162	52.63	6.128	3.665	2.718	2.307	2.068	1.468	1.324	1.253	1.068	1.012	0.837	0.907	0.793	0.935	0.973	1.059	1.152	1.653	2.340	3.059	4.527	5.138	5.791	5.683	6.590	6.207	5.497	4.551	3.692	3.575	3.329	3.654	3.708	3.908	4.205	4.359	4.846	4.819	5.347	5.435	5.765	6.031	6.264	6.203	5.937	5.995	5.816	5.301	5.110	4.879
350.0	723.9	1289	1862	1998	1643	1099	824.7	809.1	838.5	927.7	1038	1130	1152	1096	958.6	785.6	640.7	538.9	494.3	360.8	216.8	165.3	144.6	257.0	1006	2687	3151	986.6	18.43	3.774	2.987	2.344	1.776	1.418	1.175	1.116	0.894	0.912	0.841	0.765	0.934	0.869	1.066	1.155	1.546	2.186	2.780	3.979	5.048	5.162	5.553	6.577	6.301	5.738	4.555	3.752	3.463	3.458	3.668	3.523	3.657	4.007	4.177	4.457	4.681	5.000	5.016	5.097	5.405	5.669	5.783	5.668	5.702	5.411	5.028	4.812	4.690
355.0	618.8	1162	1674	1847	1609	1107	841.7	814.9	844.0	899.6	976.5	1038	1047	1005	896.6	745.1	615.8	499.2	415.9	434.4	324.8	196.1	151.2	144.3	274.4	647.5	1852	4081	384.8	20.34	4.378	3.490	2.206	1.658	1.262	1.156	1.018	0.905	0.932	0.848	0.854	0.848	0.954	0.959	1.338	2.064	2.591	3.573	4.599	4.792	5.088	6.177	6.225	5.646	4.595	4.113	3.703	3.623	3.568	3.694	3.741	4.108	4.167	4.492	4.288	4.470	4.764	4.749	5.092	5.267	5.416	5.134	5.349	4.927	4.828	4.775	4.553
360.0	563.9	1055	1510	1701	1488	1084	857.3	825.2	850.0	888.2	936.3	980.2	985.8	931.0	835.7	708.9	591.3	483.3	391.8	385.6	406.2	255.6	167.1	130.2	126.0	187.7	494.0	2724	3142	326.2	11.62	5.778	2.942	1.904	1.515	1.260	1.004	0.927	0.976	0.795	0.771	0.893	1.023	1.112	1.400	1.812	2.300	3.277	3.883	4.288	4.650	5.687	5.425	5.367	4.498	4.042	3.548	3.780	3.469	3.707	3.651	4.049	4.048	4.346	4.183	4.316	4.530	4.687	4.646	4.731	4.947	4.694	4.826	4.923	4.507	4.332	4.460
365.0	553.8	965.3	1385	1551	1426	1054	853.3	828.1	845.3	893.3	918.5	934.9	928.5	873.9	792.2	679.7	574.1	481.7	395.4	346.6	387.4	346.3	201.7	141.4	109.1	101.1	153.4	781.8	3247	2881	49.22	13.35	5.629	2.715	1.852	1.361	1.166	1.060	0.972	0.824	0.935	0.896	0.998	1.074	1.224	1.647	2.038	2.984	3.430	4.186	4.217	5.408	5.622	5.140	4.259	3.736	3.615	3.550	3.646	3.481	3.540	3.952	4.022	4.204	4.192	4.323	4.506	4.509	4.531	4.495	4.661	4.615	4.527	4.548	4.332	4.125	4.137
370.0	507.8	896.7	1278	1499	1427	1117	888.0	845.6	883.5	925.4	985.5	982.4	1049	922.6	754.1	654.6	569.7	486.1	414.8	363.3	354.1	378.6	331.1	232.3	173.7	154.6	187.4	326.3	1010	2694	3074	931.5	31.53	12.83	3.482	1.912	1.347	1.241	1.018	0.975	0.927	0.994	0.957	0.945	1.218	1.650	2.066	2.839	3.371	3.730	4.150	4.856	5.372	5.059	4.815	4.066	3.730	3.787	3.737	3.723	3.879	4.000	4.285	4.288	4.348	4.650	4.636	4.318	4.746	5.335	5.153	4.672	4.304	4.242	4.262	3.733	3.928
375.0	489.2	860.8	1326	1602	1695	1420	1007	922.0	991.5	1077	1292	1258	1472	1224	771.8	654.9	574.9	507.3	449.5	416.5	405.6	400.7	471.3	463.6	371.7	368.4	429.9	591.0	568.5	990.6	2461	4255	1201	42.09	8.456	3.349	2.186	1.791	1.208	0.985	1.025	0.887	1.107	1.025	1.255	1.700	2.088	2.840	3.402	3.914	4.430	5.637	6.009	6.489	6.267	4.760	4.205	4.113	4.063	3.813	4.371	4.519	4.884	4.809	5.332	6.236	5.979	5.374	6.396	8.339	8.364	5.917	4.833	4.426	4.222	3.778	4.026
380.0	508.6	869.9	1392	1753	1933	1643	1096	979.3	1071	1222	1551	1500	2017	1493	797.1	650.9	583.7	528.4	481.6	458.5	458.5	450.7	528.9	672.5	575.4	553.3	782.1	879.5	665.7	764.7	1458	3511	2912	292.9	17.29	4.768	2.762	2.063	1.502	1.238	1.121	1.107	1.128	1.075	1.342	1.635	2.053	2.891	3.421	4.015	4.780	5.951	6.459	7.266	7.416	5.847	4.808	4.505	4.356	4.244	4.821	4.726	5.194	5.445	6.627	7.541	6.694	6.073	7.708	10.59	11.07	7.054	4.811	4.568	4.064	3.883	4.106
385.0	500.4	870.7	1377	1743	1999	1745	1149	1012	1094	1273	1635	1583	2235	1605	795.5	643.3	576.0	535.9	498.0	483.3	495.5	486.2	554.2	718.9	708.8	665.7	933.4	1035	752.6	779.0	1262	1853	3184	2383	41.73	7.307	3.637	2.368	1.653	1.361	1.162	1.281	1.080	1.168	1.404	1.681	1.998	2.753	3.371	4.011	4.764	6.092	6.703	7.688	7.383	6.330	4.945	4.464	4.380	4.573	4.704	5.223	5.448	5.767	6.858	7.893	7.073	6.741	7.963	11.94	11.99	7.882	5.190	4.450	3.736	3.635	4.134
390.0	444.9	758.5	1205	1537	1726	1538	1081	968.0	1027	1149	1430	1384	1878	1399	758.2	621.7	565.7	525.6	494.8	486.1	496.6	485.6	528.8	623.7	643.6	656.2	818.1	872.1	634.8	636.9	961.0	1076	1119	2166	2260	633.1	14.20	3.423	2.097	1.600	1.253	1.089	1.204	1.188	1.339	1.536	1.953	2.675	2.934	3.561	4.155	5.424	6.008	6.697	6.413	5.538	4.666	4.422	4.339	4.282	4.439	4.957	5.054	5.147	5.945	6.891	6.265	5.862	6.642	9.684	10.18	6.583	4.800	4.241	3.821	3.827	3.607
395.0	419.5	718.9	1131	1430	1594	1466	1050	960.2	1005	1121	1377	1331	1767	1334	749.7	620.3	571.3	543.6	521.5	525.4	537.7	536.5	578.6	653.8	639.7	686.9	878.5	872.8	639.8	628.3	906.4	902.7	506.7	590.9	1478	2785	271.0	14.80	3.073	1.928	1.543	1.284	1.267	1.240	1.262	1.486	1.823	2.728	2.895	3.424	3.760	5.005	5.842	6.322	6.301	5.164	4.668	4.312	4.048	4.245	4.188	4.539	4.859	5.149	5.402	6.673	5.845	5.602	6.528	8.936	9.615	6.027	4.419	4.154	3.680	3.750	3.606
400.0	430.8	733.3	1112	1421	1630	1502	1093	989.4	1034	1149	1441	1393	1867	1398	773.1	643.6	589.9	561.3	555.8	564.8	590.8	603.2	654.9	738.3	720.8	747.5	1005	1022	732.9	715.7	1010	970.5	422.3	243.1	430.6	1972	2187	223.4	7.054	2.580	1.976	1.359	1.436	1.299	1.396	1.560	2.029	2.398	2.997	3.469	3.799	4.752	5.927	6.383	6.340	5.337	4.962	4.463	4.357	4.243	4.168	4.667	5.017	5.019	5.722	6.654	6.340	5.670	6.703	9.731	9.604	6.294	4.858	3.933	3.588	3.530	3.818
405.0	416.6	689.5	1093	1401	1625	1525	1106	1009	1040	1168	1449	1420	1888	1425	795.0	662.1	599.2	578.2	572.4	596.4	622.3	647.3	703.2	791.3	768.2	781.6	1028	1105	802.8	767.1	1047	1012	425.0	182.2	160.7	596.6	2146	1897	35.03	3.812	2.056	1.532	1.569	1.473	1.546	1.573	1.767	2.360	2.904	3.373	3.637	4.694	5.962	6.383	6.393	5.269	4.718	4.423	4.381	4.240	4.183	4.945	5.102	5.121	5.822	6.497	6.123	5.705	6.651	9.211	9.782	6.311	4.680	3.828	3.963	3.797	3.878
410.0	361.2	616.8	937.3	1209	1380	1329	1033	960.1	986.6	1082	1275	1258	1582	1238	766.2	642.6	590.0	564.4	560.1	577.1	603.9	624.3	668.2	734.5	715.0	711.0	860.1	923.6	738.0	672.7	848.0	803.2	361.6	166.9	109.4	182.3	626.0	1616	1757	500.4	10.87	2.013	1.730	1.471	1.425	1.514	1.701	2.266	2.635	2.956	3.494	4.190	4.906	5.409	5.531	4.462	4.581	4.277	3.928	4.019	4.061	4.464	4.450	4.791	5.225	5.715	5.506	5.071	5.879	7.780	7.942	5.575	4.375	3.827	3.732	3.594	3.791
415.0	322.2	564.9	823.9	1020	1175	1132	953.9	906.3	914.3	973.7	1096	1082	1280	1037	709.9	599.8	560.6	533.7	531.1	540.3	563.9	584.2	613.6	655.2	634.1	624.6	702.4	715.2	620.1	587.9	658.2	599.0	296.4	153.7	100.2	91.65	171.2	391.2	1085	2071	244.9	11.54	2.169	1.537	1.457	1.406	1.700	2.088	2.437	2.593	3.050	3.580	4.085	4.480	4.567	4.098	3.910	3.944	3.831	3.719	3.723	4.105	4.069	4.355	4.545	5.195	4.790	4.356	4.815	6.043	6.135	4.694	3.925	3.631	3.446	3.644	3.362
