Sample:	'1
File name:	Default_20230129_094047.FD3
Run date:	'09:34:25, 01/29/2023
Operator:	user
Comment:	'

Instrument
Model:	F-2700 FL Spectrophotometer
Serial number:	2190-003
ROM Version:	4J14000 07

Instrument parameters
Measurement type:	3-D scan
Data mode:	Fluorescence
EX  Start WL:	220.0 nm
EX  End WL:	600.0 nm
EX Sampling interval:	5.0 nm
EM  Start WL:	230.0 nm
EM  End WL:	650.0 nm
EM Sampling interval:	5.0 nm
Scan speed:	12000 nm/min
EX Slit:	5.0 nm
EM Slit:	5.0 nm
PMT Voltage:	700 V
Response:	Auto 
Corrected spectra:	Off
Contour interval:	50.000

Peak integration
Integration method:	Rectangular
Sensitivity:	1
Threshold:	1.000

Peaks
No.	ApexEX/EM(nm)	Height(Data)
1	245.0/265.0	-22.30
2	250.0/270.0	54.64
3	250.0/370.0	719.0
4	250.0/545.0	-84.36
5	255.0/280.0	320.6
6	255.0/555.0	-61.59
7	270.0/295.0	 1868
8	270.0/425.0	239.1
9	270.0/445.0	250.9
10	270.0/590.0	62.97
11	275.0/300.0	 1848
12	275.0/580.0	26.90
13	275.0/605.0	42.81
14	280.0/365.0	286.9
15	280.0/400.0	244.8
16	280.0/415.0	235.9
17	280.0/425.0	231.3
18	285.0/435.0	224.0
19	285.0/625.0	-16.30
20	290.0/320.0	594.5
21	290.0/375.0	263.3
22	290.0/385.0	258.7
23	290.0/640.0	-19.86
24	295.0/395.0	259.2
25	300.0/335.0	364.4
26	305.0/340.0	393.2
27	305.0/400.0	261.4
28	310.0/345.0	348.1
29	310.0/390.0	264.4
30	320.0/360.0	310.9
31	320.0/400.0	251.8
32	325.0/365.0	317.6
33	330.0/370.0	278.7
34	335.0/380.0	281.9
35	335.0/595.0	-14.64
36	340.0/385.0	290.2
37	345.0/390.0	252.3
38	350.0/395.0	244.7
39	355.0/405.0	244.9
40	360.0/410.0	214.2
41	365.0/415.0	211.7
42	370.0/425.0	196.3
43	375.0/430.0	169.2
44	380.0/435.0	156.8
45	385.0/445.0	139.0
46	400.0/465.0	79.45
47	405.0/625.0	-8.204
48	415.0/485.0	40.55
49	420.0/490.0	32.84
50	425.0/495.0	26.69
51	430.0/505.0	19.54
52	440.0/515.0	11.47
53	445.0/525.0	8.938
54	450.0/530.0	6.107
55	455.0/535.0	4.755
56	460.0/545.0	3.071
57	465.0/550.0	1.161
58	495.0/600.0	-5.168
59	510.0/280.0	-5.403
60	540.0/295.0	-3.059
61	545.0/300.0	-2.922
62	550.0/305.0	-3.083
63	575.0/320.0	-5.090
64	580.0/325.0	-5.484

Data points
	220.0	225.0	230.0	235.0	240.0	245.0	250.0	255.0	260.0	265.0	270.0	275.0	280.0	285.0	290.0	295.0	300.0	305.0	310.0	315.0	320.0	325.0	330.0	335.0	340.0	345.0	350.0	355.0	360.0	365.0	370.0	375.0	380.0	385.0	390.0	395.0	400.0	405.0	410.0	415.0	420.0	425.0	430.0	435.0	440.0	445.0	450.0	455.0	460.0	465.0	470.0	475.0	480.0	485.0	490.0	495.0	500.0	505.0	510.0	515.0	520.0	525.0	530.0	535.0	540.0	545.0	550.0	555.0	560.0	565.0	570.0	575.0	580.0	585.0	590.0	595.0	600.0
230.0	-623.3	-462.3	197.9	266.5	-230.4	-226.4	-192.3	-169.5	-156.8	-134.0	-116.9	-102.5	-85.55	-72.59	-57.74	-48.55	-39.98	-34.48	-30.48	-27.13	-24.77	-22.32	-20.35	-18.82	-18.23	-16.74	-15.66	-15.71	-14.86	-14.72	-14.21	-13.46	-12.69	-11.82	-11.21	-9.957	-9.880	-9.667	-9.338	-8.927	-8.613	-8.949	-8.516	-8.509	-8.006	-7.690	-6.887	-6.564	-5.270	-4.421	-5.069	-6.917	-6.382	-6.833	-6.525	-6.753	-7.106	-7.193	-7.143	-6.993	-7.118	-7.058	-7.081	-7.374	-7.272	-7.319	-7.415	-7.499	-7.690	-7.597	-7.483	-7.535	-7.568	-7.482	-7.738	-8.030	-8.337
235.0	-598.6	-493.2	-161.6	823.0	673.5	-151.3	-197.0	-170.1	-151.6	-128.8	-118.1	-106.5	-91.73	-74.77	-55.46	-45.75	-41.75	-33.15	-30.34	-28.47	-24.91	-22.90	-20.28	-20.31	-17.66	-16.49	-15.86	-15.88	-15.37	-14.61	-14.46	-12.79	-12.76	-11.30	-11.33	-9.532	-9.792	-9.736	-9.358	-9.127	-9.187	-8.833	-8.544	-8.654	-8.357	-8.067	-6.987	-6.834	-6.302	-4.448	-3.633	-4.277	-5.424	-6.567	-6.918	-6.563	-7.107	-7.120	-7.190	-6.958	-6.694	-7.381	-6.965	-7.107	-7.528	-7.299	-7.534	-7.383	-7.508	-7.348	-7.159	-7.196	-7.654	-7.206	-7.896	-7.667	-7.797
240.0	-603.2	-510.0	-361.7	294.4	 1673	681.0	-153.0	-169.2	-146.6	-130.1	-120.4	-109.8	-82.26	-70.94	-55.89	-47.21	-41.21	-33.99	-30.25	-26.99	-26.00	-23.11	-22.04	-19.86	-17.44	-16.94	-16.94	-15.84	-14.80	-15.73	-13.36	-13.91	-12.25	-11.66	-11.42	-10.12	-9.638	-9.740	-8.991	-8.819	-9.372	-8.810	-9.049	-8.369	-7.870	-8.049	-7.349	-7.092	-6.228	-5.337	-4.470	-3.673	-2.412	-4.021	-5.888	-6.972	-7.132	-6.803	-6.702	-6.879	-7.006	-6.932	-7.143	-7.191	-7.209	-7.474	-7.180	-7.418	-7.644	-7.650	-7.382	-7.377	-7.219	-7.102	-7.898	-7.851	-8.179
245.0	-601.9	-496.2	-397.4	-157.2	891.6	 2129	533.7	-156.0	-150.5	-132.4	-116.3	-101.8	-84.55	-73.33	-57.35	-50.40	-40.63	-34.98	-30.93	-26.58	-24.18	-23.57	-20.76	-19.78	-17.64	-16.70	-15.96	-15.62	-14.33	-14.34	-14.12	-12.88	-13.07	-11.77	-11.52	-9.989	-9.517	-9.599	-9.357	-8.677	-8.999	-8.966	-9.078	-8.676	-8.114	-7.655	-7.066	-7.144	-6.696	-5.518	-5.246	-5.741	-4.561	-2.475	-2.053	-4.324	-7.006	-7.014	-6.598	-7.114	-6.410	-6.611	-7.615	-7.331	-6.898	-7.239	-7.462	-7.345	-7.779	-7.423	-7.526	-7.247	-7.209	-7.246	-7.971	-7.784	-8.010
250.0	-617.7	-515.0	-346.8	-253.4	19.06	 1064	 1983	 1001	24.44	-126.6	-118.7	-101.3	-84.06	-70.65	-54.43	-49.41	-39.45	-34.44	-30.32	-27.35	-23.51	-22.81	-20.71	-19.65	-17.06	-16.64	-16.05	-15.31	-15.25	-14.83	-14.21	-13.28	-13.09	-12.29	-10.37	-9.881	-10.08	-9.393	-9.328	-9.181	-8.728	-9.016	-8.903	-8.469	-8.017	-7.662	-6.563	-7.289	-6.027	-5.372	-5.404	-6.360	-6.149	-5.464	-3.929	-2.304	-1.814	-2.700	-4.428	-6.723	-6.895	-7.043	-7.502	-7.493	-7.245	-7.250	-7.162	-7.496	-7.383	-7.385	-7.364	-7.547	-7.600	-7.428	-7.702	-8.059	-8.220
255.0	-599.7	-545.9	-371.8	-174.9	-116.3	65.57	660.5	 2876	 1484	67.08	-114.5	-95.14	-82.22	-67.21	-59.16	-49.11	-38.14	-35.04	-29.30	-26.93	-24.81	-21.28	-20.46	-18.79	-17.49	-15.86	-16.18	-15.11	-15.91	-15.46	-14.06	-13.03	-12.86	-11.59	-10.94	-10.09	-10.22	-10.01	-9.354	-9.227	-8.681	-8.782	-8.655	-8.503	-8.102	-7.693	-6.721	-7.004	-6.494	-5.623	-5.478	-5.855	-6.603	-6.417	-6.040	-5.727	-5.376	-2.122	2.157	1.427	-3.773	-7.138	-7.099	-7.333	-7.046	-7.385	-7.212	-7.701	-7.590	-7.194	-7.370	-8.038	-7.359	-7.717	-7.229	-8.232	-8.021
260.0	-559.9	-536.9	-400.9	-249.0	-75.11	-114.5	25.21	 1247	 3699	 1261	-22.33	-92.46	-82.81	-69.74	-61.34	-46.65	-40.08	-35.59	-30.32	-25.19	-24.70	-23.70	-20.06	-18.95	-17.55	-16.99	-16.43	-15.58	-15.88	-15.11	-14.14	-12.58	-12.66	-11.58	-11.35	-9.937	-10.35	-10.06	-9.298	-8.821	-8.478	-8.773	-8.700	-8.656	-8.071	-7.887	-7.094	-6.997	-6.497	-5.464	-5.523	-6.113	-6.104	-6.214	-6.163	-6.427	-7.019	-5.667	-2.782	1.486	4.261	0.237	-4.687	-7.143	-7.095	-7.357	-6.886	-7.387	-7.346	-7.600	-7.324	-7.591	-7.574	-7.660	-7.504	-7.367	-8.146
265.0	-581.1	-493.9	-419.6	-301.3	-106.5	-22.30	-115.0	198.5	 1906	 4469	 1005	-55.41	-81.71	-70.16	-56.07	-44.31	-38.15	-35.83	-31.22	-23.86	-25.23	-22.63	-21.78	-19.37	-18.25	-17.40	-15.82	-15.64	-16.05	-15.06	-13.98	-13.45	-12.73	-12.12	-11.43	-9.807	-10.18	-9.755	-9.631	-9.094	-8.638	-8.502	-8.267	-8.734	-7.896	-8.005	-7.241	-6.936	-6.380	-5.746	-5.375	-6.470	-5.825	-6.162	-6.236	-6.697	-7.437	-6.904	-6.002	-4.539	-0.621	4.259	5.319	-1.534	-6.578	-7.163	-7.532	-7.498	-7.958	-7.688	-7.154	-7.507	-7.666	-7.366	-7.937	-7.518	-7.892
270.0	-594.6	-514.3	-420.3	-325.7	-218.9	-24.30	54.64	-27.27	365.1	 1959	 4371	 3031	197.8	-64.72	-53.92	-46.26	-37.97	-34.09	-28.77	-25.82	-24.54	-21.76	-21.29	-19.28	-17.98	-17.06	-15.84	-15.44	-14.82	-15.10	-14.13	-13.48	-12.87	-11.78	-11.07	-9.858	-9.665	-9.581	-9.460	-9.287	-8.529	-8.997	-8.447	-8.105	-8.173	-7.557	-6.621	-7.185	-6.065	-5.452	-5.500	-6.616	-6.088	-6.598	-6.149	-6.247	-6.805	-6.918	-6.716	-6.471	-5.491	-3.392	-0.498	3.310	3.996	2.147	-3.098	-6.626	-7.437	-7.495	-7.740	-7.583	-7.885	-7.532	-7.728	-7.962	-8.160
275.0	-638.7	-477.7	-402.5	-315.2	-263.1	-166.2	39.94	196.6	76.80	438.9	 1447	 5284	 4833	238.6	-49.09	-43.14	-37.26	-34.13	-29.94	-25.77	-22.43	-20.30	-20.92	-18.70	-17.70	-16.71	-15.84	-15.67	-15.20	-15.50	-14.01	-13.06	-13.27	-11.81	-11.35	-10.18	-10.24	-10.36	-8.981	-9.506	-9.106	-8.829	-8.358	-8.247	-8.214	-7.721	-6.702	-6.820	-6.628	-5.436	-5.470	-6.353	-6.485	-6.947	-6.885	-6.759	-6.128	-5.721	-6.147	-6.714	-6.668	-5.897	-5.528	-4.954	-2.504	3.139	11.68	9.878	-1.909	-7.154	-7.480	-7.434	-7.641	-7.978	-7.690	-7.984	-7.972
280.0	-583.7	-444.3	-357.2	-309.0	-242.8	-178.0	-54.42	320.6	312.8	305.3	624.9	 2282	 6943	 3802	63.76	-40.65	-37.57	-34.49	-28.11	-26.84	-23.12	-21.78	-19.44	-19.57	-17.76	-16.03	-15.37	-15.30	-14.96	-14.60	-13.56	-13.16	-13.01	-11.15	-10.80	-10.03	-10.13	-10.09	-9.211	-8.666	-9.246	-7.983	-8.687	-8.274	-7.708	-7.728	-7.264	-6.860	-6.008	-5.336	-5.727	-6.438	-6.171	-6.518	-6.400	-6.994	-6.511	-6.618	-5.403	-5.476	-6.363	-6.437	-6.261	-6.147	-5.543	-3.714	1.726	10.39	13.74	4.484	-5.267	-7.325	-7.613	-7.699	-7.893	-8.136	-8.074
285.0	-594.5	-444.2	-332.5	-305.1	-231.2	-161.6	-55.19	240.1	689.2	616.2	714.5	 1074	 3302	 7356	602.3	-4.565	-34.99	-31.59	-29.60	-25.35	-23.75	-21.87	-21.05	-19.09	-16.87	-16.88	-15.87	-15.62	-15.13	-15.12	-13.85	-12.97	-12.47	-11.19	-11.08	-10.23	-10.12	-9.801	-8.703	-9.040	-8.874	-8.171	-8.449	-8.184	-8.077	-7.512	-6.918	-6.857	-6.131	-5.483	-5.488	-6.581	-6.072	-6.876	-6.410	-6.553	-6.856	-7.200	-5.907	-4.872	-4.654	-5.883	-5.983	-5.950	-5.610	-5.525	-3.938	-1.339	6.277	14.63	10.84	-0.423	-6.355	-7.210	-7.755	-8.188	-7.956
290.0	-566.7	-418.3	-341.5	-279.3	-207.6	-130.5	-15.77	223.0	663.8	 1208	 1182	 1125	 1287	 2969	 5116	 2324	128.2	-29.27	-26.79	-25.68	-23.38	-21.49	-20.02	-19.29	-17.65	-16.73	-15.55	-15.62	-15.46	-14.37	-13.76	-13.37	-12.52	-11.52	-11.14	-10.14	-9.765	-9.981	-9.079	-9.245	-8.717	-8.859	-8.744	-8.164	-7.986	-7.919	-6.849	-6.994	-6.051	-5.397	-5.542	-6.265	-6.460	-6.409	-6.307	-6.319	-6.713	-6.609	-6.484	-5.536	-5.036	-4.710	-4.029	-4.526	-4.295	-4.800	-4.706	-4.358	-3.378	-0.262	3.854	8.691	8.888	4.766	-3.166	-7.102	-7.752
295.0	-547.6	-423.2	-353.8	-252.4	-180.5	-121.1	42.23	263.5	646.2	 1223	 1868	 1468	940.4	824.2	 1491	 5034	 3403	175.8	-24.05	-23.38	-21.51	-20.74	-19.87	-18.16	-18.08	-15.75	-15.04	-14.89	-15.15	-15.10	-13.05	-12.40	-11.78	-11.48	-10.62	-9.910	-10.12	-9.650	-9.062	-8.873	-9.259	-9.097	-8.621	-8.075	-8.128	-7.801	-6.658	-7.092	-6.469	-5.197	-5.612	-6.266	-6.300	-6.488	-6.471	-6.493	-6.827	-6.212	-5.751	-5.430	-4.972	-4.822	-3.906	-3.177	-3.059	-3.888	-5.026	-4.536	-5.250	-5.642	-4.398	-3.444	-1.657	7.645	16.41	10.63	-2.065
300.0	-569.7	-485.1	-343.1	-266.4	-174.2	-94.65	70.45	295.0	647.9	 1118	 1741	 1848	950.3	366.4	387.7	 1811	 6171	 2671	81.60	-23.03	-22.99	-19.99	-19.55	-18.03	-16.63	-15.11	-15.12	-14.66	-14.92	-14.13	-13.14	-12.85	-11.76	-11.22	-10.34	-10.53	-9.709	-9.338	-9.742	-8.482	-8.785	-8.846	-8.174	-8.012	-8.177	-7.724	-6.818	-7.017	-6.113	-5.225	-5.453	-6.316	-5.877	-6.215	-6.588	-6.561	-6.339	-6.080	-5.628	-5.677	-4.519	-5.091	-4.371	-3.960	-3.183	-2.922	-3.621	-4.773	-5.832	-6.503	-6.342	-6.686	-6.222	-3.390	3.429	16.18	18.58
305.0	-630.3	-435.3	-311.9	-219.8	-152.3	-72.74	70.37	301.3	622.8	 1017	 1490	 1817	 1186	319.6	159.0	455.9	 2702	 6497	 1882	11.83	-21.52	-19.17	-19.37	-18.15	-16.79	-16.29	-15.41	-15.77	-15.49	-14.39	-13.60	-13.20	-12.46	-11.31	-11.13	-9.887	-9.279	-9.807	-9.602	-9.102	-8.732	-9.085	-8.345	-8.384	-8.151	-7.829	-6.500	-7.305	-6.256	-5.137	-5.528	-5.981	-5.662	-6.182	-6.084	-6.740	-5.832	-6.332	-5.479	-5.574	-5.087	-5.432	-4.226	-4.297	-3.720	-3.213	-3.083	-4.238	-5.974	-6.492	-6.574	-7.257	-7.029	-6.369	-4.631	-0.007	9.943
310.0	-605.5	-456.6	-329.4	-227.1	-146.0	-67.39	57.47	261.7	548.9	899.7	 1215	 1337	 1181	573.5	172.8	153.7	651.0	 2625	 4947	 2615	101.9	-17.58	-18.24	-16.84	-16.37	-15.68	-15.14	-14.53	-14.71	-14.49	-13.63	-13.20	-12.46	-11.56	-10.93	-9.948	-9.589	-9.499	-9.169	-8.862	-9.192	-9.240	-8.571	-8.417	-7.884	-7.751	-6.765	-6.976	-6.267	-5.081	-5.361	-6.191	-6.148	-6.414	-6.086	-6.482	-6.395	-6.227	-5.833	-5.717	-5.600	-5.341	-4.848	-4.489	-4.220	-4.204	-4.077	-4.283	-5.053	-5.777	-6.615	-7.236	-6.797	-6.893	-6.850	-5.872	-3.308
315.0	-573.1	-453.0	-307.5	-205.0	-141.5	-70.33	33.16	251.3	424.6	722.8	972.7	974.4	793.3	705.7	394.7	111.4	186.7	605.6	 1442	 4791	 4837	135.5	-16.42	-16.40	-15.58	-15.79	-14.80	-14.37	-14.80	-13.27	-12.88	-13.24	-11.87	-11.07	-10.64	-10.04	-9.583	-9.567	-9.159	-8.675	-9.305	-8.925	-8.188	-8.491	-8.139	-8.178	-6.864	-7.012	-6.367	-5.291	-5.332	-6.073	-5.820	-6.475	-6.260	-6.592	-6.249	-6.183	-5.951	-6.017	-5.567	-5.217	-5.252	-5.005	-4.643	-4.697	-5.093	-5.824	-6.031	-5.439	-5.586	-6.259	-7.100	-7.091	-7.534	-7.905	-6.657
320.0	-600.5	-451.7	-303.4	-207.0	-119.7	-70.58	40.03	183.2	356.9	585.7	802.7	811.0	617.3	507.1	594.5	222.6	93.57	165.0	338.7	 1787	 6849	 1857	67.95	-15.58	-16.10	-16.09	-14.38	-13.94	-14.34	-13.43	-13.48	-12.81	-12.12	-11.19	-10.59	-10.36	-9.792	-9.921	-9.201	-8.790	-9.090	-9.077	-8.370	-8.378	-7.892	-7.607	-6.811	-7.065	-6.227	-5.201	-5.325	-6.414	-6.147	-6.342	-6.202	-6.572	-6.519	-6.432	-6.293	-5.817	-5.732	-5.902	-5.889	-4.990	-5.126	-5.453	-5.314	-5.739	-6.285	-6.425	-5.923	-5.090	-6.439	-6.737	-7.398	-7.727	-7.499
325.0	-664.0	-464.3	-306.5	-186.6	-94.22	-47.68	39.15	155.8	310.4	494.7	678.1	692.0	524.6	362.3	496.2	432.7	122.7	73.87	99.12	423.0	 3020	 5501	 1412	17.62	-15.18	-14.40	-15.15	-14.02	-13.91	-13.73	-13.49	-11.96	-12.43	-11.36	-9.959	-9.746	-9.930	-10.15	-9.180	-9.440	-8.764	-9.111	-8.798	-8.083	-7.842	-8.017	-6.997	-6.839	-6.011	-5.430	-5.232	-6.470	-6.165	-6.323	-5.595	-6.640	-6.473	-6.444	-6.173	-5.953	-5.589	-6.127	-5.832	-5.328	-5.547	-5.336	-5.705	-6.065	-6.056	-6.704	-5.996	-6.089	-5.484	-5.812	-6.777	-7.406	-7.405
330.0	-629.5	-447.1	-257.0	-143.9	-31.35	55.40	121.1	192.0	300.1	434.9	562.1	558.3	450.7	317.2	313.4	415.6	330.3	115.2	59.39	115.8	715.1	 2343	 4340	 2209	72.16	-11.92	-14.22	-13.96	-13.97	-14.29	-12.81	-12.47	-12.01	-11.58	-10.53	-9.626	-9.183	-9.703	-9.160	-8.897	-8.764	-8.765	-8.768	-8.067	-7.870	-8.082	-7.188	-6.591	-6.078	-5.413	-5.188	-6.188	-5.925	-6.440	-5.701	-6.318	-6.292	-6.234	-6.383	-6.414	-5.781	-5.776	-5.786	-5.675	-5.781	-5.896	-5.674	-5.888	-6.335	-6.707	-6.694	-6.453	-6.504	-6.214	-6.256	-6.774	-7.227
335.0	-540.5	-430.9	-192.7	-23.20	94.13	197.5	237.7	292.0	332.1	439.5	489.8	459.8	401.9	313.9	267.1	246.6	364.4	319.7	91.11	68.31	184.0	540.0	 1352	 4468	 3448	108.9	-11.36	-12.77	-13.18	-14.44	-13.11	-11.64	-12.30	-11.29	-11.03	-10.38	-9.371	-10.12	-9.317	-8.773	-8.355	-8.892	-9.209	-7.915	-7.888	-7.807	-6.813	-6.769	-6.250	-5.300	-5.392	-6.257	-5.680	-5.865	-5.677	-5.913	-6.312	-5.490	-6.640	-6.143	-6.281	-6.541	-6.303	-5.881	-6.485	-6.480	-5.763	-6.343	-6.693	-6.892	-6.443	-6.486	-6.989	-6.842	-7.176	-6.763	-6.467
340.0	-591.8	-392.5	-177.3	33.55	198.6	318.7	372.1	346.6	380.5	430.3	426.9	409.4	370.8	309.7	254.6	206.3	243.2	393.2	218.5	70.58	75.45	144.0	316.7	 1748	 5328	 1461	61.42	-11.67	-12.48	-12.23	-12.87	-11.86	-11.46	-11.54	-11.07	-10.15	-9.417	-9.403	-9.031	-9.021	-8.983	-8.554	-8.868	-8.189	-8.071	-7.896	-6.812	-6.570	-5.962	-5.442	-5.038	-5.651	-5.480	-6.254	-5.439	-5.284	-5.828	-5.514	-5.919	-5.897	-6.570	-6.084	-6.172	-5.965	-5.948	-6.251	-6.459	-6.394	-6.686	-6.371	-6.903	-6.726	-6.821	-6.727	-7.429	-7.314	-6.765
345.0	-595.5	-421.3	-133.2	102.9	309.1	392.1	464.1	419.8	403.6	423.3	408.5	396.2	342.6	309.2	261.8	208.1	188.6	285.4	348.1	129.1	66.09	64.97	93.48	418.9	 2547	 5083	 1161	15.86	-11.85	-12.40	-12.25	-12.89	-11.89	-10.85	-11.08	-9.345	-9.690	-10.09	-9.015	-8.783	-9.265	-8.546	-9.027	-8.569	-7.884	-8.000	-6.889	-6.213	-5.716	-4.900	-4.628	-5.663	-5.638	-5.366	-5.184	-5.193	-5.642	-5.598	-5.934	-5.845	-6.202	-6.281	-6.301	-6.105	-5.877	-6.210	-6.156	-6.438	-6.677	-6.417	-7.066	-6.621	-6.915	-6.460	-7.322	-7.406	-7.225
350.0	-565.6	-426.2	-116.2	169.5	412.2	525.2	576.3	507.3	451.4	427.7	375.0	332.6	312.6	297.7	263.8	215.9	188.2	198.1	286.8	285.6	139.3	66.86	57.55	118.2	616.4	 2295	 3941	 2049	63.73	-10.90	-12.67	-11.76	-11.67	-10.98	-10.47	-9.882	-9.592	-9.614	-9.118	-8.711	-8.490	-8.579	-8.772	-8.292	-8.054	-7.968	-6.701	-6.336	-5.594	-4.426	-4.629	-5.661	-4.939	-5.548	-5.133	-5.126	-5.397	-5.686	-5.326	-5.659	-5.611	-5.682	-6.021	-6.053	-6.286	-6.304	-6.418	-6.430	-6.567	-6.594	-6.628	-6.760	-6.687	-6.638	-7.212	-7.217	-7.475
355.0	-567.2	-406.5	-135.7	214.9	478.6	622.8	669.3	570.5	471.4	423.9	334.1	298.6	286.9	277.1	263.2	229.4	200.8	194.0	205.7	260.1	281.2	120.9	73.80	68.63	165.6	530.2	 1283	 4281	 2999	90.56	-10.50	-10.38	-10.82	-11.29	-9.907	-9.266	-9.700	-9.326	-8.410	-8.759	-8.734	-8.476	-9.015	-8.162	-7.655	-7.423	-6.339	-6.368	-5.601	-4.658	-4.288	-4.982	-4.855	-5.343	-4.880	-5.027	-5.316	-5.412	-5.139	-6.000	-5.652	-5.892	-5.455	-5.618	-5.826	-6.516	-6.366	-6.181	-6.792	-6.206	-6.545	-6.683	-6.662	-6.599	-6.956	-6.884	-7.436
360.0	-569.4	-404.6	-89.98	244.7	506.9	679.0	695.9	577.8	521.6	434.7	356.7	292.7	281.7	265.8	264.5	234.5	210.5	202.2	188.4	206.4	310.9	229.2	99.56	71.83	76.26	145.8	306.3	 1782	 4914	 1251	46.71	-9.758	-10.56	-10.96	-9.929	-9.363	-9.327	-8.975	-8.536	-8.867	-8.580	-8.614	-8.570	-8.161	-7.538	-7.576	-6.642	-6.623	-5.623	-4.913	-4.431	-5.278	-5.236	-4.656	-4.708	-4.907	-5.867	-5.149	-5.340	-6.100	-5.478	-5.761	-5.812	-6.107	-5.921	-6.326	-6.254	-6.478	-6.759	-6.560	-6.664	-6.070	-6.295	-6.738	-7.277	-7.178	-7.798
365.0	-599.4	-408.7	-106.8	236.5	514.1	702.3	698.1	611.4	518.3	438.3	330.9	271.5	286.9	262.5	259.6	237.5	233.8	213.6	204.8	191.2	248.5	317.6	172.8	91.32	70.22	70.73	93.38	431.7	 2478	 4707	996.7	9.082	-10.15	-10.72	-9.821	-9.231	-9.209	-8.521	-8.807	-8.983	-8.105	-8.418	-8.388	-7.897	-7.481	-7.912	-7.030	-6.503	-5.599	-4.814	-4.242	-5.239	-4.778	-5.017	-4.799	-5.026	-5.632	-5.422	-5.447	-6.063	-5.330	-5.097	-5.626	-5.898	-5.997	-6.335	-6.448	-6.752	-6.831	-6.857	-6.781	-6.581	-6.831	-6.794	-7.186	-7.516	-7.089
370.0	-580.0	-398.5	-151.0	195.2	475.2	705.9	719.0	603.5	491.4	419.4	315.2	277.8	269.4	262.7	255.5	250.8	236.2	229.1	214.1	208.9	208.6	256.5	278.7	164.4	91.64	70.19	59.35	120.6	603.5	 2243	 3830	 1802	47.64	-9.137	-9.568	-8.788	-9.035	-8.904	-8.670	-8.687	-8.418	-8.588	-8.722	-7.973	-7.642	-7.663	-7.036	-6.674	-5.630	-4.707	-4.526	-5.335	-4.756	-5.011	-4.542	-5.085	-5.205	-5.262	-5.585	-5.942	-6.010	-5.387	-6.123	-6.090	-6.720	-6.665	-6.306	-6.589	-6.742	-6.758	-6.723	-6.787	-6.447	-6.520	-7.109	-7.117	-7.200
375.0	-629.7	-409.5	-138.5	189.3	473.1	637.0	673.1	551.0	494.7	379.0	306.1	261.2	251.6	248.2	263.3	260.5	248.6	240.9	234.6	223.5	217.9	208.0	249.6	281.8	151.4	92.51	68.07	65.86	160.1	515.7	 1347	 4145	 1121	63.20	-7.597	-9.461	-9.087	-9.058	-8.899	-9.082	-8.097	-8.184	-8.157	-7.858	-7.650	-8.058	-6.915	-6.264	-5.706	-4.597	-4.704	-4.848	-5.254	-4.768	-4.852	-4.752	-4.939	-5.457	-5.847	-6.023	-6.111	-5.596	-6.096	-6.305	-6.808	-6.777	-5.981	-6.411	-6.312	-7.252	-6.804	-6.718	-6.236	-6.630	-6.775	-7.253	-6.782
380.0	-570.7	-417.2	-165.4	162.2	447.5	573.5	651.5	520.3	450.4	374.1	293.1	248.8	252.2	252.7	254.5	259.8	251.2	243.7	243.4	231.5	236.0	210.1	215.9	281.9	241.1	120.1	83.35	63.61	69.28	136.9	319.7	 1871	 4226	974.3	27.82	-7.829	-7.770	-8.896	-8.448	-8.275	-8.333	-8.250	-8.322	-8.239	-7.649	-7.970	-7.224	-6.439	-5.431	-4.706	-4.406	-4.788	-4.960	-5.040	-4.472	-5.023	-5.454	-5.704	-6.004	-5.992	-6.161	-5.483	-6.241	-6.343	-6.797	-6.362	-6.725	-6.544	-6.557	-6.771	-6.568	-6.427	-6.676	-6.832	-7.141	-7.208	-6.998
385.0	-575.6	-400.1	-180.6	131.4	416.6	550.1	589.5	496.3	400.2	371.2	276.3	249.9	251.7	244.6	258.7	249.9	248.5	246.2	252.9	240.8	241.6	213.9	202.5	232.1	290.2	182.6	98.98	75.65	59.81	60.27	89.74	461.6	 2463	 4008	720.0	0.104	-7.875	-8.341	-8.288	-8.450	-8.865	-8.145	-8.052	-8.533	-8.179	-7.930	-6.621	-6.425	-5.343	-4.903	-4.987	-5.052	-5.153	-5.453	-5.113	-5.293	-5.328	-5.768	-6.197	-5.698	-5.761	-5.947	-6.190	-6.448	-6.247	-6.534	-6.359	-6.874	-7.199	-6.795	-7.017	-6.369	-6.874	-6.679	-7.149	-7.533	-7.194
