Sample:	'1
File name:	3ºÅ4±¶.FD3
Run date:	'14:50:06, 05/15/2024
Operator:	horiz
Comment:	'

Instrument
Model:	F-2700 FL Spectrophotometer
Serial number:	23B8-004
ROM Version:	4J14000 07

Instrument parameters
Measurement type:	3-D scan
Data mode:	Fluorescence
EX  Start WL:	220.0 nm
EX  End WL:	600.0 nm
EX Sampling interval:	5.0 nm
EM  Start WL:	230.0 nm
EM  End WL:	650.0 nm
EM Sampling interval:	5.0 nm
Scan speed:	12000 nm/min
EX Slit:	5.0 nm
EM Slit:	5.0 nm
PMT Voltage:	700 V
Response:	Auto 
Corrected spectra:	Off
Contour interval:	50.000

Peak integration
Integration method:	Rectangular
Sensitivity:	1
Threshold:	1.000

Peaks
No.	ApexEX/EM(nm)	Height(Data)
1	230.0/340.0	1184
2	245.0/535.0	-20.30
3	250.0/545.0	-3.163
4	255.0/280.0	598.8
5	255.0/560.0	20.09
6	260.0/285.0	722.0
7	260.0/440.0	299.9
8	260.0/570.0	21.67
9	265.0/585.0	49.58
10	270.0/300.0	1458
11	270.0/600.0	50.47
12	275.0/305.0	1734
13	275.0/335.0	1592
14	275.0/610.0	48.12
15	280.0/310.0	1539
16	280.0/625.0	37.90
17	285.0/315.0	1395
18	285.0/635.0	24.33
19	310.0/350.0	447.0
20	315.0/355.0	400.9
21	320.0/360.0	381.2
22	325.0/370.0	345.9
23	330.0/375.0	341.3
24	335.0/380.0	347.2
25	340.0/390.0	303.4
26	345.0/395.0	280.4
27	350.0/400.0	275.2
28	360.0/415.0	227.0
29	365.0/420.0	225.6
30	375.0/435.0	176.6
31	380.0/440.0	168.3
32	400.0/465.0	91.97
33	415.0/485.0	49.14
34	430.0/505.0	25.76
35	435.0/510.0	20.00
36	445.0/525.0	12.24
37	450.0/530.0	8.950
38	460.0/545.0	3.258
39	465.0/340.0	-2.477
40	465.0/550.0	1.647
41	495.0/270.0	-6.894
42	505.0/275.0	-6.408
43	515.0/280.0	-5.644
44	520.0/285.0	-5.017
45	530.0/290.0	-4.966
46	540.0/295.0	-2.902
47	545.0/300.0	-2.362
48	555.0/305.0	-2.321
49	560.0/310.0	-2.931
50	565.0/335.0	-3.064
51	570.0/315.0	-3.567
52	580.0/320.0	-3.458

Wavelength data
No.	EX/EM(nm)	Height(Data)	

Data points
	220.0	225.0	230.0	235.0	240.0	245.0	250.0	255.0	260.0	265.0	270.0	275.0	280.0	285.0	290.0	295.0	300.0	305.0	310.0	315.0	320.0	325.0	330.0	335.0	340.0	345.0	350.0	355.0	360.0	365.0	370.0	375.0	380.0	385.0	390.0	395.0	400.0	405.0	410.0	415.0	420.0	425.0	430.0	435.0	440.0	445.0	450.0	455.0	460.0	465.0	470.0	475.0	480.0	485.0	490.0	495.0	500.0	505.0	510.0	515.0	520.0	525.0	530.0	535.0	540.0	545.0	550.0	555.0	560.0	565.0	570.0	575.0	580.0	585.0	590.0	595.0	600.0
230.0	-773.8	496.1	3280	1152	-140.5	-158.4	-132.3	-110.6	-94.51	-83.05	-73.63	-64.42	-55.26	-47.36	-39.81	-34.44	-30.03	-26.91	-24.24	-22.10	-20.53	-19.23	-18.10	-16.96	-16.18	-15.62	-15.38	-14.99	-14.85	-14.60	-14.13	-13.58	-12.81	-12.34	-11.51	-11.05	-10.96	-11.03	-10.76	-10.67	-10.38	-10.43	-10.30	-10.12	-9.876	-9.702	-7.757	-2.245	4.958	3.127	-3.077	-7.793	-8.695	-8.782	-8.914	-8.917	-9.642	-9.665	-9.836	-9.859	-9.935	-9.950	-10.11	-10.24	-10.27	-10.32	-10.35	-10.47	-10.57	-10.68	-10.80	-10.83	-10.93	-10.98	-11.07	-11.27	-11.50
235.0	-732.0	-303.3	1396	3662	462.3	-21.42	-129.8	-109.6	-92.22	-82.12	-72.57	-63.66	-54.58	-46.80	-39.20	-33.88	-29.78	-26.90	-23.84	-22.05	-20.69	-19.27	-18.01	-17.07	-16.26	-15.51	-15.15	-15.16	-14.97	-14.53	-14.11	-13.51	-12.93	-12.31	-11.51	-11.07	-11.04	-11.04	-10.53	-10.62	-10.47	-10.51	-10.28	-10.09	-9.840	-9.723	-8.584	-7.373	-4.045	0.592	6.103	7.209	-0.371	-6.952	-8.763	-8.909	-9.575	-9.714	-9.858	-9.817	-9.956	-9.944	-10.11	-10.22	-10.23	-10.24	-10.39	-10.43	-10.56	-10.70	-10.81	-10.89	-10.96	-11.01	-11.13	-11.29	-11.49
240.0	-692.0	-444.3	84.73	2450	4748	1919	-49.89	-107.2	-89.44	-80.79	-71.47	-62.18	-54.50	-46.45	-38.83	-33.25	-29.57	-26.26	-24.02	-21.83	-20.45	-19.20	-18.05	-16.87	-16.24	-15.61	-14.91	-14.81	-14.98	-14.55	-14.11	-13.52	-12.91	-12.25	-11.61	-10.97	-10.91	-11.01	-10.68	-10.59	-10.45	-10.49	-10.28	-10.13	-9.712	-9.512	-8.688	-8.598	-7.424	-5.379	-0.944	8.670	16.74	11.79	0.143	-7.727	-9.565	-9.624	-9.762	-9.793	-9.881	-9.981	-10.10	-10.16	-10.28	-10.32	-10.41	-10.44	-10.62	-10.70	-10.80	-10.89	-10.96	-11.07	-11.05	-11.21	-11.51
245.0	-743.0	-429.1	-223.5	539.9	4491	7004	322.0	-73.68	-87.95	-77.81	-70.74	-61.52	-52.30	-45.99	-38.73	-33.27	-29.39	-26.17	-23.92	-21.87	-20.25	-18.88	-17.91	-16.61	-16.29	-15.60	-14.84	-14.75	-14.76	-14.36	-13.81	-13.50	-12.77	-12.23	-11.76	-10.89	-10.88	-10.90	-10.62	-10.64	-10.38	-10.39	-10.32	-10.13	-9.782	-9.536	-8.474	-8.602	-8.117	-6.988	-5.649	-3.391	6.484	22.05	22.09	12.08	-2.410	-9.172	-9.665	-9.765	-9.852	-9.939	-10.05	-10.15	-10.32	-10.21	-10.35	-10.46	-10.60	-10.67	-10.75	-10.87	-10.96	-11.00	-11.03	-11.25	-11.43
250.0	-768.7	-478.4	-203.4	1.786	1138	5327	9499	4684	46.09	-71.91	-66.06	-58.37	-51.04	-44.54	-38.11	-32.79	-28.80	-25.94	-23.18	-21.66	-20.00	-18.76	-17.64	-16.65	-15.89	-15.46	-14.82	-14.69	-14.39	-14.27	-13.95	-13.42	-12.78	-12.24	-11.66	-11.04	-10.84	-10.78	-10.53	-10.49	-10.30	-10.42	-10.43	-10.04	-9.873	-9.672	-8.678	-8.596	-7.800	-6.904	-6.533	-7.118	-5.097	0.152	9.387	25.26	30.67	38.41	7.918	-1.701	-9.120	-9.892	-9.985	-10.05	-10.24	-10.21	-10.35	-10.44	-10.52	-10.67	-10.66	-10.81	-10.88	-10.99	-11.05	-11.26	-11.51
255.0	-778.7	-524.5	-279.7	6.308	199.6	1141	5401	9999.9	8363	106.5	-56.98	-53.87	-47.38	-42.86	-37.23	-31.28	-27.88	-25.18	-22.85	-21.49	-19.69	-18.52	-17.29	-16.43	-15.53	-15.28	-14.51	-14.42	-14.52	-14.15	-13.89	-13.21	-12.84	-12.09	-11.58	-10.93	-10.86	-10.92	-10.48	-10.43	-10.37	-10.35	-10.36	-9.949	-9.752	-9.623	-8.610	-8.808	-8.133	-6.921	-6.248	-7.212	-7.493	-6.584	-4.766	-0.866	4.351	31.13	73.42	88.58	18.53	0.832	-9.502	-9.950	-10.13	-10.18	-10.24	-10.37	-10.52	-10.66	-10.66	-10.79	-10.80	-10.97	-11.08	-11.20	-11.48
260.0	-766.3	-543.2	-333.3	-75.72	136.7	205.7	1319	8989	9999.9	2151	56.67	-46.96	-44.14	-39.25	-35.01	-30.68	-27.42	-25.10	-22.42	-21.02	-19.38	-18.44	-17.44	-16.16	-15.45	-14.97	-14.30	-14.13	-14.22	-14.19	-13.85	-13.15	-12.68	-12.18	-11.47	-10.71	-10.88	-10.86	-10.41	-10.52	-10.32	-10.30	-10.25	-9.884	-9.638	-9.478	-8.604	-8.891	-8.276	-7.151	-6.620	-7.085	-7.178	-7.389	-7.700	-6.958	-6.203	0.631	21.66	68.77	109.1	96.91	14.28	-4.387	-9.879	-10.12	-10.15	-10.36	-10.43	-10.69	-10.66	-10.75	-10.72	-10.92	-10.98	-11.21	-11.45
265.0	-751.1	-541.1	-348.3	-177.3	118.1	157.7	245.3	2548	9999.9	9999.9	1757	1.704	-37.76	-35.28	-32.65	-28.81	-25.71	-24.32	-21.62	-20.47	-19.17	-17.85	-16.96	-15.82	-15.34	-14.74	-14.31	-14.19	-13.87	-13.75	-13.53	-12.99	-12.41	-11.99	-11.44	-10.66	-10.83	-10.75	-10.57	-10.42	-10.21	-10.31	-10.29	-9.849	-9.635	-9.531	-8.617	-8.841	-8.291	-7.341	-6.952	-7.886	-7.225	-6.842	-7.342	-7.985	-8.639	-7.084	-2.365	11.37	46.80	110.1	139.1	24.21	8.062	-8.413	-10.11	-10.25	-10.46	-10.60	-10.64	-10.67	-10.82	-10.79	-10.92	-11.12	-11.44
270.0	-721.0	-504.9	-329.8	-214.4	-65.48	197.1	244.4	575.8	3061	9999.9	9999.9	7066	49.55	-26.33	-26.90	-25.14	-23.48	-22.23	-20.65	-19.66	-18.32	-17.47	-16.32	-15.60	-15.05	-14.47	-14.12	-13.98	-13.73	-13.73	-13.37	-12.96	-12.19	-11.70	-11.23	-10.55	-10.47	-10.62	-10.46	-10.36	-10.04	-10.11	-10.17	-9.795	-9.510	-9.386	-8.524	-8.703	-8.181	-7.246	-6.962	-8.162	-8.142	-7.835	-7.268	-6.894	-7.586	-8.075	-7.629	-4.735	3.323	21.85	53.77	82.45	123.6	97.20	69.08	2.145	-7.989	-10.31	-10.54	-10.59	-10.70	-10.82	-10.89	-11.12	-11.35
275.0	-573.0	-388.7	-260.2	-198.6	-137.4	-14.09	341.7	383.2	739.8	2389	9802	9999.9	9748	81.73	-15.55	-19.34	-19.58	-19.92	-19.08	-17.80	-17.49	-16.86	-16.00	-15.38	-14.53	-14.17	-13.78	-13.62	-13.87	-13.44	-13.16	-12.77	-11.93	-11.56	-10.81	-10.09	-10.22	-10.46	-10.36	-10.07	-9.881	-9.919	-9.811	-9.510	-9.342	-9.115	-8.211	-8.447	-7.938	-7.159	-6.745	-8.113	-8.408	-8.354	-8.291	-7.915	-7.512	-6.408	-6.523	-7.627	-6.436	-2.272	4.771	11.39	25.56	57.78	152.2	195.8	24.29	8.196	-8.816	-10.38	-10.39	-10.71	-10.84	-10.92	-11.30
280.0	-451.9	-265.6	-186.3	-165.3	-149.2	-80.53	127.8	598.8	375.6	659.2	2610	9999.9	9999.9	6783	49.16	-11.02	-15.38	-17.54	-16.90	-16.87	-16.04	-15.97	-15.41	-14.83	-14.33	-13.46	-13.75	-13.57	-13.60	-13.60	-12.94	-12.57	-11.87	-11.03	-10.40	-9.553	-9.910	-10.05	-9.969	-9.668	-9.642	-9.372	-9.557	-9.209	-8.977	-8.782	-7.865	-8.134	-7.585	-6.872	-6.695	-8.107	-8.369	-8.326	-8.424	-8.367	-8.737	-7.838	-5.761	-5.644	-7.199	-7.405	-5.899	-4.494	-1.387	6.527	37.80	108.6	180.2	198.3	21.68	2.864	-9.808	-10.63	-10.64	-10.94	-11.21
285.0	-314.3	-140.6	-104.5	-125.1	-134.9	-86.01	14.48	393.3	722.0	352.0	804.4	3210	9999.9	9999.9	1027	21.58	-8.987	-12.89	-14.40	-15.03	-15.86	-15.35	-14.87	-14.26	-13.72	-13.41	-13.27	-13.10	-13.12	-13.15	-12.76	-12.35	-11.93	-10.91	-9.955	-9.131	-9.635	-9.626	-9.613	-9.604	-9.186	-9.258	-9.265	-8.905	-8.626	-8.500	-7.536	-7.666	-7.327	-6.599	-6.444	-7.973	-8.093	-8.267	-8.488	-8.424	-8.950	-8.625	-7.777	-6.081	-5.017	-6.512	-7.558	-7.829	-6.936	-5.146	1.663	18.80	55.69	146.6	212.3	184.6	16.61	-3.082	-10.34	-10.73	-11.04
290.0	-164.9	5.280	26.93	-56.54	-92.10	-50.38	29.05	208.7	635.5	893.6	680.9	1090	3511	9999.9	9999.9	4140	39.16	-2.136	-9.182	-11.72	-13.16	-13.80	-13.56	-13.22	-13.20	-12.79	-12.73	-12.65	-12.69	-12.42	-12.45	-12.04	-11.53	-10.68	-9.855	-8.986	-9.152	-9.293	-9.132	-9.048	-8.994	-9.066	-9.008	-8.580	-8.287	-8.126	-7.140	-7.222	-6.967	-6.396	-6.346	-7.668	-7.977	-8.118	-8.286	-8.320	-8.787	-8.677	-8.369	-7.841	-6.758	-5.702	-4.966	-5.737	-6.569	-6.853	-5.560	-2.021	5.918	27.81	62.25	119.5	152.0	175.4	119.5	7.788	-3.345
295.0	-110.2	132.4	131.6	10.32	-34.20	13.88	108.3	243.6	454.9	913.9	1304	882.7	1228	2574	9999.9	9999.9	6128	56.55	0.787	-5.879	-9.061	-10.98	-11.69	-11.88	-11.74	-12.20	-12.22	-12.39	-12.25	-11.97	-11.98	-11.78	-11.29	-10.42	-9.294	-8.611	-8.889	-9.044	-8.813	-9.029	-8.929	-8.867	-8.596	-8.429	-7.953	-7.835	-6.950	-7.016	-6.489	-6.091	-6.092	-7.322	-7.823	-7.975	-7.844	-7.945	-8.383	-8.306	-8.183	-7.871	-7.620	-6.992	-6.319	-4.745	-2.902	-4.468	-5.997	-6.007	-4.510	0.175	7.401	19.77	27.79	52.02	132.8	237.4	215.0
300.0	-34.16	202.5	174.1	59.91	3.350	69.14	169.3	316.9	491.1	776.4	1458	1315	863.8	938.3	2667	9999.9	9999.9	4608	37.42	0.854	-4.724	-8.189	-9.663	-11.02	-10.44	-11.27	-11.80	-11.58	-11.67	-11.47	-11.94	-11.30	-11.05	-10.04	-9.180	-8.232	-8.794	-8.702	-8.726	-8.636	-8.605	-8.684	-8.496	-8.155	-7.846	-7.421	-6.607	-6.707	-6.403	-5.921	-5.896	-7.259	-7.676	-7.748	-7.831	-7.671	-7.980	-7.838	-7.798	-7.410	-7.392	-6.939	-6.597	-6.109	-4.373	-2.362	-3.166	-5.443	-6.350	-5.510	-4.299	-2.089	-0.749	4.612	25.48	86.65	210.2
305.0	-14.25	240.4	221.8	100.7	46.31	107.9	239.1	389.0	574.4	798.3	1213	1734	1055	666.0	831.2	3095	9999.9	9999.9	638.7	23.99	2.196	-3.899	-7.221	-9.270	-9.720	-10.03	-10.41	-10.78	-11.00	-11.45	-11.15	-11.18	-10.57	-9.995	-8.891	-8.374	-8.460	-8.606	-8.738	-8.511	-8.361	-8.431	-8.404	-8.083	-7.678	-7.528	-6.666	-6.572	-6.221	-5.743	-5.701	-7.122	-7.438	-7.665	-7.575	-7.421	-7.665	-7.539	-7.228	-7.011	-6.754	-6.764	-6.211	-5.616	-5.276	-3.969	-2.448	-2.321	-4.210	-5.957	-6.537	-6.729	-6.941	-5.856	-1.549	12.16	47.34
310.0	7.878	234.0	258.1	140.7	75.15	161.7	291.7	463.1	654.0	878.4	1121	1467	1539	904.3	521.1	867.1	3415	9999.9	9999.9	9999.9	33.60	5.873	-1.295	-5.229	-7.261	-8.030	-8.998	-9.862	-10.14	-10.42	-10.57	-10.87	-10.08	-9.578	-9.006	-8.251	-7.954	-8.474	-8.361	-8.283	-8.060	-8.511	-8.363	-7.961	-7.568	-7.395	-6.462	-6.558	-6.162	-5.545	-5.571	-6.887	-7.357	-7.362	-7.474	-7.185	-7.547	-7.274	-7.070	-6.552	-6.341	-6.205	-5.751	-5.318	-5.012	-4.861	-4.265	-3.612	-2.931	-3.375	-4.711	-6.513	-7.453	-7.898	-7.425	-4.537	2.734
315.0	27.17	318.0	299.4	169.3	112.2	179.4	323.2	512.4	727.5	944.0	1167	1325	1394	1395	677.6	423.8	898.5	2403	9999.9	9999.9	4472	45.03	8.643	1.553	-3.037	-5.649	-6.895	-8.157	-9.283	-9.426	-9.790	-9.845	-9.404	-8.985	-8.540	-7.944	-7.778	-8.076	-8.058	-8.479	-8.146	-8.195	-8.006	-7.781	-7.164	-7.175	-5.998	-6.205	-5.989	-5.297	-5.390	-6.575	-7.040	-7.227	-7.210	-6.853	-7.180	-7.088	-6.712	-6.461	-6.097	-5.819	-5.437	-5.221	-4.985	-4.519	-4.698	-4.159	-4.600	-4.111	-3.567	-3.794	-5.549	-7.467	-8.126	-8.159	-7.020
320.0	150.2	454.1	481.6	262.3	156.7	190.3	346.1	550.8	776.8	1031	1246	1374	1346	1389	1043	425.9	370.2	649.1	2622	9999.9	9999.9	3677	36.54	10.14	2.441	-2.047	-5.055	-6.553	-7.486	-8.247	-8.973	-9.309	-8.876	-8.827	-8.247	-7.769	-7.652	-7.631	-7.692	-8.263	-7.971	-8.161	-7.639	-7.271	-6.860	-6.719	-5.667	-5.699	-5.578	-4.756	-5.044	-6.377	-6.746	-7.024	-7.180	-6.615	-7.011	-6.782	-6.283	-6.284	-5.709	-5.430	-4.839	-4.916	-4.498	-4.517	-4.665	-4.428	-4.611	-4.553	-4.357	-3.973	-3.458	-5.419	-7.231	-8.406	-8.695
325.0	277.4	724.9	768.0	468.3	250.9	228.1	366.9	585.3	831.8	1102	1337	1476	1437	1277	1245	671.6	311.1	290.2	683.8	3340	9999.9	9999.9	494.9	29.47	9.061	2.290	-2.597	-4.590	-6.301	-6.882	-7.938	-8.358	-8.283	-8.147	-7.968	-7.354	-7.561	-7.570	-7.544	-7.780	-7.577	-7.806	-7.561	-6.983	-6.591	-5.934	-5.217	-4.701	-4.519	-3.872	-4.271	-5.960	-6.263	-6.687	-6.775	-6.578	-6.706	-6.713	-6.340	-5.966	-5.608	-4.933	-4.915	-4.485	-4.335	-3.951	-4.014	-4.189	-3.883	-4.379	-4.329	-4.857	-4.408	-4.157	-5.273	-7.168	-8.705
330.0	397.5	905.9	1043	737.9	389.9	291.8	392.6	603.9	860.7	1144	1409	1566	1534	1309	1098	907.6	524.0	260.5	276.1	839.2	3805	9999.9	9999.9	9999.9	34.02	13.89	5.060	0.144	-2.896	-5.123	-6.121	-6.864	-7.386	-7.744	-7.312	-6.947	-7.064	-7.475	-7.220	-7.447	-7.260	-7.375	-7.208	-6.718	-6.136	-5.234	-4.565	-4.157	-3.478	-3.089	-3.466	-4.966	-5.633	-6.271	-6.429	-6.437	-6.729	-6.580	-6.108	-5.650	-5.527	-4.890	-4.556	-4.110	-3.804	-3.516	-3.372	-3.595	-3.586	-3.545	-4.069	-4.597	-4.856	-5.264	-5.604	-5.851	-6.767
335.0	469.0	973.8	1165	855.4	477.7	324.0	403.6	607.7	877.7	1160	1431	1592	1574	1348	1040	760.9	717.7	397.9	210.0	293.8	933.9	2452	9999.9	9999.9	3717	42.85	16.34	7.525	1.914	-1.265	-3.492	-4.936	-6.111	-6.361	-6.423	-6.514	-6.399	-6.811	-6.747	-7.083	-6.848	-6.979	-6.759	-6.613	-5.766	-4.886	-4.169	-3.445	-2.834	-2.496	-2.945	-4.430	-5.091	-5.830	-6.151	-6.119	-6.457	-6.141	-5.945	-5.666	-5.166	-4.728	-4.149	-3.856	-3.844	-3.248	-3.176	-3.094	-3.332	-3.064	-3.877	-4.295	-4.765	-5.452	-6.328	-6.865	-7.295
340.0	458.7	1006	1184	882.6	510.3	352.7	419.7	618.9	879.0	1167	1426	1561	1552	1351	1034	689.2	616.1	575.5	258.2	182.7	303.3	631.0	2872	9999.9	9999.9	3253	36.74	15.89	6.308	1.538	-1.242	-3.287	-4.877	-5.716	-6.090	-5.895	-6.224	-6.511	-6.764	-6.948	-6.931	-6.934	-6.941	-6.176	-6.017	-5.166	-3.928	-3.286	-2.903	-2.477	-2.798	-4.102	-5.426	-5.742	-5.916	-5.855	-6.159	-6.276	-6.002	-5.610	-5.033	-4.916	-4.183	-3.978	-3.912	-3.225	-3.225	-3.440	-3.433	-3.323	-4.044	-4.300	-4.901	-5.470	-6.573	-7.313	-7.846
345.0	450.3	942.1	1127	858.6	534.1	371.0	440.7	642.3	882.6	1138	1382	1533	1504	1318	1007	668.0	504.8	564.8	401.3	183.0	172.3	232.0	715.9	3952	9999.9	9999.9	430.1	31.40	13.02	5.988	1.050	-1.799	-4.153	-4.923	-5.368	-5.578	-6.176	-6.422	-6.411	-6.830	-6.681	-6.998	-6.716	-6.347	-5.862	-5.405	-4.203	-3.554	-3.026	-2.580	-2.902	-4.082	-5.129	-5.611	-6.158	-5.838	-6.238	-6.141	-5.760	-5.634	-5.015	-4.456	-4.097	-3.889	-3.968	-3.621	-3.548	-3.484	-3.552	-3.536	-4.028	-4.484	-5.280	-5.741	-6.547	-7.427	-8.026
350.0	320.5	779.4	960.8	779.1	521.9	412.9	479.2	675.6	899.1	1110	1305	1404	1388	1225	952.5	644.9	458.3	409.3	447.0	317.0	170.0	150.8	238.8	952.1	4630	9999.9	9999.9	9999.9	33.79	15.62	6.943	1.612	-1.841	-3.394	-4.721	-4.935	-5.572	-6.423	-6.317	-6.750	-6.719	-6.830	-6.916	-6.508	-5.945	-5.610	-4.501	-4.055	-3.533	-2.935	-3.170	-4.400	-4.985	-5.810	-6.007	-5.830	-6.250	-5.809	-5.578	-5.234	-4.930	-4.695	-4.283	-4.421	-4.246	-3.844	-4.021	-3.996	-4.128	-4.052	-4.494	-4.718	-5.441	-5.993	-6.621	-7.252	-7.953
355.0	173.1	586.8	777.7	677.9	471.3	429.3	510.1	697.7	894.0	1073	1215	1278	1271	1110	873.7	607.8	440.0	347.3	328.4	400.9	278.8	152.5	143.5	286.0	1094	2522	9999.9	9999.9	9999.9	40.94	18.06	7.948	2.727	-1.730	-3.600	-3.995	-4.864	-5.916	-5.733	-6.238	-6.803	-7.201	-7.040	-6.679	-6.088	-5.880	-4.835	-4.511	-4.083	-3.616	-3.673	-4.660	-5.224	-5.715	-6.114	-5.684	-6.160	-6.097	-5.673	-5.143	-4.823	-4.713	-4.776	-4.272	-4.454	-4.536	-4.367	-4.426	-4.797	-4.796	-4.869	-5.433	-5.812	-6.095	-6.611	-7.400	-8.081
360.0	66.09	476.2	639.0	577.7	453.9	410.1	494.6	670.8	857.9	1009	1127	1182	1149	1023	814.2	576.3	425.0	331.8	287.1	329.8	381.2	211.0	135.7	146.4	310.0	623.1	3127	9999.9	9999.9	3085	36.88	15.03	6.975	1.473	-2.030	-3.149	-4.597	-5.311	-5.665	-6.006	-6.715	-7.074	-6.994	-6.602	-6.412	-5.914	-5.110	-4.690	-4.095	-3.874	-3.962	-4.956	-5.214	-5.712	-6.224	-5.862	-6.061	-6.264	-5.721	-5.316	-4.858	-4.974	-4.701	-4.852	-4.585	-4.674	-4.959	-4.998	-5.088	-5.084	-5.262	-5.872	-6.208	-6.260	-7.159	-7.611	-8.254
365.0	2.362	357.8	528.3	515.4	403.9	400.4	467.0	642.0	807.4	944.6	1050	1091	1057	940.0	755.1	545.7	416.8	334.9	281.6	267.9	364.9	323.3	163.4	124.7	143.3	201.5	759.5	4559	9999.9	9999.9	2434	30.58	12.17	5.465	0.379	-1.561	-3.695	-4.721	-5.262	-5.711	-6.423	-6.502	-6.968	-6.409	-6.235	-6.277	-5.148	-4.906	-4.530	-4.160	-3.961	-5.203	-5.385	-5.911	-5.963	-5.807	-6.272	-6.005	-6.125	-5.431	-5.413	-5.130	-5.065	-5.060	-5.129	-5.172	-5.035	-5.317	-5.480	-5.388	-5.727	-6.452	-6.337	-6.487	-7.414	-7.637	-8.231
370.0	-83.84	253.5	397.5	404.6	370.6	379.7	460.5	611.6	747.5	864.3	943.9	979.6	938.5	835.5	680.0	506.2	401.8	332.0	288.6	260.6	280.8	345.9	284.2	162.8	124.4	117.4	228.1	1080	5191	9999.9	9999.9	9814	130.2	14.13	6.056	1.664	-1.624	-3.459	-4.510	-5.342	-5.646	-6.542	-6.674	-6.553	-6.314	-6.356	-5.483	-5.124	-4.795	-4.269	-4.222	-5.297	-5.477	-5.860	-6.028	-5.762	-6.184	-6.141	-6.003	-5.667	-5.669	-5.487	-5.357	-5.315	-5.359	-5.426	-5.569	-5.684	-5.987	-5.786	-6.180	-6.545	-6.610	-7.111	-7.764	-7.876	-8.371
375.0	-146.4	160.3	273.6	318.1	324.8	364.7	438.4	569.6	688.9	776.6	825.1	855.6	816.4	741.8	610.4	467.0	387.3	336.1	299.2	273.2	262.5	279.0	341.3	274.4	153.0	116.5	119.9	296.6	1208	2617	9999.9	9999.9	9999.9	34.76	14.18	6.329	1.647	-1.556	-3.250	-4.560	-5.569	-6.136	-6.516	-5.923	-6.348	-6.408	-5.637	-5.519	-5.168	-4.455	-4.498	-5.481	-5.665	-5.946	-6.031	-5.851	-6.550	-6.088	-6.155	-6.144	-6.065	-6.193	-5.757	-5.945	-5.627	-6.003	-5.973	-6.352	-6.242	-6.314	-6.628	-7.022	-7.098	-7.430	-7.820	-8.167	-8.350
380.0	-193.1	65.03	204.4	256.6	294.6	336.8	414.4	531.2	626.6	706.7	755.5	778.3	739.6	669.6	558.9	435.3	370.3	328.9	302.9	280.8	265.4	261.3	299.9	347.2	215.7	132.9	106.3	127.5	319.7	637.0	3292	9999.9	9999.9	2585	30.15	11.65	5.153	0.819	-2.462	-4.201	-4.828	-5.621	-6.199	-6.257	-6.500	-6.200	-5.550	-5.670	-5.351	-4.738	-4.669	-5.542	-5.738	-5.937	-6.019	-5.994	-6.483	-6.361	-6.270	-6.409	-6.122	-6.354	-6.120	-6.009	-6.119	-6.366	-6.520	-6.550	-6.661	-6.753	-7.109	-7.493	-7.348	-7.627	-8.126	-8.277	-8.426
385.0	-260.9	-1.959	143.9	216.9	258.8	329.3	391.4	491.7	557.1	627.7	680.4	702.8	678.7	609.1	511.4	410.8	355.7	325.9	302.2	293.1	274.8	267.6	267.2	325.0	297.3	166.0	115.3	97.98	128.5	190.9	790.1	4641	9999.9	9999.9	1947	24.08	9.208	3.781	-0.486	-2.796	-4.202	-5.301	-5.699	-6.015	-6.273	-6.159	-5.297	-5.732	-5.520	-4.876	-4.754	-5.602	-5.793	-5.872	-6.056	-5.970	-6.403	-6.622	-6.538	-6.657	-6.528	-6.396	-6.437	-6.465	-6.410	-6.468	-6.832	-7.006	-6.923	-7.199	-7.317	-7.573	-7.608	-7.864	-8.378	-8.315	-8.658
390.0	-311.1	-68.20	97.45	180.6	239.2	308.4	367.4	445.0	516.0	556.9	607.8	624.4	602.8	550.4	464.6	391.2	344.4	320.8	305.0	299.6	289.7	279.0	266.2	270.3	303.4	252.6	152.5	107.3	96.79	99.32	223.8	1092	4847	9999.9	9999.9	7705	24.20	9.296	3.053	-0.685	-2.731	-4.543	-5.190	-5.702	-5.799	-6.053	-5.459	-5.833	-5.368	-5.045	-4.745	-5.840	-5.943	-6.091	-6.073	-6.033	-6.516	-6.512	-6.542	-6.653	-6.583	-6.493	-6.682	-6.717	-6.892	-6.830	-7.133	-7.178	-7.254	-7.465	-7.439	-7.910	-7.802	-8.059	-8.360	-8.610	-8.745
