Sample:	'1
File name:	T2025032006º«µêºÓ6.FD3
Run date:	'09:56:21, 03/21/2025
Operator:	Administrator
Comment:	'

Instrument
Model:	F-2700 FL Spectrophotometer
Serial number:	23B8-004
ROM Version:	4J14000 07

Instrument parameters
Measurement type:	3-D scan
Data mode:	Fluorescence
EX  Start WL:	220.0 nm
EX  End WL:	600.0 nm
EX Sampling interval:	5.0 nm
EM  Start WL:	230.0 nm
EM  End WL:	650.0 nm
EM Sampling interval:	5.0 nm
Scan speed:	12000 nm/min
EX Slit:	5.0 nm
EM Slit:	5.0 nm
PMT Voltage:	700 V
Response:	Auto 
Corrected spectra:	Off
Contour interval:	50.000

Peak integration
Integration method:	Rectangular
Sensitivity:	1
Threshold:	1.000

Peaks
No.	ApexEX/EM(nm)	Height(Data)
1	225.0/335.0	535.1
2	225.0/425.0	239.4
3	225.0/490.0	245.4
4	225.0/575.0	33.89
5	230.0/500.0	224.3
6	235.0/255.0	379.8
7	235.0/515.0	177.1
8	240.0/265.0	442.9
9	240.0/525.0	169.2
10	245.0/270.0	437.5
11	245.0/535.0	150.7
12	250.0/275.0	563.2
13	250.0/435.0	223.2
14	250.0/550.0	128.7
15	255.0/280.0	630.5
16	255.0/565.0	121.2
17	260.0/290.0	560.1
18	260.0/575.0	98.75
19	265.0/585.0	88.39
20	270.0/300.0	823.3
21	270.0/385.0	181.1
22	270.0/600.0	76.08
23	275.0/305.0	803.2
24	275.0/610.0	58.01
25	280.0/310.0	633.7
26	280.0/625.0	51.01
27	285.0/315.0	637.3
28	285.0/635.0	37.47
29	290.0/325.0	581.4
30	295.0/330.0	437.3
31	300.0/335.0	398.8
32	305.0/340.0	331.8
33	310.0/350.0	261.0
34	315.0/355.0	248.3
35	320.0/360.0	243.3
36	325.0/370.0	202.2
37	330.0/375.0	196.5
38	335.0/380.0	201.9
39	345.0/395.0	156.8
40	350.0/400.0	161.3
41	355.0/405.0	142.8
42	360.0/415.0	122.5
43	365.0/420.0	125.5
44	370.0/425.0	110.5
45	380.0/440.0	85.31
46	385.0/445.0	75.31
47	395.0/460.0	54.58
48	400.0/465.0	46.52
49	415.0/485.0	28.22
50	420.0/490.0	23.63
51	425.0/495.0	20.88
52	430.0/505.0	17.85
53	435.0/510.0	15.29
54	440.0/520.0	13.70
55	445.0/525.0	11.84
56	455.0/540.0	7.808
57	460.0/545.0	6.663
58	470.0/560.0	4.045
59	475.0/260.0	1.897
60	485.0/265.0	2.402
61	495.0/270.0	2.141
62	505.0/275.0	3.469
63	510.0/280.0	3.551
64	520.0/285.0	3.975
65	530.0/290.0	3.601
66	540.0/295.0	4.551
67	545.0/300.0	4.676
68	550.0/305.0	4.455
69	560.0/310.0	3.512
70	575.0/315.0	3.695
71	580.0/320.0	3.888
72	585.0/325.0	3.804

Data points
	220.0	225.0	230.0	235.0	240.0	245.0	250.0	255.0	260.0	265.0	270.0	275.0	280.0	285.0	290.0	295.0	300.0	305.0	310.0	315.0	320.0	325.0	330.0	335.0	340.0	345.0	350.0	355.0	360.0	365.0	370.0	375.0	380.0	385.0	390.0	395.0	400.0	405.0	410.0	415.0	420.0	425.0	430.0	435.0	440.0	445.0	450.0	455.0	460.0	465.0	470.0	475.0	480.0	485.0	490.0	495.0	500.0	505.0	510.0	515.0	520.0	525.0	530.0	535.0	540.0	545.0	550.0	555.0	560.0	565.0	570.0	575.0	580.0	585.0	590.0	595.0	600.0
230.0	81.84	1080	2343	578.6	16.55	3.234	2.752	2.447	1.896	1.511	1.683	1.481	1.212	0.981	0.882	0.711	0.620	0.538	0.532	0.421	0.395	0.393	0.344	0.334	0.325	0.244	0.255	0.244	0.255	0.226	0.194	0.223	0.190	0.198	0.220	0.146	0.157	0.157	0.148	0.199	0.467	0.733	0.691	0.301	0.160	0.171	1.147	4.476	6.757	3.980	1.219	0.258	0.115	0.106	0.113	0.088	0.106	0.091	0.103	0.104	0.089	0.117	0.107	0.097	0.099	0.096	0.106	0.085	0.099	0.094	0.100	0.089	0.086	0.116	0.113	0.099	0.108
235.0	191.1	315.3	1457	2091	476.3	24.53	3.786	2.934	2.047	1.841	1.995	1.469	1.417	1.284	1.034	0.639	0.791	0.559	0.507	0.440	0.389	0.397	0.338	0.368	0.303	0.345	0.232	0.229	0.231	0.264	0.215	0.222	0.171	0.202	0.209	0.151	0.159	0.185	0.145	0.216	0.240	0.390	0.699	0.754	0.550	0.272	0.403	1.259	2.747	4.240	5.798	5.550	2.353	0.362	0.147	0.116	0.107	0.098	0.073	0.102	0.077	0.104	0.110	0.084	0.102	0.089	0.109	0.081	0.092	0.128	0.084	0.105	0.105	0.097	0.102	0.088	0.100
240.0	273.1	206.6	445.6	1799	2069	347.8	13.72	3.226	2.609	2.468	1.724	1.665	1.637	1.348	1.077	0.928	0.761	0.758	0.567	0.497	0.489	0.392	0.322	0.280	0.313	0.317	0.324	0.221	0.252	0.244	0.234	0.227	0.191	0.159	0.174	0.168	0.146	0.149	0.147	0.159	0.176	0.225	0.308	0.610	0.894	0.883	0.429	0.458	0.741	1.294	3.458	7.593	8.929	5.319	1.727	0.327	0.131	0.119	0.111	0.104	0.138	0.086	0.133	0.104	0.111	0.107	0.115	0.103	0.090	0.104	0.085	0.111	0.098	0.092	0.092	0.089	0.119
245.0	197.2	308.5	184.5	617.8	2309	2025	243.9	6.388	3.735	2.975	1.917	2.111	1.776	1.606	1.078	0.853	0.729	0.670	0.502	0.480	0.547	0.355	0.371	0.332	0.323	0.326	0.351	0.215	0.273	0.217	0.197	0.225	0.157	0.180	0.227	0.211	0.153	0.162	0.133	0.168	0.138	0.152	0.185	0.275	0.467	0.890	0.945	0.771	0.404	0.378	0.917	2.654	6.606	10.46	9.906	4.669	1.050	0.212	0.134	0.119	0.135	0.092	0.133	0.088	0.099	0.104	0.099	0.117	0.101	0.091	0.088	0.118	0.123	0.105	0.099	0.085	0.117
250.0	71.73	230.7	304.5	240.7	745.1	2144	2501	797.8	39.57	4.482	2.803	2.793	2.205	1.599	1.259	1.194	0.857	0.706	0.608	0.571	0.598	0.407	0.392	0.336	0.342	0.340	0.328	0.295	0.313	0.251	0.258	0.258	0.186	0.202	0.204	0.179	0.180	0.173	0.167	0.166	0.145	0.147	0.140	0.166	0.222	0.342	0.588	0.944	0.972	0.866	0.592	0.781	1.715	3.550	6.485	9.751	11.85	9.891	4.931	1.259	0.231	0.092	0.112	0.097	0.090	0.119	0.106	0.139	0.122	0.123	0.112	0.093	0.132	0.096	0.119	0.102	0.098
255.0	32.97	69.93	231.7	379.8	262.6	551.7	2081	3862	294.8	38.38	4.905	3.474	2.568	2.010	1.265	1.361	0.880	0.842	0.743	0.494	0.542	0.547	0.348	0.352	0.312	0.423	0.360	0.388	0.322	0.298	0.284	0.301	0.215	0.255	0.185	0.186	0.194	0.162	0.146	0.128	0.170	0.205	0.165	0.159	0.207	0.176	0.238	0.345	0.554	1.105	1.442	1.284	0.780	0.942	1.643	2.450	4.685	10.85	18.91	17.35	7.551	1.287	0.189	0.134	0.094	0.125	0.126	0.116	0.127	0.167	0.117	0.095	0.124	0.091	0.116	0.133	0.118
260.0	23.91	29.25	88.57	347.6	342.3	180.8	630.6	3361	3936	245.2	18.10	5.678	3.595	2.502	1.725	1.369	0.905	1.004	0.815	0.538	0.590	0.641	0.411	0.426	0.411	0.402	0.390	0.435	0.350	0.314	0.296	0.235	0.242	0.268	0.196	0.212	0.216	0.214	0.213	0.173	0.171	0.181	0.172	0.143	0.217	0.154	0.170	0.172	0.235	0.463	0.924	1.897	1.888	0.895	0.621	0.736	1.238	3.024	8.458	18.41	23.32	16.30	5.507	0.567	0.132	0.150	0.146	0.122	0.121	0.120	0.121	0.107	0.117	0.083	0.096	0.105	0.109
265.0	19.76	18.67	28.81	165.7	442.9	257.9	180.7	1126	4619	2004	186.2	8.826	4.414	2.825	2.178	1.708	1.239	1.029	0.869	0.748	0.658	0.619	0.534	0.469	0.446	0.354	0.359	0.331	0.354	0.344	0.303	0.235	0.238	0.254	0.209	0.184	0.266	0.226	0.218	0.183	0.201	0.129	0.201	0.140	0.205	0.168	0.159	0.141	0.143	0.170	0.344	0.929	1.761	2.402	1.419	0.578	0.479	0.896	2.210	5.533	13.79	25.04	26.23	13.33	2.786	0.287	0.138	0.134	0.112	0.131	0.104	0.130	0.143	0.103	0.145	0.096	0.125
270.0	37.80	24.91	20.48	53.23	215.8	437.5	288.4	306.9	1472	3703	3870	734.6	41.61	4.432	3.179	2.087	1.468	1.216	1.046	0.816	0.726	0.599	0.545	0.521	0.537	0.405	0.425	0.341	0.378	0.390	0.303	0.361	0.295	0.313	0.252	0.271	0.297	0.275	0.259	0.191	0.216	0.182	0.223	0.180	0.200	0.188	0.181	0.177	0.163	0.122	0.147	0.322	0.613	1.316	1.947	2.141	1.813	1.084	0.806	1.442	3.441	7.408	13.62	20.03	23.26	19.59	10.56	2.774	0.292	0.146	0.143	0.135	0.143	0.128	0.157	0.123	0.123
275.0	78.22	55.83	29.50	29.64	71.50	210.9	563.2	334.2	374.8	933.5	3335	6419	1014	36.35	4.572	2.413	2.049	1.572	1.159	1.163	0.839	0.641	0.659	0.553	0.589	0.477	0.473	0.403	0.461	0.359	0.404	0.387	0.266	0.403	0.400	0.376	0.418	0.372	0.376	0.330	0.313	0.297	0.271	0.273	0.379	0.285	0.239	0.238	0.214	0.187	0.117	0.199	0.309	0.425	0.698	1.107	2.441	3.469	2.405	1.002	1.023	1.919	3.275	4.829	7.261	15.93	30.50	29.05	15.50	2.560	0.246	0.158	0.170	0.192	0.152	0.123	0.130
280.0	127.2	81.67	46.10	29.61	43.74	89.99	363.0	630.5	246.4	259.6	958.8	5065	6151	148.0	16.06	4.294	2.566	2.107	1.328	1.135	1.028	0.856	0.728	0.581	0.613	0.507	0.450	0.484	0.445	0.377	0.415	0.386	0.408	0.501	0.626	0.621	0.564	0.486	0.438	0.388	0.427	0.512	0.379	0.424	0.376	0.374	0.328	0.221	0.254	0.193	0.171	0.183	0.211	0.263	0.341	0.549	0.965	2.276	3.551	3.145	1.576	0.831	1.074	1.453	1.990	4.214	11.09	23.47	35.91	26.63	10.13	1.348	0.189	0.158	0.151	0.139	0.152
285.0	178.8	127.5	60.29	40.58	39.87	54.83	148.9	549.5	559.0	159.8	283.8	1530	6256	4521	113.5	7.271	3.645	2.397	1.622	1.478	1.144	0.872	0.798	0.709	0.549	0.469	0.564	0.404	0.513	0.381	0.393	0.343	0.393	0.533	0.715	0.760	0.691	0.635	0.581	0.491	0.436	0.558	0.531	0.434	0.447	0.385	0.417	0.332	0.292	0.268	0.188	0.201	0.245	0.244	0.281	0.306	0.469	0.884	1.710	3.382	3.975	2.096	0.866	0.669	0.811	1.320	2.864	6.244	14.98	28.47	33.38	21.87	6.403	0.572	0.184	0.177	0.170
290.0	215.9	158.6	87.74	56.91	44.18	52.76	78.04	213.4	560.1	491.0	197.8	420.6	1810	4294	4369	430.8	25.56	3.633	2.208	1.647	1.351	1.148	0.887	0.792	0.626	0.551	0.512	0.509	0.502	0.453	0.367	0.422	0.422	0.597	0.818	0.862	0.857	0.868	0.698	0.627	0.608	0.613	0.582	0.585	0.569	0.483	0.492	0.505	0.335	0.281	0.247	0.271	0.313	0.301	0.305	0.272	0.390	0.500	0.728	1.268	2.353	3.014	3.601	2.396	1.354	0.871	1.087	1.845	3.813	7.457	13.75	21.39	25.40	24.33	14.80	4.927	0.681
295.0	246.1	195.3	111.1	71.66	53.62	57.65	62.44	102.2	218.6	591.8	625.5	220.5	471.6	1041	2921	5216	609.1	23.50	3.420	2.445	1.920	1.135	1.121	1.076	0.738	0.859	0.452	0.589	0.518	0.384	0.485	0.401	0.429	0.616	0.861	0.874	0.996	0.862	0.750	0.615	0.597	0.636	0.577	0.631	0.676	0.591	0.449	0.499	0.476	0.301	0.267	0.329	0.349	0.306	0.277	0.307	0.392	0.403	0.546	0.638	0.878	1.122	1.868	3.455	4.551	2.856	1.173	1.026	1.309	2.014	3.428	5.089	6.688	12.27	26.56	33.13	21.97
300.0	255.9	204.1	143.2	79.90	63.68	67.81	71.86	83.74	123.9	310.2	823.3	436.8	199.0	292.3	788.9	3914	4537	443.2	9.633	3.125	2.395	1.436	1.122	1.199	0.873	0.801	0.762	0.532	0.541	0.465	0.627	0.464	0.513	0.695	0.859	0.934	0.947	0.925	0.705	0.677	0.679	0.627	0.657	0.610	0.672	0.682	0.568	0.598	0.526	0.356	0.355	0.311	0.405	0.349	0.347	0.307	0.425	0.456	0.480	0.495	0.633	0.702	0.907	1.598	3.359	4.676	3.571	1.592	0.947	0.994	1.280	1.488	1.919	3.109	7.882	19.18	34.13
305.0	249.9	207.5	151.5	96.95	82.09	74.95	82.70	91.10	115.7	185.1	518.1	803.2	202.4	147.2	232.9	1148	4432	3587	71.36	5.185	2.707	2.087	1.431	1.351	1.076	0.723	0.659	0.740	0.496	0.541	0.549	0.478	0.513	0.663	0.795	0.928	0.926	0.875	0.739	0.694	0.679	0.628	0.684	0.654	0.663	0.749	0.625	0.541	0.464	0.492	0.382	0.466	0.410	0.452	0.345	0.445	0.494	0.477	0.440	0.554	0.660	0.583	0.759	0.946	1.516	2.671	4.455	3.960	2.354	1.108	0.881	0.767	0.823	1.082	2.262	4.822	11.66
310.0	258.0	212.1	173.5	121.3	90.40	85.97	95.01	106.9	122.7	159.7	266.0	559.9	633.7	260.7	129.4	308.9	1262	3159	3239	300.7	18.60	2.724	1.870	1.479	1.166	0.981	0.754	0.800	0.584	0.591	0.465	0.541	0.528	0.641	0.796	0.912	0.907	0.835	0.780	0.715	0.672	0.591	0.683	0.648	0.727	0.658	0.705	0.609	0.562	0.527	0.444	0.531	0.424	0.462	0.435	0.483	0.512	0.550	0.550	0.595	0.704	0.667	0.736	0.873	1.038	1.325	1.992	2.836	3.512	3.321	2.306	1.327	0.817	0.784	0.989	1.468	2.993
315.0	328.6	269.9	194.6	137.0	101.6	94.45	110.4	117.6	135.3	167.4	212.5	299.8	492.2	637.3	212.2	136.3	328.8	756.7	2073	3759	456.5	16.95	2.635	1.743	1.483	1.085	0.865	0.948	0.792	0.647	0.541	0.598	0.491	0.640	0.801	0.808	0.757	0.794	0.661	0.820	0.729	0.670	0.649	0.789	0.794	0.781	0.761	0.711	0.707	0.609	0.498	0.528	0.527	0.463	0.463	0.582	0.610	0.666	0.617	0.728	0.699	0.726	0.837	0.918	0.890	1.098	1.175	1.458	1.681	2.324	3.451	3.695	2.108	1.099	0.770	0.844	1.012
320.0	411.7	349.6	243.4	157.9	112.5	102.7	118.5	130.0	149.7	182.7	215.9	250.7	314.6	590.2	464.8	124.5	128.8	207.2	547.9	2722	3232	343.9	6.739	2.161	1.703	1.156	1.127	0.952	0.830	0.587	0.646	0.472	0.526	0.645	0.858	0.672	0.782	0.838	0.752	0.798	0.808	0.747	0.724	0.886	1.010	0.897	1.037	0.891	0.828	0.750	0.615	0.568	0.574	0.480	0.492	0.524	0.557	0.587	0.699	0.719	0.627	0.782	0.908	0.906	1.038	1.085	1.153	1.254	1.257	1.528	2.081	3.396	3.888	2.898	1.157	0.839	0.756
325.0	470.2	429.9	321.1	208.3	129.2	108.9	121.2	132.9	160.1	186.6	226.5	256.1	268.7	372.4	581.4	273.2	100.9	91.43	151.8	785.2	3090	2516	55.60	3.712	2.141	1.350	1.287	1.058	0.682	0.689	0.658	0.509	0.573	0.685	0.806	0.723	0.729	0.801	0.827	0.867	0.815	0.913	0.836	0.986	1.168	1.225	1.103	1.221	1.013	0.878	0.721	0.727	0.535	0.603	0.434	0.503	0.617	0.680	0.711	0.695	0.678	0.828	0.835	0.992	1.115	1.175	1.177	1.254	1.241	1.428	1.442	2.007	2.792	3.804	3.012	1.504	0.905
330.0	504.9	506.5	422.1	291.8	172.5	124.8	120.3	139.1	163.0	200.9	235.8	261.3	260.6	267.8	355.0	437.3	232.7	78.60	67.69	200.5	882.6	2242	2330	239.8	13.91	2.000	1.589	1.225	0.888	0.793	0.663	0.569	0.607	0.671	0.712	0.695	0.749	0.685	0.782	0.756	0.769	0.873	0.955	1.068	1.331	1.312	1.353	1.304	1.302	1.077	0.957	1.003	0.754	0.661	0.526	0.559	0.609	0.625	0.691	0.681	0.759	0.781	0.914	1.053	1.209	1.182	1.225	1.379	1.288	1.323	1.359	1.452	1.583	2.058	2.535	2.811	2.520
335.0	514.7	535.1	460.2	342.1	217.3	139.6	122.5	147.3	161.6	201.3	237.1	260.2	255.3	238.4	228.1	269.8	398.8	182.5	58.31	74.43	219.4	535.6	1572	2789	365.5	11.00	2.127	1.590	1.098	0.860	0.771	0.663	0.650	0.716	0.566	0.747	0.717	0.732	0.853	0.707	0.836	0.916	0.960	1.105	1.325	1.242	1.292	1.621	1.393	1.150	1.182	1.188	0.922	0.915	0.625	0.616	0.638	0.609	0.704	0.747	0.771	0.750	0.980	1.030	1.135	1.145	1.160	1.383	1.326	1.257	1.411	1.339	1.309	1.183	1.405	1.566	2.076
340.0	509.0	531.4	495.8	369.0	235.6	154.3	132.9	144.6	160.6	192.5	231.2	247.0	252.3	231.6	198.7	181.3	303.5	331.8	83.72	51.41	76.40	141.7	421.6	2099	2408	55.24	4.199	1.942	1.389	0.959	0.910	0.763	0.644	0.730	0.662	0.706	0.652	0.638	0.833	0.686	0.743	0.865	0.926	1.037	1.264	1.229	1.349	1.498	1.425	1.077	1.166	1.278	0.949	0.856	0.718	0.642	0.620	0.646	0.804	0.748	0.907	0.782	0.868	1.009	1.108	1.196	1.251	1.222	1.222	1.208	1.431	1.266	1.248	1.264	1.115	0.936	1.180
345.0	490.8	501.3	478.6	376.4	244.0	164.3	134.5	140.0	164.4	192.0	219.1	238.2	242.2	222.8	181.6	153.2	178.6	326.5	217.4	61.27	48.21	56.78	114.2	618.6	2397	1809	44.94	2.657	1.668	1.117	0.843	0.704	0.738	0.749	0.645	0.711	0.674	0.672	0.753	0.594	0.641	0.720	0.913	0.938	1.109	1.269	1.339	1.412	1.338	1.180	1.083	1.252	1.088	0.884	0.865	0.605	0.707	0.616	0.783	0.741	0.775	0.842	0.866	0.976	1.086	1.112	1.191	1.074	1.225	1.277	1.266	1.138	1.135	1.090	0.902	1.022	0.982
350.0	432.4	449.0	448.1	374.9	260.7	176.3	144.4	148.0	163.6	184.3	204.2	220.1	222.3	209.3	175.9	143.7	131.6	178.9	261.0	175.9	58.54	45.34	51.33	157.7	703.9	1720	1679	203.7	9.674	1.723	1.085	0.883	0.743	0.738	0.631	0.663	0.670	0.649	0.627	0.694	0.609	0.765	0.818	0.868	1.023	1.112	1.143	1.277	1.252	1.212	1.096	1.218	1.082	0.926	0.855	0.678	0.803	0.677	0.708	0.753	0.801	0.828	0.924	0.947	1.043	1.040	1.044	1.076	1.171	1.196	1.141	1.079	1.049	0.988	0.990	0.971	0.867
355.0	377.1	420.5	408.3	368.3	265.4	186.7	150.2	156.9	166.3	183.8	193.2	207.8	203.9	194.6	165.1	140.8	122.9	116.9	147.9	248.3	154.7	54.85	43.39	61.03	176.0	414.6	1222	2027	299.4	7.026	1.330	1.139	0.883	0.699	0.631	0.676	0.557	0.693	0.594	0.650	0.584	0.784	0.742	0.814	0.898	1.014	1.041	1.175	1.156	1.071	1.159	1.089	0.925	0.913	0.907	0.781	0.680	0.651	0.769	0.801	0.835	0.793	0.818	0.910	0.929	0.894	1.088	0.930	1.012	1.022	1.092	1.125	1.078	0.938	1.000	0.834	0.893
360.0	349.9	367.5	370.4	337.2	259.5	204.6	162.5	159.4	168.9	180.4	188.5	193.0	189.1	185.4	161.7	140.2	121.8	107.7	106.4	177.7	243.3	101.6	48.02	44.69	62.95	109.8	336.4	1651	1784	49.29	2.901	1.353	0.920	0.981	0.696	0.705	0.644	0.636	0.612	0.665	0.579	0.658	0.686	0.840	0.874	0.896	0.957	1.135	1.121	1.070	1.002	1.075	0.980	1.077	0.951	0.817	0.815	0.825	0.770	0.761	0.794	0.817	0.878	0.742	0.899	0.895	0.998	0.839	1.145	0.931	1.036	1.095	0.993	1.009	0.945	0.909	0.849
365.0	334.3	326.6	351.4	336.1	258.6	203.7	168.5	163.8	165.5	177.8	184.9	185.4	183.6	172.6	155.6	138.4	123.9	107.6	99.48	117.0	220.3	190.6	65.70	45.93	42.03	46.80	92.28	505.9	1909	1352	38.82	2.207	1.042	1.116	0.773	0.686	0.673	0.673	0.627	0.606	0.572	0.674	0.694	0.767	0.895	0.814	0.991	1.064	1.026	1.014	1.048	1.038	0.940	0.970	0.885	0.791	0.832	0.789	0.774	0.787	0.802	0.926	0.858	0.761	0.911	0.858	0.770	0.856	0.941	0.971	0.953	1.029	0.982	1.100	0.831	1.002	0.902
370.0	288.5	306.6	330.2	307.0	265.6	210.5	179.5	169.9	174.0	178.5	184.8	185.0	179.0	169.7	153.0	139.1	125.6	112.7	104.5	102.1	135.3	202.2	162.7	72.16	45.81	39.55	42.76	129.9	579.0	1386	1033	171.8	7.711	1.386	0.983	0.798	0.654	0.663	0.617	0.659	0.619	0.617	0.683	0.677	0.839	0.793	0.811	0.965	0.903	0.924	0.920	0.996	1.034	1.003	0.839	0.831	0.814	0.767	0.846	0.900	0.874	0.869	0.900	0.885	0.945	0.925	0.913	0.906	0.949	0.995	0.953	0.992	0.966	0.942	0.877	0.962	0.880
375.0	273.4	289.9	306.5	291.9	258.1	215.1	186.2	185.1	178.3	179.0	183.2	178.6	173.5	163.8	149.8	140.4	130.9	117.5	111.0	103.8	105.9	129.1	196.5	152.6	61.58	45.53	38.38	50.42	145.0	339.6	944.9	1520	238.5	4.715	1.414	0.915	0.758	0.753	0.709	0.620	0.669	0.634	0.686	0.651	0.686	0.726	0.774	0.845	0.856	0.857	0.826	1.036	0.950	0.903	0.879	0.913	0.877	0.845	0.790	0.845	0.861	0.762	0.969	0.899	1.034	0.941	0.943	0.994	0.903	0.940	0.907	0.844	0.883	0.936	0.909	0.902	0.750
380.0	249.7	289.2	293.4	280.9	252.0	219.9	192.3	181.5	177.0	176.0	179.8	175.9	172.0	161.6	150.2	139.5	131.8	122.2	113.3	108.2	102.4	105.2	147.8	201.9	107.4	53.90	42.85	39.10	52.20	89.95	270.9	1262	1255	40.13	2.257	1.128	0.911	0.797	0.771	0.707	0.646	0.569	0.672	0.610	0.796	0.751	0.756	0.797	0.854	0.806	0.798	0.970	1.039	0.916	0.818	0.855	0.921	0.774	0.791	0.788	0.826	0.822	0.849	0.791	0.913	0.870	0.935	0.819	1.049	0.894	0.897	0.920	0.898	0.916	0.860	0.934	0.917
385.0	260.3	274.1	290.4	276.2	253.6	216.7	198.7	186.5	177.6	179.8	181.1	179.1	170.1	161.3	149.7	136.0	131.0	123.7	117.6	112.0	105.6	101.1	111.0	174.1	173.6	64.12	48.79	39.31	35.33	37.49	74.56	395.3	1327	895.2	29.56	1.635	1.001	0.817	0.796	0.830	0.660	0.613	0.601	0.615	0.670	0.735	0.713	0.725	0.865	0.870	0.780	0.886	1.078	0.962	0.943	0.878	0.888	0.905	0.883	0.877	0.866	0.877	0.814	0.911	0.905	0.854	0.982	0.843	0.929	0.907	0.917	0.890	0.868	0.880	0.844	0.925	0.936
390.0	243.8	254.9	268.1	266.5	250.6	223.8	203.0	192.1	187.5	180.5	181.1	175.2	166.6	158.8	146.8	135.8	129.6	125.6	121.3	116.5	109.2	104.4	103.8	120.5	166.4	141.8	72.39	46.94	37.31	31.04	33.80	101.3	400.7	904.8	685.8	128.7	5.321	1.065	0.863	0.820	0.616	0.688	0.514	0.626	0.675	0.717	0.707	0.800	0.829	0.834	0.813	0.915	1.005	0.932	0.974	0.838	0.839	0.958	0.916	0.899	0.809	0.891	0.870	0.873	0.864	0.828	0.838	0.888	0.875	0.800	0.834	0.838	0.880	0.868	0.819	0.904	0.958
395.0	245.6	255.5	264.6	270.8	250.1	230.8	209.0	196.1	187.1	184.0	177.9	170.8	162.1	153.8	143.0	134.5	130.7	125.9	122.3	118.8	112.8	107.1	105.3	103.0	112.8	156.8	133.4	59.32	43.95	35.41	28.59	38.29	100.2	222.8	606.0	970.8	181.1	3.526	1.023	0.895	0.698	0.701	0.741	0.607	0.660	0.712	0.656	0.829	0.841	0.748	0.808	0.823	1.011	0.916	0.887	0.934	0.914	1.020	0.954	0.828	0.861	0.976	0.895	0.866	0.786	0.825	0.909	0.784	0.840	0.838	0.852	0.832	0.819	0.863	0.875	0.865	0.874
400.0	237.0	234.7	264.6	258.3	242.8	230.7	209.6	202.0	189.4	186.5	177.7	167.3	156.7	151.1	140.4	135.2	128.5	126.7	121.6	116.4	114.8	111.3	107.7	100.2	95.57	119.9	161.3	97.87	51.39	39.82	31.21	27.35	35.64	59.01	174.0	786.1	822.7	33.08	1.925	0.990	0.802	0.893	0.760	0.647	0.750	0.728	0.738	0.794	0.846	0.771	0.808	0.921	0.960	0.932	0.947	0.975	0.934	0.962	0.958	0.875	0.885	0.933	0.822	0.896	0.785	0.885	0.904	0.843	0.821	0.811	0.916	0.878	0.935	0.861	0.808	0.808	1.005
405.0	231.3	242.8	256.1	254.8	240.9	229.1	214.2	204.2	191.3	183.4	175.0	170.4	159.1	151.0	140.1	132.2	128.5	124.9	121.9	117.8	114.7	113.1	106.2	101.5	94.03	95.10	133.2	142.8	72.30	44.98	35.17	27.83	23.40	24.26	47.61	244.1	838.0	607.6	25.23	1.389	1.004	0.857	0.742	0.669	0.739	0.690	0.711	0.767	0.802	0.852	0.835	0.841	0.907	0.939	0.978	0.894	0.884	0.946	0.961	0.867	0.908	0.885	0.900	0.942	0.806	0.935	0.877	0.889	0.761	0.778	0.852	0.931	0.929	0.917	0.762	0.776	0.922
