Sample:	'1
File name:	t2025052202联四沟入塌河.FD3
Run date:	'13:22:34, 05/23/2025
Operator:	Administrator
Comment:	'

Instrument
Model:	F-2700 FL Spectrophotometer
Serial number:	23B8-004
ROM Version:	4J14000 07

Instrument parameters
Measurement type:	3-D scan
Data mode:	Fluorescence
EX  Start WL:	220.0 nm
EX  End WL:	600.0 nm
EX Sampling interval:	5.0 nm
EM  Start WL:	230.0 nm
EM  End WL:	650.0 nm
EM Sampling interval:	5.0 nm
Scan speed:	12000 nm/min
EX Slit:	5.0 nm
EM Slit:	5.0 nm
PMT Voltage:	700 V
Response:	Auto 
Corrected spectra:	Off
Contour interval:	50.000

Peak integration
Integration method:	Rectangular
Sensitivity:	1
Threshold:	1.000

Peaks
No.	ApexEX/EM(nm)	Height(Data)
1	225.0/585.0	85.14
2	225.0/605.0	72.79
3	225.0/630.0	60.59
4	230.0/345.0	1903
5	250.0/545.0	211.8
6	255.0/280.0	540.1
7	255.0/555.0	163.6
8	260.0/285.0	530.7
9	260.0/570.0	128.4
10	265.0/410.0	1400
11	265.0/585.0	118.8
12	270.0/300.0	1083
13	270.0/595.0	107.3
14	275.0/305.0	1420
15	275.0/610.0	108.1
16	280.0/310.0	1425
17	280.0/335.0	1362
18	280.0/625.0	93.73
19	285.0/635.0	72.73
20	460.0/340.0	5.449
21	505.0/275.0	2.772
22	510.0/280.0	2.954
23	520.0/285.0	3.356
24	545.0/300.0	5.918
25	555.0/305.0	6.828
26	560.0/310.0	7.090
27	570.0/315.0	7.146
28	580.0/320.0	7.058
29	585.0/325.0	7.125

Data points
	220.0	225.0	230.0	235.0	240.0	245.0	250.0	255.0	260.0	265.0	270.0	275.0	280.0	285.0	290.0	295.0	300.0	305.0	310.0	315.0	320.0	325.0	330.0	335.0	340.0	345.0	350.0	355.0	360.0	365.0	370.0	375.0	380.0	385.0	390.0	395.0	400.0	405.0	410.0	415.0	420.0	425.0	430.0	435.0	440.0	445.0	450.0	455.0	460.0	465.0	470.0	475.0	480.0	485.0	490.0	495.0	500.0	505.0	510.0	515.0	520.0	525.0	530.0	535.0	540.0	545.0	550.0	555.0	560.0	565.0	570.0	575.0	580.0	585.0	590.0	595.0	600.0
230.0	66.46	1161	2796	814.3	39.59	8.121	7.040	5.578	4.782	4.253	4.229	3.946	3.417	3.249	2.493	2.103	1.917	1.743	1.582	1.391	1.315	1.259	1.131	1.028	0.982	0.897	0.894	0.821	0.742	0.774	0.699	0.708	0.638	0.540	0.546	0.529	0.488	0.528	0.458	0.445	0.477	0.517	0.542	0.418	0.380	0.396	1.463	5.587	9.213	6.607	2.277	0.591	0.308	0.307	0.315	0.284	0.330	0.297	0.314	0.315	0.326	0.298	0.264	0.276	0.286	0.302	0.304	0.280	0.299	0.313	0.301	0.276	0.297	0.307	0.299	0.307	0.312
235.0	103.0	333.5	1698	2893	593.4	64.61	6.736	6.184	5.869	5.132	4.608	4.307	3.661	3.141	2.533	2.174	1.981	2.023	1.569	1.341	1.343	1.177	1.267	0.957	1.190	0.863	0.842	0.921	0.799	0.744	0.778	0.592	0.730	0.702	0.514	0.560	0.531	0.523	0.443	0.442	0.485	0.453	0.482	0.548	0.524	0.423	0.664	1.658	3.740	6.600	9.225	9.067	4.324	1.066	0.276	0.273	0.408	0.303	0.311	0.299	0.319	0.314	0.285	0.257	0.281	0.304	0.287	0.291	0.268	0.296	0.305	0.409	0.270	0.297	0.284	0.311	0.347
240.0	142.9	154.6	516.4	2401	3329	474.0	32.00	8.071	6.615	5.453	4.689	4.542	3.711	3.503	2.635	2.409	2.171	1.856	1.746	1.455	1.374	1.168	1.151	1.190	1.145	0.759	0.866	0.795	0.722	0.724	0.785	0.602	0.641	0.613	0.542	0.512	0.503	0.522	0.489	0.474	0.394	0.431	0.407	0.442	0.609	0.640	0.614	0.676	1.107	2.113	5.281	11.97	15.62	10.01	3.347	0.744	0.414	0.306	0.309	0.321	0.332	0.316	0.259	0.237	0.264	0.272	0.317	0.274	0.280	0.251	0.279	0.366	0.315	0.337	0.260	0.307	0.319
245.0	118.6	194.3	181.4	819.3	3416	3413	357.3	18.83	8.569	5.770	5.451	4.974	4.176	3.807	2.834	2.336	2.170	1.784	1.769	1.474	1.506	1.290	1.184	1.120	1.149	1.057	0.900	0.840	0.832	0.758	0.669	0.738	0.679	0.506	0.513	0.542	0.575	0.471	0.574	0.525	0.445	0.424	0.446	0.393	0.519	0.705	0.885	0.660	0.616	0.748	1.453	4.053	11.04	17.57	17.53	9.106	2.467	0.436	0.287	0.339	0.292	0.328	0.264	0.329	0.244	0.301	0.272	0.295	0.340	0.300	0.336	0.350	0.263	0.312	0.281	0.311	0.299
250.0	57.57	136.5	211.4	270.9	1063	3171	4083	1338	89.22	8.699	7.136	5.896	4.942	3.878	3.056	2.637	2.519	2.010	1.787	1.592	1.614	1.442	1.313	1.147	1.138	1.059	1.015	0.876	0.876	0.760	0.699	0.727	0.682	0.611	0.570	0.569	0.572	0.469	0.488	0.515	0.525	0.455	0.453	0.445	0.472	0.468	0.607	0.810	0.862	0.826	0.710	1.235	2.879	5.674	10.77	16.11	21.30	17.99	9.745	2.827	0.519	0.362	0.331	0.342	0.315	0.334	0.330	0.292	0.325	0.331	0.267	0.314	0.303	0.302	0.275	0.282	0.303
255.0	42.56	57.36	144.9	273.9	328.4	798.9	3014	6518	1876	96.63	9.446	6.969	5.812	5.069	3.700	3.017	2.496	2.011	1.972	1.745	1.616	1.280	1.385	1.155	1.281	1.136	1.065	0.981	0.872	0.805	0.742	0.795	0.798	0.617	0.546	0.510	0.571	0.534	0.396	0.578	0.491	0.468	0.401	0.462	0.460	0.409	0.452	0.512	0.532	0.793	1.105	1.245	1.205	1.589	2.802	4.092	8.183	19.46	33.55	28.41	15.37	3.302	0.526	0.408	0.301	0.366	0.320	0.331	0.366	0.355	0.325	0.343	0.339	0.323	0.333	0.287	0.339
260.0	36.52	42.62	64.98	225.6	302.3	248.1	888.0	4905	7459	1474	50.30	9.433	6.354	6.200	4.309	3.288	2.786	2.584	2.227	1.804	1.608	1.492	1.388	1.321	1.126	1.041	1.075	0.977	0.906	0.922	0.785	0.853	0.822	0.743	0.644	0.565	0.541	0.551	0.480	0.502	0.419	0.516	0.455	0.442	0.437	0.389	0.446	0.431	0.410	0.470	0.773	1.347	1.632	1.050	0.987	1.335	2.302	5.440	14.51	31.23	42.81	26.76	11.74	1.674	0.398	0.375	0.365	0.362	0.492	0.359	0.338	0.346	0.324	0.260	0.321	0.362	0.405
265.0	37.36	34.25	33.20	108.6	324.2	255.1	260.2	1554	7076	7794	238.4	24.62	10.02	6.638	4.873	4.087	3.140	2.700	2.264	1.897	1.743	1.504	1.454	1.350	1.393	1.044	1.067	1.101	0.945	0.994	1.000	0.839	0.697	0.821	0.619	0.597	0.566	0.570	0.495	0.500	0.428	0.530	0.465	0.457	0.418	0.448	0.413	0.425	0.364	0.369	0.465	0.772	1.410	1.765	1.392	0.902	0.935	1.681	3.763	9.388	23.64	43.93	50.08	23.94	7.299	0.790	0.403	0.366	0.422	0.348	0.393	0.448	0.305	0.320	0.308	0.315	0.414
270.0	57.96	50.59	39.43	56.18	171.6	356.5	306.5	427.0	2107	6538	8907	3075	70.28	10.83	6.561	5.168	3.983	3.139	2.431	2.346	1.910	1.748	1.551	1.493	1.378	1.245	1.192	1.054	1.008	1.134	0.923	0.924	0.770	0.746	0.666	0.683	0.618	0.559	0.583	0.583	0.526	0.564	0.532	0.517	0.475	0.488	0.477	0.467	0.396	0.337	0.382	0.502	0.775	1.112	1.590	1.984	1.821	1.242	1.459	2.553	5.842	12.68	24.27	37.31	37.88	41.31	16.61	6.641	1.017	0.477	0.432	0.402	0.410	0.377	0.357	0.355	0.394
275.0	119.5	104.7	80.52	59.97	101.2	203.4	451.1	377.5	537.9	1580	5247	9999.9	1350	81.51	11.63	7.211	5.477	4.673	3.078	2.716	2.248	2.000	1.891	1.514	1.469	1.330	1.169	1.077	1.143	1.208	1.133	1.068	0.851	0.867	0.827	0.706	0.680	0.651	0.589	0.635	0.599	0.653	0.687	0.613	0.600	0.824	0.562	0.688	0.491	0.491	0.422	0.472	0.696	0.748	0.846	1.313	2.052	2.772	2.315	1.468	1.773	3.338	5.964	8.965	11.79	29.93	59.93	68.29	26.28	7.738	0.687	0.514	0.428	0.386	0.363	0.377	0.446
280.0	221.8	188.2	151.1	94.13	102.6	150.3	309.7	540.1	318.2	449.6	1447	7508	9999.9	1062	47.10	9.737	6.932	5.129	3.865	3.190	2.391	2.504	1.950	1.790	1.554	1.415	1.448	1.179	1.207	1.142	1.017	1.009	0.935	0.777	0.786	0.829	0.749	0.739	0.823	0.757	0.760	0.683	0.769	0.787	0.814	0.893	0.786	0.798	0.720	0.644	0.519	0.562	0.639	0.701	0.780	0.980	1.356	2.050	2.954	2.909	1.644	1.393	2.014	2.739	3.325	7.829	20.28	46.72	72.78	34.81	21.60	4.322	0.547	0.557	0.416	0.408	0.488
285.0	299.5	291.2	234.7	151.2	129.4	147.0	195.8	449.0	530.7	282.4	486.8	2189	9837	9215	747.5	21.27	8.905	6.037	4.707	3.564	3.050	2.521	2.216	2.080	1.508	1.446	1.559	1.431	1.218	1.136	1.228	1.033	0.921	0.769	0.868	0.870	0.801	0.946	0.975	0.767	0.949	0.691	0.785	0.877	0.956	1.031	0.990	0.831	1.012	0.776	0.649	0.744	0.740	0.884	0.957	0.980	0.928	1.311	1.800	2.924	3.356	2.340	1.549	1.465	1.783	2.700	5.532	12.25	28.54	52.51	80.49	32.59	16.48	1.919	0.528	0.545	0.523
290.0	426.1	470.8	379.9	248.1	175.8	171.4	185.3	267.3	514.0	621.5	435.6	750.3	2802	7790	9390	2673	45.96	9.191	5.985	4.868	3.769	3.046	2.632	2.209	1.895	1.698	1.684	1.532	1.348	1.306	1.284	1.104	1.008	1.023	0.932	0.944	0.914	1.051	1.031	0.950	1.024	0.940	1.002	1.261	1.177	1.278	1.364	1.307	1.292	1.067	0.957	0.953	0.932	0.918	0.942	1.016	1.092	1.140	1.194	1.576	2.255	3.079	3.327	2.968	2.247	2.069	2.637	4.169	7.704	14.09	29.49	40.66	59.09	51.47	40.64	11.90	2.652
295.0	498.2	602.3	519.5	347.0	238.7	211.8	220.4	254.0	350.9	660.7	887.9	613.5	957.0	1978	4725	9999.9	3778	52.39	9.607	6.268	4.755	3.563	3.026	2.677	2.412	2.074	1.740	1.541	1.368	1.219	1.415	1.156	1.277	1.117	0.957	0.976	1.080	1.097	1.141	1.237	1.077	1.075	1.112	1.322	1.477	1.455	1.684	1.661	1.734	1.432	1.170	1.177	1.141	1.139	1.156	1.089	1.269	1.200	1.292	1.473	1.670	2.029	2.528	3.810	4.930	4.031	2.651	2.802	3.687	4.855	8.177	10.48	15.25	23.15	54.12	81.50	35.15
300.0	639.7	703.4	598.1	417.7	292.9	258.7	276.8	309.8	365.5	591.9	1083	955.1	706.0	768.8	1341	6529	9999.9	654.4	32.51	8.021	5.985	4.784	3.659	2.875	2.385	2.256	2.163	1.645	1.611	1.314	1.284	1.258	1.153	1.106	1.018	0.968	1.179	1.334	1.173	1.206	1.252	1.139	1.259	1.478	1.647	1.709	1.753	2.051	1.922	1.622	1.367	1.465	1.342	1.281	1.214	1.341	1.330	1.523	1.552	1.638	1.870	2.028	2.485	3.093	4.414	5.918	5.290	3.625	3.398	3.375	3.738	4.114	4.879	6.548	15.59	38.58	66.97
305.0	714.5	798.0	717.6	498.8	347.6	324.0	360.4	410.8	524.0	700.0	1049	1420	983.4	673.3	636.9	1903	8641	9999.9	489.2	15.45	7.257	5.158	4.295	3.266	2.452	2.305	2.110	1.635	1.790	1.469	1.254	1.277	1.144	1.068	0.959	0.993	1.273	1.170	1.310	1.257	1.224	1.389	1.402	1.502	1.822	1.942	1.983	2.294	2.092	1.866	1.467	1.618	1.553	1.469	1.398	1.590	1.703	1.765	2.065	2.000	2.468	2.713	3.273	3.564	4.095	5.283	6.348	6.828	5.400	4.139	3.774	3.399	3.340	3.699	5.266	10.22	21.34
310.0	752.1	884.6	812.1	559.0	424.2	390.1	440.6	523.9	637.6	810.4	1052	1347	1425	933.7	614.8	721.1	2442	6974	7149	1929	30.74	7.424	5.092	4.038	3.195	2.524	2.284	2.042	1.883	1.653	1.644	1.417	1.210	1.194	1.062	1.168	1.296	1.338	1.382	1.423	1.380	1.553	1.624	1.715	1.850	2.132	2.167	2.654	2.495	2.102	1.751	1.943	1.795	1.729	1.782	1.774	1.957	2.091	2.409	2.528	2.864	3.072	3.595	4.022	4.458	4.769	5.476	6.437	7.090	6.884	5.703	4.344	3.639	3.395	3.370	4.127	6.366
315.0	796.4	1002	917.8	637.4	487.8	456.2	501.3	589.7	721.3	897.9	1110	1263	1360	1341	801.9	538.5	813.5	1742	3888	9943	2646	35.01	7.470	5.207	4.177	3.448	2.790	2.205	2.080	1.816	1.757	1.650	1.328	1.243	1.079	1.166	1.215	1.225	1.437	1.387	1.380	1.520	1.724	1.836	1.927	2.350	2.356	2.861	2.665	2.272	2.022	1.995	2.101	1.890	1.935	2.059	2.226	2.544	2.728	3.028	2.918	3.478	4.024	4.513	4.845	5.176	5.547	5.737	6.045	6.427	7.146	6.721	5.168	3.929	3.219	3.207	3.356
320.0	888.5	1137	1054	751.0	542.8	506.2	555.4	645.5	771.2	964.1	1152	1297	1309	1331	1099	594.8	498.8	590.4	1030	5871	9314	490.7	20.03	6.816	4.685	3.738	3.067	2.737	2.236	1.928	1.822	1.655	1.360	1.307	1.235	1.290	1.248	1.312	1.473	1.587	1.615	1.618	1.688	2.012	2.252	2.666	2.884	3.190	3.171	2.635	2.310	2.339	2.131	1.989	2.192	2.220	2.473	2.765	2.842	3.158	3.336	3.774	4.387	4.744	5.110	5.471	5.439	5.680	6.232	6.146	6.257	6.678	7.058	5.675	4.264	3.242	2.893
325.0	1046	1377	1323	911.4	630.8	559.5	596.4	689.5	817.8	994.1	1203	1332	1341	1223	1224	780.7	473.4	362.1	343.5	1606	7258	7464	369.5	11.10	6.028	4.554	3.602	2.909	2.322	2.115	1.927	1.717	1.378	1.310	1.363	1.085	1.374	1.323	1.477	1.594	1.578	1.689	1.927	2.253	2.498	2.912	3.312	3.566	3.902	3.290	2.891	2.801	2.288	2.164	2.467	2.341	2.623	2.825	3.132	3.307	3.450	4.074	4.391	4.848	5.306	5.576	5.681	5.962	6.179	6.001	5.969	5.863	6.272	7.125	5.809	4.191	3.120
330.0	1131	1578	1582	1169	791.5	635.0	640.3	724.1	854.5	1024	1225	1350	1355	1222	1092	945.0	639.1	363.9	237.7	464.4	1970	5592	5758	1517	23.89	6.393	4.565	3.499	2.677	2.290	1.963	1.780	1.586	1.466	1.356	1.140	1.351	1.370	1.519	1.407	1.533	1.620	1.994	2.160	2.732	3.298	3.484	4.266	4.437	3.887	3.559	3.403	2.898	2.561	2.773	2.612	2.681	2.861	3.209	3.342	3.657	4.089	4.474	5.029	5.179	5.422	5.562	6.041	6.164	6.080	5.900	5.666	5.801	6.132	5.775	5.553	5.031
335.0	1228	1680	1752	1361	962.4	757.7	702.0	772.7	900.7	1062	1227	1351	1362	1240	1052	870.1	825.8	518.2	273.7	254.6	545.8	1342	3529	8286	2122	27.99	6.647	4.412	3.498	2.949	2.573	2.135	1.639	1.637	1.385	1.305	1.297	1.424	1.465	1.487	1.585	1.725	1.906	2.390	3.134	3.516	3.645	4.721	5.040	4.566	4.028	4.052	3.564	3.114	3.233	2.858	3.024	3.106	3.425	3.567	3.853	4.304	4.363	5.218	5.246	5.658	6.005	6.239	6.307	6.014	6.305	5.914	5.601	5.511	5.203	4.973	5.075
340.0	1249	1669	1862	1484	1068	817.0	765.0	806.4	915.1	1066	1216	1340	1360	1245	1060	840.6	770.1	686.4	361.9	243.5	258.7	397.6	938.7	5372	7742	407.4	15.51	5.731	4.058	3.102	2.705	2.328	1.926	1.771	1.390	1.294	1.366	1.356	1.467	1.456	1.521	1.677	2.003	2.426	2.973	3.680	4.078	4.946	5.449	4.892	4.330	4.431	4.028	3.584	3.296	3.032	3.244	3.517	3.646	4.019	3.968	4.269	4.632	5.072	5.298	5.574	5.923	5.710	5.953	6.151	6.218	6.087	6.065	5.482	5.396	4.879	4.700
345.0	1215	1695	1903	1551	1133	888.9	805.3	843.1	947.0	1084	1218	1321	1325	1230	1060	845.6	706.5	702.9	519.5	294.8	229.6	216.1	300.1	1509	6552	6097	56.24	9.259	5.416	3.922	2.849	2.401	1.825	1.637	1.490	1.453	1.278	1.336	1.548	1.489	1.615	1.706	2.002	2.306	2.734	3.706	3.797	4.882	5.153	4.922	4.267	4.699	4.377	4.046	3.545	3.481	3.592	3.487	3.794	4.122	4.116	4.302	4.670	4.986	5.434	5.248	5.823	5.676	5.827	6.173	6.203	6.287	5.927	5.535	5.259	4.871	4.586
350.0	1174	1641	1821	1559	1240	989.1	892.8	912.0	987.4	1100	1207	1282	1281	1196	1055	868.6	724.3	642.4	606.5	464.5	297.5	232.0	205.8	435.5	1855	4920	4708	1241	21.13	5.351	3.643	2.637	2.222	1.894	1.564	1.550	1.254	1.484	1.398	1.499	1.500	1.666	2.054	2.366	2.814	3.375	3.665	4.627	4.769	4.676	4.315	4.813	4.351	4.181	4.082	3.678	3.783	3.884	4.051	4.187	4.271	4.490	4.921	5.177	5.206	5.373	5.698	5.545	5.731	6.031	6.127	6.077	5.487	5.674	5.319	4.896	4.763
355.0	1129	1566	1732	1559	1329	1089	983.9	1004	1047	1131	1210	1260	1239	1180	1058	903.6	765.5	659.3	588.0	595.7	457.6	305.2	241.9	240.6	516.2	1196	3175	6667	413.2	21.99	5.054	3.819	2.760	2.014	1.726	1.512	1.494	1.430	1.382	1.412	1.677	1.764	2.005	2.284	2.423	3.179	3.581	4.382	4.844	4.501	4.334	4.797	4.723	4.609	4.346	4.088	4.143	4.056	4.514	4.299	4.532	4.865	5.161	5.124	5.111	5.424	5.360	5.708	5.423	6.135	5.822	5.732	5.407	5.509	5.276	5.308	5.118
360.0	1086	1494	1645	1543	1358	1149	1058	1073	1100	1157	1215	1245	1226	1163	1063	918.1	802.4	702.4	612.2	592.0	586.6	402.4	290.6	235.0	248.6	358.6	869.1	4742	5927	360.9	11.59	4.629	3.362	2.502	1.801	1.647	1.496	1.421	1.585	1.324	1.607	1.836	1.993	2.217	2.386	3.085	3.384	4.174	4.528	4.463	4.083	4.629	4.867	4.737	4.545	4.192	4.510	4.469	4.719	4.630	4.771	5.000	5.455	5.175	5.323	5.292	5.664	5.579	5.523	5.717	5.862	5.951	5.690	5.561	5.431	5.343	5.132
365.0	1080	1440	1644	1527	1362	1228	1122	1106	1140	1187	1227	1238	1209	1154	1065	938.6	835.3	744.7	658.6	597.3	611.2	537.6	362.3	276.0	225.3	201.1	274.2	1389	5720	3241	51.29	7.388	4.390	2.907	2.173	1.779	1.547	1.420	1.595	1.380	1.457	1.827	1.966	2.181	2.570	2.990	3.094	4.073	4.460	4.317	4.231	4.905	4.875	4.707	4.539	4.605	4.410	4.659	4.832	4.794	5.004	5.187	5.363	5.338	5.457	5.658	5.442	5.500	5.361	5.632	5.665	5.766	5.797	5.800	5.656	5.242	5.097
370.0	1068	1365	1557	1518	1393	1291	1187	1173	1199	1233	1249	1244	1208	1149	1067	960.0	872.0	797.3	722.8	656.2	613.4	609.5	509.9	364.1	274.5	214.5	180.9	390.8	1672	4047	4248	1059	17.84	4.390	2.884	2.158	1.753	1.656	1.557	1.697	1.605	1.762	1.980	2.218	2.506	3.129	3.280	4.059	4.292	4.065	4.167	4.715	5.092	4.831	4.879	4.746	4.790	5.072	4.915	5.115	5.258	5.411	5.753	5.557	5.534	5.724	5.565	5.397	5.251	5.600	5.686	5.473	5.784	5.765	5.554	5.422	5.488
375.0	1047	1332	1510	1505	1455	1329	1256	1228	1249	1278	1294	1255	1224	1149	1065	978.8	904.3	852.8	780.3	717.2	660.1	618.7	608.7	512.5	358.7	274.2	215.8	214.1	456.9	999.2	3102	5709	350.3	19.19	4.290	2.714	2.396	1.829	1.797	1.827	1.849	1.660	2.017	2.276	2.450	3.037	3.295	4.010	4.052	3.830	4.035	4.967	5.316	4.973	5.197	5.117	5.151	4.874	5.221	5.356	5.116	5.554	5.784	5.614	5.550	5.577	5.539	5.694	5.132	5.987	5.816	5.908	5.798	5.749	5.429	5.807	5.799
380.0	1040	1348	1480	1495	1471	1365	1295	1280	1286	1306	1319	1266	1234	1155	1059	981.8	929.1	878.8	816.5	761.0	698.4	643.5	620.4	601.7	449.1	328.0	262.6	213.6	216.3	306.3	881.0	4232	4760	293.7	9.467	3.779	2.676	2.180	1.975	1.954	1.899	1.934	1.981	2.319	2.602	3.081	3.280	3.626	3.907	3.777	3.996	4.710	5.305	5.151	5.257	5.052	5.633	5.331	5.221	5.510	5.463	5.686	5.786	5.830	5.832	5.647	5.733	5.730	5.352	5.683	5.861	5.770	5.631	5.565	5.278	5.473	5.871
385.0	1030	1359	1466	1485	1469	1400	1321	1306	1323	1327	1319	1274	1241	1161	1055	988.8	934.1	890.3	842.1	790.9	733.1	678.8	628.3	620.6	554.3	394.1	311.0	247.4	192.7	176.7	290.5	1283	4652	2692	41.74	6.323	3.319	2.561	2.105	2.070	1.694	1.876	2.169	2.245	2.532	2.999	3.157	3.613	3.984	3.741	3.939	4.611	5.299	5.240	5.300	5.324	5.494	5.292	5.289	5.554	5.499	5.800	5.798	5.736	5.875	5.394	5.929	5.609	5.474	5.792	5.789	5.759	5.383	5.869	5.424	5.517	5.525
390.0	1003	1318	1453	1458	1461	1411	1341	1325	1329	1327	1321	1267	1232	1141	1052	984.5	933.3	901.5	866.4	818.3	770.0	721.7	666.7	617.5	593.6	505.2	383.1	295.9	224.8	179.6	177.0	370.0	1360	3088	3159	822.4	14.94	3.802	2.700	2.289	1.916	2.051	2.302	2.228	2.603	3.062	3.165	3.748	3.968	3.694	4.007	4.689	5.288	5.200	5.310	5.211	5.522	5.441	5.564	5.730	5.705	5.771	6.017	5.836	5.774	5.800	5.669	5.394	5.534	5.498	5.947	5.580	5.587	5.664	5.685	5.777	5.778
395.0	1022	1270	1416	1421	1451	1396	1349	1344	1351	1345	1342	1282	1227	1145	1051	989.0	937.7	906.8	876.3	838.4	801.6	758.3	714.9	661.7	601.0	573.5	489.1	369.2	281.8	223.2	188.6	194.4	370.4	758.2	2210	4102	291.2	17.18	3.950	2.755	2.278	2.176	2.209	2.426	2.745	2.958	3.127	3.581	3.807	3.817	3.900	4.534	5.262	5.198	5.430	5.314	5.590	5.715	5.857	5.716	5.656	6.045	6.128	5.830	6.289	5.801	5.970	5.464	5.531	5.697	5.911	5.429	5.396	5.647	5.503	5.417	5.630
400.0	1071	1252	1391	1410	1440	1418	1368	1360	1362	1363	1355	1317	1249	1156	1062	986.3	939.3	904.9	882.0	850.6	817.7	792.9	741.0	698.1	631.9	587.1	571.7	458.4	338.7	276.0	230.0	185.8	172.8	227.7	611.1	2948	3523	251.5	9.296	3.425	2.716	2.367	2.455	2.431	2.704	3.003	3.061	3.658	3.838	3.565	3.760	4.564	5.089	5.145	5.303	5.197	5.707	5.603	5.703	5.870	5.884	5.953	6.062	5.806	6.130	6.014	5.605	5.740	5.500	5.558	5.693	5.538	5.326	5.611	5.510	5.746	5.920
405.0	982.6	1296	1360	1401	1424	1396	1368	1360	1368	1388	1382	1340	1267	1179	1068	988.8	939.9	910.0	879.2	858.9	827.3	808.4	771.6	737.1	675.9	614.6	596.8	544.8	406.9	326.5	275.4	214.2	154.7	127.9	191.4	868.0	3297	2261	37.54	5.432	3.198	2.751	2.523	2.493	2.740	2.917	3.206	3.673	3.592	3.560	3.828	4.649	4.913	4.949	5.303	5.100	5.744	5.529	5.874	5.696	5.944	5.754	6.115	6.019	6.212	5.899	5.786	5.706	5.521	5.575	5.751	5.542	5.537	5.861	5.430	5.606	5.993
410.0	974.6	1232	1350	1354	1362	1378	1364	1355	1381	1400	1396	1355	1263	1171	1063	984.3	927.8	891.5	871.8	845.9	828.2	812.1	790.5	755.5	705.4	648.9	604.4	573.9	501.2	393.1	317.7	249.3	177.7	129.5	116.7	246.6	949.6	2247	2420	709.1	13.44	3.450	2.849	2.687	2.828	3.233	3.149	3.600	3.677	3.712	3.833	4.434	5.052	4.888	5.264	5.067	5.630	5.494	5.723	5.754	5.803	6.124	6.013	6.101	6.110	6.066	5.713	5.696	5.619	5.574	5.577	5.422	5.430	5.475	5.465	5.553	5.616
415.0	943.9	1199	1262	1304	1330	1316	1333	1341	1358	1378	1382	1319	1231	1132	1038	949.8	893.0	858.7	840.2	821.8	813.3	790.1	781.7	758.8	710.3	659.5	609.0	561.5	526.1	458.7	354.7	270.7	196.4	145.8	111.8	117.5	254.6	544.2	1529	2987	263.5	15.80	3.646	3.090	2.921	3.006	2.934	3.450	3.675	3.727	3.657	4.353	4.738	4.759	5.195	5.015	5.514	5.466	5.717	5.849	6.006	5.830	5.787	5.996	5.907	5.733	5.642	5.678	5.319	5.258	5.092	5.082	5.459	5.301	5.327	5.164	5.382
420.0	897.9	1134	1240	1259	1293	1280	1299	1298	1319	1332	1352	1290	1198	1099	1003	914.2	857.0	821.8	810.5	794.0	783.0	766.1	759.5	739.0	700.7	654.6	603.5	557.0	508.4	482.3	392.2	289.9	213.6	157.7	118.5	94.31	103.2	151.4	404.7	1984	2174	235.5	8.755	3.692	3.157	3.155	3.177	3.388	3.782	3.491	3.550	4.238	4.523	4.580	4.952	4.785	4.996	5.428	5.410	5.619	5.678	5.724	5.858	5.989	5.702	5.391	5.170	5.144	5.391	5.301	5.200	5.094	5.216	5.057	5.441	5.115	5.007
