Sample:	'1
File name:	Default_20240316_153053.FD3
Run date:	'15:24:32, 03/16/2024
Operator:	dsjg
Comment:	'

Instrument
Model:	F-2700 FL Spectrophotometer
Serial number:	2198-001
ROM Version:	4J14000 07

Instrument parameters
Measurement type:	3-D scan
Data mode:	Fluorescence
EX  Start WL:	220.0 nm
EX  End WL:	600.0 nm
EX Sampling interval:	5.0 nm
EM  Start WL:	230.0 nm
EM  End WL:	650.0 nm
EM Sampling interval:	5.0 nm
Scan speed:	12000 nm/min
EX Slit:	5.0 nm
EM Slit:	5.0 nm
PMT Voltage:	700 V
Response:	Auto 
Corrected spectra:	Off
Contour interval:	50.000

Peak integration
Integration method:	Rectangular
Sensitivity:	1
Threshold:	1.000

Peaks
No.	ApexEX/EM(nm)	Height(Data)
1	235.0/385.0	 1072
2	235.0/395.0	 1080
3	235.0/605.0	21.68
4	240.0/265.0	135.6
5	245.0/270.0	119.4
6	245.0/605.0	18.22
7	250.0/625.0	14.60
8	255.0/280.0	172.4
9	255.0/640.0	14.25
10	260.0/285.0	179.6
11	265.0/240.0	4.750
12	265.0/290.0	190.1
13	270.0/300.0	275.7
14	270.0/590.0	37.92
15	275.0/305.0	340.7
16	280.0/615.0	27.35
17	285.0/630.0	22.94
18	290.0/380.0	 1715
19	290.0/640.0	21.03

Data points
	220.0	225.0	230.0	235.0	240.0	245.0	250.0	255.0	260.0	265.0	270.0	275.0	280.0	285.0	290.0	295.0	300.0	305.0	310.0	315.0	320.0	325.0	330.0	335.0	340.0	345.0	350.0	355.0	360.0	365.0	370.0	375.0	380.0	385.0	390.0	395.0	400.0	405.0	410.0	415.0	420.0	425.0	430.0	435.0	440.0	445.0	450.0	455.0	460.0	465.0	470.0	475.0	480.0	485.0	490.0	495.0	500.0	505.0	510.0	515.0	520.0	525.0	530.0	535.0	540.0	545.0	550.0	555.0	560.0	565.0	570.0	575.0	580.0	585.0	590.0	595.0	600.0
230.0	14.01	114.0	415.4	188.2	9.951	5.355	4.348	3.143	3.090	2.827	2.196	2.580	2.518	2.359	1.711	1.680	1.338	1.198	1.058	1.027	1.033	0.839	0.795	0.781	0.611	0.690	0.551	0.589	0.704	0.689	0.531	0.540	0.492	0.445	0.436	0.657	0.683	0.648	0.489	0.572	0.554	0.434	0.421	0.475	0.351	0.368	0.378	0.469	0.845	1.343	1.012	0.482	0.283	0.255	0.295	0.241	0.259	0.252	0.249	0.230	0.225	0.188	0.260	0.234	0.221	0.238	0.180	0.248	0.162	0.228	0.157	0.204	0.183	0.213	0.234	0.184	0.180
235.0	9.862	38.72	306.1	773.5	348.8	18.19	4.137	2.649	4.037	4.082	1.829	2.196	2.197	1.726	1.790	1.554	0.978	1.056	1.076	1.079	1.102	0.861	0.906	0.770	0.497	0.573	0.593	0.632	0.667	0.655	0.735	0.559	0.430	0.410	0.394	0.415	0.629	0.708	0.691	0.614	0.549	0.477	0.523	0.520	0.323	0.418	0.334	0.446	0.478	1.015	1.738	2.411	1.819	0.696	0.268	0.271	0.296	0.270	0.257	0.221	0.210	0.210	0.218	0.427	0.291	0.233	0.182	0.192	0.191	0.225	0.204	0.234	0.237	0.170	0.197	0.095	0.301
240.0	23.33	29.09	104.8	693.2	 1057	304.5	10.15	3.588	3.609	4.750	3.351	2.391	2.213	2.600	1.763	1.202	1.219	1.139	1.012	1.067	1.218	1.138	0.758	0.858	0.611	0.457	0.700	0.804	0.573	0.664	0.670	0.528	0.493	0.306	0.334	0.413	0.455	0.535	0.640	0.603	0.547	0.423	0.588	0.479	0.353	0.430	0.378	0.410	0.518	0.488	0.808	1.907	3.679	3.469	1.859	0.499	0.358	0.248	0.257	0.240	0.219	0.234	0.137	0.385	0.269	0.154	0.136	0.148	0.158	0.208	0.144	0.233	0.183	0.225	0.184	0.163	0.272
245.0	24.19	38.06	38.40	256.7	 1147	916.9	208.9	6.506	3.034	3.180	2.801	3.573	1.872	2.439	2.319	1.399	1.213	1.134	1.199	1.187	0.997	0.891	0.701	1.011	0.879	0.484	0.685	0.667	0.610	0.554	0.656	0.713	0.512	0.378	0.403	0.332	0.469	0.693	0.612	0.575	0.443	0.421	0.482	0.503	0.385	0.407	0.429	0.514	0.461	0.303	0.394	0.761	1.976	4.162	5.299	3.521	1.346	0.442	0.308	0.219	0.166	0.314	0.222	0.285	0.231	0.211	0.102	0.206	0.155	0.151	0.191	0.260	0.126	0.220	0.132	0.224	0.266
250.0	16.37	39.85	56.91	89.28	384.3	 1049	 1216	357.2	35.72	3.876	3.402	3.831	2.318	2.489	1.812	1.874	1.659	1.470	1.183	1.053	0.915	0.841	0.694	0.811	0.923	0.636	0.774	0.641	0.593	0.720	0.787	0.561	0.607	0.539	0.411	0.535	0.326	0.408	0.513	0.549	0.526	0.549	0.518	0.509	0.396	0.371	0.433	0.472	0.485	0.418	0.374	0.419	0.760	1.454	2.603	3.984	5.646	5.263	3.171	1.354	0.262	0.267	0.279	0.254	0.236	0.164	0.227	0.280	0.249	0.148	0.130	0.214	0.158	0.251	0.175	0.203	0.197
255.0	11.65	18.29	55.51	102.7	124.1	272.7	975.6	 1954	480.1	38.91	4.006	4.359	3.334	2.862	2.376	1.930	1.753	1.677	1.080	1.394	1.076	0.932	0.964	0.773	0.927	0.654	0.788	0.651	0.847	0.545	0.523	0.546	0.518	0.525	0.514	0.448	0.372	0.350	0.524	0.268	0.445	0.536	0.625	0.526	0.505	0.357	0.384	0.409	0.454	0.384	0.481	0.644	0.614	0.578	0.831	1.146	1.935	4.045	7.296	8.481	5.033	1.583	0.252	0.210	0.345	0.231	0.225	0.150	0.250	0.214	0.177	0.169	0.213	0.242	0.175	0.215	0.193
260.0	19.31	13.33	31.19	93.53	113.5	80.83	298.9	 1465	 2171	391.4	17.16	4.285	3.001	2.569	2.542	1.959	1.629	1.652	1.328	1.447	1.145	1.067	0.882	0.944	0.910	0.545	0.799	0.809	0.865	0.553	0.650	0.449	0.562	0.607	0.441	0.477	0.307	0.553	0.492	0.398	0.418	0.555	0.574	0.550	0.430	0.480	0.409	0.498	0.446	0.463	0.356	0.521	0.871	0.598	0.454	0.538	0.701	1.235	2.877	6.678	9.755	8.743	3.764	0.746	0.431	0.226	0.246	0.167	0.238	0.227	0.144	0.170	0.245	0.196	0.226	0.263	0.203
265.0	17.01	14.90	17.06	49.72	135.6	85.39	83.13	476.8	 1964	 2196	296.4	9.238	4.949	2.247	2.220	2.152	1.605	1.472	1.427	1.181	1.173	1.245	1.089	0.787	0.775	0.783	0.640	0.677	0.708	0.687	0.635	0.585	0.538	0.513	0.488	0.467	0.440	0.357	0.380	0.384	0.373	0.496	0.638	0.594	0.583	0.580	0.446	0.408	0.400	0.459	0.371	0.333	0.618	0.764	0.730	0.568	0.331	0.488	0.952	1.992	5.222	9.566	11.07	7.052	2.159	0.384	0.291	0.261	0.241	0.215	0.120	0.138	0.210	0.191	0.229	0.203	0.165
270.0	13.07	18.47	17.13	21.83	65.48	119.4	97.70	127.2	591.4	 1669	 2190	 1026	74.26	3.784	2.893	1.964	2.013	1.692	1.514	1.170	0.963	0.942	1.007	0.796	0.904	0.826	0.772	0.572	0.686	0.647	0.603	0.532	0.641	0.567	0.537	0.487	0.393	0.390	0.365	0.419	0.424	0.347	0.423	0.597	0.604	0.556	0.484	0.487	0.391	0.382	0.417	0.319	0.492	0.518	0.657	0.808	0.688	0.483	0.513	0.674	1.471	2.827	5.219	7.553	9.313	8.491	5.349	1.930	0.396	0.219	0.182	0.201	0.201	0.193	0.193	0.245	0.222
275.0	16.50	23.53	25.70	19.08	22.94	60.31	140.9	127.8	155.9	414.0	 1232	 2699	 1516	81.99	3.913	2.508	2.520	1.953	1.877	1.232	1.099	1.239	1.158	0.742	0.859	0.837	0.789	0.638	0.757	0.784	0.640	0.692	0.601	0.485	0.608	0.487	0.418	0.423	0.377	0.394	0.305	0.347	0.318	0.496	0.389	0.581	0.419	0.521	0.427	0.441	0.409	0.339	0.434	0.395	0.416	0.433	0.718	0.891	0.880	0.574	0.675	0.813	1.385	1.947	2.851	5.640	10.23	12.44	8.091	2.153	0.287	0.150	0.148	0.295	0.227	0.286	0.179
280.0	22.89	32.70	36.63	21.23	15.57	27.03	90.65	172.4	115.3	122.4	357.4	 1613	 2814	 1160	30.81	3.424	2.501	2.300	1.932	1.491	1.465	1.044	1.059	0.835	0.859	0.935	1.152	0.845	0.791	1.044	0.583	0.686	0.714	0.616	0.445	0.550	0.447	0.367	0.302	0.305	0.422	0.392	0.324	0.376	0.371	0.576	0.434	0.585	0.567	0.456	0.460	0.458	0.466	0.383	0.417	0.387	0.456	0.709	0.991	1.044	0.658	0.521	0.576	0.712	0.881	1.650	4.045	8.845	13.22	12.03	5.296	0.889	0.214	0.161	0.192	0.208	0.220
285.0	20.66	37.28	42.39	24.33	18.71	20.69	43.59	138.6	179.6	94.75	121.9	503.3	 1919	 2651	209.6	9.626	3.806	2.445	1.842	1.613	1.618	1.167	1.358	1.226	0.852	0.864	0.961	0.844	0.694	0.859	0.715	0.681	0.879	0.651	0.450	0.410	0.465	0.509	0.371	0.346	0.476	0.390	0.268	0.333	0.293	0.453	0.516	0.563	0.664	0.555	0.382	0.453	0.426	0.410	0.394	0.356	0.383	0.435	0.675	0.914	0.999	0.708	0.514	0.524	0.532	0.791	1.231	2.681	5.958	11.44	14.49	9.925	3.285	0.383	0.190	0.385	0.315
290.0	28.33	46.68	56.56	39.36	32.13	29.53	38.62	78.18	160.3	190.1	133.5	174.6	571.5	 1508	 2031	769.0	51.26	3.504	2.174	1.845	1.666	1.438	1.319	1.182	0.966	1.185	0.917	0.770	0.851	0.861	0.675	0.717	0.709	0.650	0.458	0.574	0.422	0.388	0.307	0.360	0.446	0.322	0.358	0.377	0.251	0.353	0.465	0.525	0.662	0.573	0.524	0.516	0.519	0.503	0.504	0.402	0.388	0.448	0.429	0.554	0.725	0.938	1.019	0.894	0.682	0.644	0.710	0.983	1.796	3.332	5.982	8.849	11.48	10.41	6.899	2.446	0.448
295.0	37.87	56.64	75.99	64.40	50.95	54.10	58.20	70.55	107.5	190.0	256.9	162.9	203.0	403.8	929.0	 2158	 1170	55.26	3.328	2.333	1.905	1.285	1.659	1.224	1.344	1.160	0.959	1.089	1.014	0.890	0.633	0.734	0.996	0.613	0.511	0.541	0.345	0.512	0.436	0.390	0.373	0.332	0.305	0.348	0.266	0.408	0.283	0.451	0.691	0.627	0.619	0.633	0.550	0.620	0.492	0.494	0.522	0.612	0.532	0.594	0.668	0.746	0.887	1.135	1.207	1.114	0.712	0.739	0.823	1.110	1.698	2.411	3.430	6.091	11.94	16.16	10.01
300.0	28.40	59.81	89.82	81.28	75.40	77.22	77.49	91.46	102.6	154.9	275.7	265.8	153.0	164.6	289.4	 1196	 2579	919.7	20.66	3.021	2.379	1.946	1.558	1.311	1.485	1.092	1.107	1.060	0.966	0.867	0.724	0.652	0.642	0.589	0.586	0.527	0.506	0.464	0.360	0.383	0.419	0.412	0.320	0.344	0.360	0.262	0.267	0.413	0.503	0.607	0.522	0.665	0.675	0.615	0.468	0.496	0.582	0.585	0.526	0.609	0.611	0.645	0.792	0.880	1.045	1.571	1.384	1.028	0.665	0.692	0.782	0.957	1.198	1.816	4.450	10.13	16.84
305.0	36.56	68.91	98.54	104.8	99.66	107.0	107.2	119.1	124.2	154.8	235.2	340.7	237.0	141.7	142.2	389.5	 1540	 2762	123.8	7.017	2.722	2.336	1.788	1.534	1.373	1.253	0.998	1.116	1.078	1.003	0.973	0.798	0.751	0.541	0.502	0.594	0.530	0.456	0.430	0.467	0.294	0.443	0.456	0.302	0.323	0.246	0.323	0.413	0.516	0.565	0.588	0.736	0.643	0.702	0.587	0.574	0.646	0.699	0.688	0.694	0.765	0.736	0.837	0.718	0.930	1.273	1.618	1.867	1.105	0.750	0.804	0.596	0.843	0.907	1.299	3.036	7.520
310.0	36.73	79.06	126.6	140.3	135.2	145.0	145.7	149.0	158.5	179.0	221.5	302.5	343.4	230.3	160.6	171.7	469.2	 1397	 2147	 1220	33.86	3.390	2.279	1.918	1.446	1.449	1.288	1.149	1.163	0.798	0.961	0.762	0.639	0.702	0.699	0.570	0.536	0.453	0.426	0.444	0.429	0.477	0.438	0.354	0.304	0.340	0.332	0.407	0.603	0.465	0.607	0.757	0.745	0.818	0.779	0.844	0.800	0.822	0.820	0.788	0.961	0.762	0.959	0.867	1.031	1.120	1.224	1.428	1.660	1.371	1.322	0.930	0.930	0.858	0.827	1.162	2.159
315.0	51.48	94.92	160.0	175.3	168.0	192.0	192.1	182.4	200.5	219.6	259.4	301.1	348.4	394.6	285.3	179.6	194.1	377.1	868.6	 2400	810.3	37.33	3.311	2.679	1.921	1.491	1.301	1.162	1.067	0.973	0.863	0.731	0.726	0.507	0.654	0.627	0.489	0.503	0.410	0.405	0.351	0.544	0.290	0.332	0.371	0.307	0.372	0.520	0.462	0.577	0.548	0.770	0.933	1.023	0.962	0.869	0.979	0.902	0.964	0.988	1.031	1.016	0.974	1.188	1.144	1.360	1.340	1.128	1.316	1.557	2.024	1.661	1.465	1.022	0.992	0.908	1.155
320.0	58.23	109.4	173.8	210.5	198.8	202.1	215.0	213.3	232.0	261.4	307.3	347.5	377.0	426.5	421.6	247.1	170.0	162.4	260.8	 1125	 2796	656.4	15.15	3.035	2.630	1.834	1.648	1.327	1.062	1.111	0.900	0.727	0.773	0.520	0.748	0.609	0.561	0.434	0.433	0.451	0.395	0.546	0.418	0.366	0.334	0.319	0.298	0.535	0.594	0.576	0.705	0.781	0.905	0.989	1.028	0.969	0.950	0.966	1.025	1.029	1.018	0.961	1.088	1.304	1.353	1.506	1.349	1.443	1.389	1.666	1.897	2.027	2.266	1.814	1.224	1.082	0.996
325.0	60.18	120.4	198.3	243.7	227.0	232.2	240.2	240.9	262.2	305.1	357.4	406.3	442.1	457.8	495.1	383.8	214.9	147.8	126.9	344.4	 1528	 2991	90.67	6.268	3.234	2.395	1.818	1.245	1.150	1.275	1.090	0.820	1.047	0.672	0.738	0.544	0.709	0.510	0.377	0.387	0.582	0.465	0.517	0.493	0.519	0.415	0.333	0.573	0.513	0.597	0.670	0.878	0.919	0.913	1.016	1.070	1.038	1.123	1.037	1.180	1.187	1.193	1.265	1.304	1.577	1.455	1.560	1.693	1.859	1.806	1.951	2.212	2.386	2.673	2.160	1.582	1.180
330.0	69.82	164.2	269.4	327.8	279.6	256.7	263.2	281.9	318.9	379.0	454.1	530.1	572.3	575.1	568.7	524.3	392.5	228.7	153.4	156.8	444.4	 1481	 2382	 1222	27.91	3.417	2.207	1.639	1.571	1.277	1.170	0.966	0.926	0.807	0.836	0.639	0.705	0.581	0.432	0.523	0.527	0.475	0.503	0.532	0.416	0.466	0.469	0.578	0.619	0.815	0.814	0.941	1.082	1.058	1.145	1.100	1.181	1.205	1.147	1.325	1.300	1.302	1.420	1.476	1.771	1.862	1.917	2.293	2.251	2.396	2.455	2.413	2.695	2.778	2.879	2.541	2.106
335.0	93.33	211.8	341.5	434.3	379.8	323.0	300.2	324.8	383.0	469.4	568.4	679.6	735.2	754.6	725.7	633.7	575.3	413.8	248.0	181.1	193.3	403.3	914.7	 2874	633.3	32.71	3.536	2.191	1.632	1.511	1.171	1.121	1.085	0.797	0.911	0.685	0.707	0.550	0.559	0.581	0.501	0.467	0.393	0.594	0.326	0.523	0.519	0.741	0.818	0.966	0.989	1.225	1.300	1.118	1.202	1.131	1.372	1.531	1.356	1.630	1.605	1.683	1.717	1.854	2.152	2.509	2.369	2.794	2.635	2.875	3.259	3.190	3.354	3.389	3.128	3.079	2.900
340.0	96.28	215.5	423.5	516.4	439.6	363.5	352.9	369.6	430.0	540.7	673.8	791.8	865.4	891.3	861.2	755.6	652.7	568.8	370.8	246.7	185.7	181.1	289.4	 1306	 3253	543.1	14.50	3.387	2.122	1.752	1.541	1.118	1.222	1.028	0.945	0.835	0.647	0.609	0.657	0.535	0.484	0.469	0.447	0.540	0.408	0.466	0.522	0.736	0.883	1.139	1.265	1.413	1.573	1.317	1.354	1.303	1.436	1.481	1.486	1.714	1.927	1.792	1.864	2.180	2.258	2.533	3.053	3.050	3.185	3.539	3.836	3.909	3.647	3.836	3.600	3.465	3.193
345.0	96.23	261.8	493.3	593.6	499.7	415.0	387.1	407.2	478.8	602.4	758.7	901.2	992.5	 1021	994.9	884.1	736.2	647.9	526.3	335.8	237.8	183.2	151.1	401.4	 1896	 3297	75.20	6.568	2.923	2.091	1.425	1.216	1.113	1.095	0.888	0.775	0.731	0.682	0.564	0.677	0.468	0.538	0.474	0.524	0.455	0.519	0.570	0.715	0.917	1.189	1.451	1.733	1.731	1.602	1.352	1.316	1.444	1.631	1.735	1.734	1.891	2.007	2.327	2.566	2.589	2.827	3.200	3.379	3.778	4.008	4.350	4.523	4.404	4.224	3.986	3.988	3.883
350.0	101.0	297.3	572.6	697.0	595.5	487.3	458.1	480.3	561.8	699.1	867.1	 1042	 1153	 1180	 1181	 1059	887.1	749.6	657.3	526.8	357.4	258.7	192.5	198.6	541.9	 1753	 2511	 1140	25.61	3.356	2.130	1.666	1.306	1.150	1.003	0.894	0.750	0.670	0.573	0.640	0.546	0.601	0.456	0.353	0.529	0.500	0.603	0.832	1.112	1.375	1.529	1.939	1.936	1.757	1.677	1.538	1.578	1.646	1.907	2.059	2.092	2.416	2.701	2.839	3.243	3.359	3.692	3.879	4.221	4.528	4.787	4.883	5.150	5.034	4.829	4.760	4.599
355.0	110.1	345.6	656.3	792.3	682.8	559.8	518.0	550.9	664.2	803.9	991.2	 1177	 1297	 1339	 1350	 1221	 1057	893.7	758.1	668.0	539.3	366.4	269.4	205.6	229.9	463.3	961.4	 2963	560.6	31.25	3.534	2.318	1.833	1.158	1.089	1.021	0.868	0.600	0.716	0.682	0.617	0.641	0.466	0.496	0.515	0.407	0.615	0.850	1.266	1.549	1.745	2.160	2.069	1.920	1.829	1.754	1.886	1.895	1.848	2.151	2.316	2.599	2.825	3.137	3.651	3.897	4.269	4.337	4.727	5.053	5.132	5.145	5.612	5.670	5.524	5.442	5.468
360.0	123.6	358.7	724.7	881.1	750.8	630.7	588.2	603.0	707.4	865.1	 1058	 1262	 1380	 1441	 1468	 1340	 1176	998.7	849.7	728.0	653.7	481.4	342.9	250.8	191.8	194.0	283.1	 1364	 3170	498.5	15.19	3.153	2.112	1.603	1.134	1.147	0.874	0.935	0.696	0.750	0.702	0.548	0.448	0.608	0.489	0.497	0.628	0.857	1.300	1.728	1.778	2.370	2.333	1.994	2.021	1.893	2.120	1.874	2.119	2.280	2.579	2.886	2.952	3.564	3.631	4.260	4.264	4.607	5.330	5.442	5.899	5.896	6.375	6.394	6.232	6.300	5.707
365.0	129.6	384.5	743.2	921.7	803.1	693.0	638.3	658.1	766.1	912.0	 1122	 1341	 1465	 1531	 1559	 1440	 1266	 1095	938.7	801.7	698.8	602.6	419.6	304.0	222.2	163.0	134.0	388.4	 1936	 3146	378.3	7.220	2.643	1.795	1.307	1.287	0.932	0.805	0.804	0.704	0.630	0.478	0.526	0.620	0.584	0.517	0.750	0.898	1.351	1.833	1.926	2.317	2.435	2.240	2.393	1.917	2.344	1.972	2.217	2.499	2.605	2.907	3.285	3.476	3.770	4.350	4.587	5.223	5.413	6.063	5.793	6.361	6.623	6.810	6.699	6.699	6.272
370.0	153.0	401.8	790.9	985.5	879.1	749.1	717.8	730.9	826.0	976.8	 1188	 1407	 1539	 1614	 1640	 1531	 1366	 1200	 1041	893.4	761.2	669.3	558.2	399.6	286.3	205.7	147.5	164.8	530.3	 1744	 2632	 1093	23.35	3.110	2.030	1.460	1.138	0.875	0.842	0.741	0.697	0.590	0.619	0.485	0.570	0.618	0.789	1.084	1.405	1.883	1.922	2.549	2.575	2.407	2.410	2.250	2.454	2.377	2.479	2.795	2.944	3.074	3.337	3.681	4.033	4.630	4.873	5.271	5.583	6.198	6.421	6.519	6.996	7.016	6.995	7.297	6.950
375.0	167.7	434.2	835.8	 1039	951.2	809.1	774.4	794.3	886.2	 1042	 1229	 1461	 1595	 1682	 1704	 1595	 1431	 1276	 1132	979.1	833.5	715.9	633.0	532.5	370.7	268.6	198.9	156.3	201.0	449.5	 1030	 2940	 1524	30.25	3.539	2.120	1.391	1.113	0.925	0.837	0.629	0.648	0.550	0.538	0.545	0.664	0.874	1.166	1.503	1.851	2.037	2.748	2.753	2.538	2.710	2.243	2.519	2.875	2.559	2.873	3.009	3.277	3.278	3.615	3.987	4.800	4.833	5.522	5.752	6.223	6.694	6.886	7.280	7.613	7.374	7.425	7.344
380.0	158.3	444.0	839.6	 1046	978.2	848.5	817.3	823.5	903.2	 1061	 1276	 1479	 1614	 1682	 1715	 1619	 1458	 1316	 1174	 1027	883.8	752.6	665.1	599.0	460.0	326.1	246.7	186.5	153.2	178.5	295.4	 1373	 3174	426.0	16.52	3.195	2.043	1.220	1.018	0.855	0.635	0.555	0.671	0.624	0.584	0.731	0.762	1.071	1.664	1.970	2.131	2.480	2.758	2.712	2.686	2.348	2.711	2.662	2.790	2.785	3.097	3.081	3.449	3.748	4.313	4.933	5.122	5.638	5.998	6.409	6.813	6.975	7.342	7.678	7.551	7.471	6.765
385.0	157.7	426.8	832.1	 1072	984.4	889.5	846.9	857.1	926.2	 1078	 1280	 1471	 1626	 1681	 1701	 1628	 1476	 1330	 1199	 1051	914.2	785.9	689.4	615.2	545.5	394.2	291.1	226.5	175.8	142.5	137.5	388.8	 1869	 2717	317.2	7.666	2.794	1.607	1.167	0.954	0.883	0.696	0.749	0.591	0.589	0.653	0.873	1.183	1.719	1.860	2.191	2.609	2.749	2.726	2.632	2.523	2.612	2.626	2.804	3.013	3.324	3.379	3.807	3.953	4.211	4.857	5.418	5.556	5.839	6.103	6.650	7.092	7.487	7.132	7.338	7.386	7.116
390.0	161.8	432.2	832.0	 1063	 1006	906.8	870.9	881.5	947.9	 1082	 1265	 1453	 1590	 1650	 1670	 1588	 1450	 1320	 1196	 1063	941.6	826.8	729.8	642.9	579.7	500.3	379.3	293.0	233.6	185.6	144.9	170.3	515.5	 1501	 2123	891.5	21.88	3.449	1.853	1.297	1.007	0.763	0.725	0.633	0.588	0.739	0.847	1.200	1.675	1.898	2.093	2.706	2.765	2.814	2.679	2.636	2.769	2.969	3.081	3.054	3.233	3.337	3.733	3.940	4.346	4.745	5.175	5.408	5.840	6.181	6.517	6.685	7.228	7.177	7.219	7.485	7.397
395.0	162.9	441.1	796.1	 1080	 1014	922.4	891.3	901.9	956.1	 1071	 1247	 1423	 1523	 1596	 1588	 1522	 1402	 1284	 1165	 1052	943.1	845.7	760.4	676.9	601.9	546.8	490.1	377.6	303.4	250.3	200.1	167.6	210.1	406.1	830.2	 2330	 1277	28.82	3.801	2.149	1.288	0.819	0.833	0.672	0.747	0.744	0.793	1.166	1.679	1.904	2.102	2.657	2.745	3.035	2.734	2.601	2.936	2.711	2.976	3.033	3.293	3.371	3.645	3.670	4.185	4.343	4.848	5.395	5.941	6.026	6.442	6.623	6.730	6.875	7.151	7.379	6.881
400.0	159.7	406.9	784.9	 1046	 1004	921.7	882.6	905.8	954.1	 1063	 1228	 1368	 1468	 1524	 1533	 1464	 1354	 1237	 1140	 1036	934.3	851.8	778.5	703.2	624.6	564.4	530.4	453.6	361.2	301.7	248.8	200.0	171.0	182.9	258.5	 1079	 2507	369.7	17.40	3.302	1.766	1.255	0.974	0.870	0.815	0.757	0.843	1.167	1.487	1.840	1.911	2.641	2.935	2.872	2.645	2.540	2.951	2.850	2.978	2.900	3.210	3.355	3.566	3.834	4.170	4.402	4.657	4.924	5.571	5.739	6.103	6.358	6.763	6.369	6.872	7.232	6.669
405.0	144.3	397.9	808.0	 1019	987.2	921.8	881.4	883.6	955.9	 1043	 1187	 1336	 1415	 1453	 1473	 1409	 1306	 1191	 1099	 1007	917.5	844.7	781.3	712.2	645.3	582.1	542.8	515.6	426.8	351.4	296.8	241.0	193.2	159.3	143.2	321.0	 1407	 2159	289.4	8.646	2.583	1.630	1.131	0.891	0.695	0.849	0.827	1.226	1.460	1.947	2.055	2.579	2.717	2.920	2.584	2.724	2.972	2.782	2.988	3.199	3.174	3.480	3.503	3.657	4.128	4.219	4.638	4.728	5.321	5.683	5.918	6.232	6.539	6.355	6.713	6.842	6.495
410.0	145.9	377.5	750.3	960.0	943.5	902.9	890.0	876.2	933.2	 1011	 1137	 1258	 1333	 1364	 1378	 1311	 1220	 1126	 1038	957.2	885.0	820.8	766.1	716.4	660.1	608.1	560.7	533.1	501.5	420.0	351.8	294.9	237.8	188.8	147.7	154.1	391.8	 1151	 1687	731.2	20.07	2.589	1.457	1.114	0.837	0.811	0.895	1.246	1.454	1.882	2.013	2.468	2.638	2.699	2.761	2.727	2.901	2.886	3.059	3.134	3.279	3.428	3.616	3.502	3.818	4.220	4.516	4.531	5.023	5.174	5.468	6.015	5.978	5.968	6.166	6.226	6.147
415.0	139.5	367.3	689.7	885.5	904.8	881.9	854.5	865.6	895.9	970.8	 1070	 1189	 1251	 1251	 1262	 1198	 1125	 1033	962.1	896.4	832.6	775.6	741.3	703.2	662.2	621.5	572.6	541.3	521.6	492.3	411.1	341.5	282.7	223.1	174.4	137.1	156.8	300.4	631.2	 1759	 1001	26.43	2.656	1.544	1.081	0.880	0.792	1.268	1.341	1.684	1.866	2.291	2.488	2.551	2.580	2.619	2.911	2.928	3.004	3.077	3.119	3.312	3.314	3.341	3.700	3.850	4.251	4.384	4.756	4.762	4.944	5.520	5.476	5.563	5.773	5.743	5.641
420.0	124.7	334.1	654.0	845.3	856.8	843.0	834.8	846.4	874.2	936.1	 1027	 1124	 1183	 1183	 1173	 1130	 1054	966.8	909.8	844.1	786.0	742.5	714.1	683.1	658.0	616.0	585.2	545.9	519.8	510.2	462.0	373.8	306.3	245.4	192.5	146.1	114.1	118.2	178.5	767.1	 1886	339.8	16.92	2.155	1.465	1.129	0.990	1.216	1.408	1.641	1.779	2.198	2.468	2.283	2.767	2.365	2.583	2.833	2.625	2.961	3.024	3.012	3.092	3.479	3.532	3.788	3.972	4.105	4.202	4.462	4.886	5.262	5.195	5.512	5.249	5.119	5.339
