Sample:	'1
File name:	Default_20211126_123023.FD3
Run date:	'12:24:02, 11/26/2021
Operator:	user
Comment:	'

Instrument
Model:	F-2700 FL Spectrophotometer
Serial number:	2190-003
ROM Version:	4J14000 07

Instrument parameters
Measurement type:	3-D scan
Data mode:	Fluorescence
EX  Start WL:	220.0 nm
EX  End WL:	600.0 nm
EX Sampling interval:	5.0 nm
EM  Start WL:	230.0 nm
EM  End WL:	650.0 nm
EM Sampling interval:	5.0 nm
Scan speed:	12000 nm/min
EX Slit:	5.0 nm
EM Slit:	5.0 nm
PMT Voltage:	700 V
Response:	Auto 
Corrected spectra:	Off
Contour interval:	50.000

Peak integration
Integration method:	Rectangular
Sensitivity:	1
Threshold:	1.000

Peaks
No.	ApexEX/EM(nm)	Height(Data)
1	225.0/305.0	488.8
2	235.0/355.0	 1026
3	235.0/505.0	306.0
4	240.0/515.0	282.4
5	245.0/530.0	245.1
6	250.0/545.0	213.4
7	255.0/280.0	524.9
8	255.0/555.0	169.7
9	260.0/285.0	671.1
10	260.0/565.0	150.5
11	265.0/290.0	716.0
12	265.0/580.0	136.1
13	270.0/295.0	985.7
14	270.0/590.0	118.3
15	275.0/305.0	 1204
16	275.0/335.0	768.6
17	275.0/605.0	113.9
18	280.0/310.0	 1096
19	280.0/615.0	93.12
20	285.0/315.0	 1014
21	285.0/630.0	71.50
22	290.0/325.0	858.8
23	290.0/640.0	57.85
24	295.0/330.0	674.8
25	300.0/335.0	600.9
26	305.0/340.0	547.2
27	310.0/350.0	438.7
28	315.0/355.0	428.4
29	315.0/400.0	444.0
30	320.0/360.0	444.5
31	325.0/365.0	410.8
32	330.0/375.0	414.8
33	330.0/410.0	427.9
34	335.0/380.0	432.7
35	340.0/385.0	408.3
36	350.0/400.0	375.3
37	355.0/405.0	355.8
38	360.0/410.0	337.4
39	365.0/420.0	323.6
40	430.0/505.0	38.69
41	445.0/525.0	22.99
42	470.0/560.0	7.619
43	475.0/565.0	6.581
44	485.0/265.0	4.229
45	505.0/275.0	4.986
46	510.0/280.0	5.707
47	520.0/285.0	6.150
48	525.0/290.0	6.008
49	535.0/295.0	7.604
50	550.0/305.0	8.640
51	555.0/310.0	7.938
52	570.0/315.0	7.524
53	575.0/320.0	8.001
54	580.0/325.0	7.043
55	590.0/330.0	6.294

Data points
	220.0	225.0	230.0	235.0	240.0	245.0	250.0	255.0	260.0	265.0	270.0	275.0	280.0	285.0	290.0	295.0	300.0	305.0	310.0	315.0	320.0	325.0	330.0	335.0	340.0	345.0	350.0	355.0	360.0	365.0	370.0	375.0	380.0	385.0	390.0	395.0	400.0	405.0	410.0	415.0	420.0	425.0	430.0	435.0	440.0	445.0	450.0	455.0	460.0	465.0	470.0	475.0	480.0	485.0	490.0	495.0	500.0	505.0	510.0	515.0	520.0	525.0	530.0	535.0	540.0	545.0	550.0	555.0	560.0	565.0	570.0	575.0	580.0	585.0	590.0	595.0	600.0
230.0	154.1	574.9	 4780	 3750	269.1	40.01	32.43	26.83	23.92	21.26	18.89	16.27	14.15	11.70	9.822	8.317	7.461	7.021	6.319	5.815	5.346	4.898	4.800	4.407	4.191	4.034	3.699	3.651	3.569	3.541	3.393	3.307	3.119	2.898	2.941	2.627	2.545	2.714	2.463	2.442	2.429	2.458	2.546	2.347	2.197	2.252	2.544	8.426	19.11	17.48	7.865	2.591	1.912	1.952	1.849	2.044	2.041	2.028	2.057	2.128	2.045	2.003	2.076	2.106	2.051	2.084	2.200	2.235	2.202	2.104	2.106	2.231	2.195	2.091	2.249	2.239	2.339
235.0	205.5	231.0	 1745	 5319	 3628	297.8	34.76	27.64	24.81	19.48	18.80	16.28	14.32	12.04	10.39	8.302	7.931	7.406	6.482	5.960	5.354	4.970	4.581	4.639	3.916	4.204	4.353	3.928	3.323	3.712	3.355	3.443	3.333	3.024	2.833	2.566	2.474	2.746	2.453	2.626	2.548	2.294	2.334	2.435	2.400	2.326	2.045	3.475	7.190	12.46	19.81	21.09	9.330	3.147	1.929	1.962	1.865	1.882	2.083	1.961	2.161	1.989	2.039	2.086	2.023	2.086	2.032	2.315	2.092	2.140	2.087	2.228	2.199	2.157	2.162	2.289	2.393
240.0	210.6	207.1	491.4	 2498	 6428	 2985	200.6	30.89	26.43	21.16	19.28	17.43	15.65	11.92	10.79	9.275	7.767	7.472	5.996	6.020	5.827	5.165	4.578	4.841	4.121	4.280	3.797	3.730	3.635	3.593	3.858	3.537	3.519	2.957	2.987	2.450	2.622	2.670	2.305	2.664	2.390	2.163	2.380	2.468	2.542	2.513	2.216	2.443	3.041	4.455	9.666	23.14	25.82	19.10	6.879	2.342	1.980	1.949	2.048	1.934	2.009	1.828	2.067	2.249	2.019	2.236	2.002	2.010	2.060	1.955	2.071	2.136	2.323	2.230	2.206	2.461	2.301
245.0	171.2	236.6	246.6	674.3	 3577	 7369	 2385	107.6	28.63	23.93	20.57	18.34	16.67	13.35	11.51	9.351	7.721	7.648	6.270	5.835	5.601	5.203	4.926	4.526	4.004	4.203	3.854	3.596	3.776	3.681	3.486	3.534	3.068	3.024	2.963	2.603	2.768	2.691	2.400	2.567	2.362	2.320	2.208	2.557	2.431	2.457	2.468	2.513	2.215	2.116	3.425	8.363	17.12	32.64	25.31	16.16	4.266	2.099	2.131	2.133	2.075	2.035	1.845	2.338	2.250	2.252	2.031	2.141	1.999	1.950	2.092	2.071	2.297	2.251	2.079	2.411	2.330
250.0	137.4	165.0	272.4	320.9	934.9	 3615	 7259	 5193	172.8	29.74	23.10	20.54	17.88	14.60	11.63	9.840	8.794	7.392	6.903	6.000	5.491	5.317	4.614	4.740	4.207	4.406	3.893	3.995	3.822	3.661	3.512	3.285	3.111	3.156	2.812	2.564	2.592	2.690	2.474	2.522	2.486	2.364	2.297	2.434	2.216	2.170	2.219	2.410	2.598	2.188	2.353	3.576	5.408	11.42	17.79	31.27	33.84	33.63	12.46	4.564	2.154	2.049	2.017	2.222	2.263	2.119	2.208	2.200	2.112	1.989	2.071	2.105	2.064	2.251	2.137	2.165	2.439
255.0	136.4	122.2	165.3	341.1	399.2	863.5	 2562	 9498	 8690	221.3	29.71	22.98	19.29	15.40	12.70	10.57	8.754	8.180	7.289	6.538	5.494	5.686	4.703	4.823	4.307	4.175	4.245	3.997	3.785	3.739	3.629	3.430	3.180	3.064	3.053	2.696	2.723	2.621	2.500	2.407	2.490	2.344	2.320	2.456	2.149	2.261	2.094	2.240	2.065	2.197	2.906	3.359	2.959	4.261	5.592	8.932	14.63	36.91	66.00	29.39	17.53	3.341	2.007	2.148	2.046	2.266	2.092	2.148	2.049	2.265	2.230	2.361	2.130	2.385	2.243	2.242	2.424
260.0	142.1	107.8	110.8	215.1	415.9	332.5	640.5	 4088	9999.9	 7979	158.1	28.73	21.75	16.84	13.96	11.11	9.353	8.421	6.704	6.792	5.674	5.694	5.357	5.214	4.439	4.200	3.951	3.941	4.014	3.920	3.772	3.434	3.273	2.895	3.006	2.876	2.478	2.599	2.397	2.531	2.307	2.391	2.292	2.515	2.294	2.228	2.121	2.296	1.854	1.945	2.316	3.596	3.534	3.204	3.080	3.660	4.880	11.47	31.50	60.92	86.11	26.98	12.22	2.448	2.349	2.246	2.038	2.112	2.203	2.332	2.333	2.128	2.188	2.410	2.414	2.276	2.296
265.0	148.0	112.5	84.45	107.9	307.7	405.6	236.5	 1035	 5772	9999.9	 1794	98.05	26.55	19.21	15.02	11.80	9.553	8.407	7.376	7.022	6.423	5.802	5.225	4.704	4.814	4.160	3.982	4.121	4.205	3.695	3.819	3.799	3.391	2.938	3.091	2.823	2.482	2.723	2.422	2.471	2.214	2.259	2.341	2.425	2.267	2.314	2.266	2.194	1.955	1.814	1.911	2.825	3.189	4.229	3.334	2.598	2.804	4.394	9.218	21.08	55.08	92.32	98.30	22.14	6.023	2.388	2.218	2.277	2.410	2.236	2.321	2.039	1.974	2.263	2.145	2.454	2.320
270.0	156.5	134.2	107.9	84.20	136.7	324.2	402.3	350.8	 1450	 5788	9999.9	 6910	112.3	27.85	18.53	14.57	11.04	9.338	8.367	6.998	6.798	5.888	5.292	5.092	5.111	4.402	4.317	4.388	4.018	4.040	3.868	3.772	3.340	3.400	3.086	2.832	2.624	2.675	2.437	2.503	2.404	2.414	2.375	2.494	2.397	2.344	2.177	2.199	2.000	1.684	1.801	2.141	2.234	2.951	3.503	4.020	3.797	3.252	4.044	6.453	14.87	30.29	58.47	79.72	67.79	70.30	14.53	5.699	2.272	2.228	2.348	2.243	2.220	2.216	2.155	2.235	2.401
275.0	216.8	199.8	158.9	104.7	83.93	137.0	342.5	424.1	442.9	 1375	 3672	9999.9	9999.9	131.0	25.35	18.45	14.12	10.68	9.208	8.206	7.092	6.461	5.631	5.292	5.189	4.737	4.449	4.141	4.270	4.036	3.803	3.436	3.462	3.351	3.329	2.896	2.823	2.710	2.655	2.666	2.388	2.446	2.618	2.563	2.414	2.427	2.292	2.405	2.170	1.775	1.933	2.124	2.097	2.380	2.360	2.943	4.375	4.986	3.961	3.447	5.299	8.415	15.11	20.70	29.37	83.39	137.7	114.0	20.17	3.622	2.549	2.478	2.234	2.415	2.310	2.248	2.283
280.0	258.4	261.3	209.2	132.1	87.42	87.79	169.7	524.9	382.2	432.4	970.1	 5229	9999.9	 7610	90.19	21.87	16.74	11.88	10.72	8.629	7.957	6.514	5.905	5.177	5.784	5.038	4.681	4.407	4.233	3.870	4.002	3.737	3.636	3.563	3.289	2.844	2.750	2.773	2.582	2.830	2.682	2.444	2.385	2.694	2.701	2.605	2.525	2.688	2.408	2.063	1.877	2.078	2.036	2.065	2.015	2.457	3.080	4.257	5.707	4.761	3.679	4.034	5.570	6.967	8.990	24.32	62.32	132.5	156.6	29.77	13.67	2.768	2.255	2.482	2.236	2.420	2.463
285.0	310.6	337.7	262.1	168.1	101.8	86.10	112.0	302.8	671.1	332.0	383.0	 1420	 8067	9999.9	 5115	55.29	21.01	14.22	11.79	10.02	8.633	6.916	6.310	5.497	5.386	4.815	4.800	4.588	4.328	4.021	3.791	4.250	3.650	3.521	3.360	3.044	2.925	2.913	2.668	2.922	2.599	2.626	2.683	2.776	2.938	2.898	2.907	2.768	2.640	2.080	1.928	2.376	1.877	2.124	1.901	2.343	2.432	3.227	4.139	5.846	6.150	4.003	3.662	4.019	4.648	7.831	16.89	41.43	98.55	155.7	142.6	24.15	6.541	2.395	2.396	2.611	2.317
290.0	363.2	411.9	330.6	213.4	130.7	104.7	114.7	184.6	441.7	716.0	491.6	552.4	 2134	 7828	9999.9	9999.9	63.54	20.52	15.26	11.82	9.548	8.061	6.927	6.331	5.814	5.326	4.888	4.800	4.257	4.159	4.256	4.032	3.618	3.498	3.420	3.160	3.157	3.072	2.827	2.899	2.522	2.775	2.794	2.915	2.853	3.175	2.884	3.017	2.709	2.151	2.177	2.472	2.126	2.188	2.119	2.480	2.478	2.848	3.163	3.851	5.180	6.008	5.950	4.835	4.049	4.511	6.469	12.06	25.52	49.69	88.37	114.0	89.55	86.11	16.26	6.548	2.567
295.0	389.4	452.5	383.2	257.7	171.3	144.4	156.5	204.5	312.2	557.6	985.7	613.0	751.5	 1936	 4196	9999.9	 5661	73.65	21.11	15.85	12.05	9.055	8.183	6.755	6.079	5.806	4.982	4.993	4.422	4.269	4.442	4.069	3.688	3.629	3.474	3.408	3.426	3.130	3.017	2.931	2.810	2.741	2.860	2.891	3.039	3.128	2.995	3.191	2.956	2.285	2.435	2.579	2.291	2.554	2.325	2.621	2.543	2.914	3.272	3.256	3.880	4.622	5.580	7.604	6.787	4.769	4.840	5.786	8.568	13.78	22.20	29.19	41.46	111.0	171.0	129.1	23.56
300.0	407.2	482.5	428.9	303.0	206.5	180.3	216.1	260.8	339.4	464.7	922.7	 1037	565.6	679.7	 1135	 6682	9999.9	 4553	56.46	19.50	14.45	10.13	8.557	7.646	6.812	6.126	5.361	4.836	5.032	4.615	4.530	4.447	3.638	3.422	3.507	3.406	3.468	3.228	2.956	2.998	2.793	2.954	2.965	2.873	3.080	3.042	3.147	3.099	2.953	2.544	2.378	2.826	2.452	2.701	2.684	2.817	2.975	3.246	3.475	3.431	3.742	4.299	4.845	6.240	7.452	7.664	6.199	5.167	5.135	6.029	7.734	9.394	11.94	31.85	82.57	165.9	180.3
305.0	413.3	488.8	437.6	323.8	241.7	222.9	258.4	317.2	391.1	493.0	727.6	 1204	830.2	475.2	459.8	 1758	9999.9	9999.9	 3299	38.77	17.00	12.04	10.11	8.026	7.032	6.771	5.492	5.325	5.083	4.593	4.485	4.783	3.840	3.739	3.801	3.332	3.495	3.093	2.810	2.992	2.879	3.007	3.251	2.952	3.090	3.151	3.250	3.416	3.072	2.628	2.360	2.925	2.735	2.732	2.786	3.042	3.401	3.608	3.876	3.947	4.055	4.330	4.687	5.366	6.103	7.824	8.640	6.735	5.329	4.922	4.800	5.164	5.475	9.676	21.56	53.47	124.9
310.0	432.6	486.2	462.4	348.8	267.7	248.2	298.7	359.6	441.4	536.4	667.7	903.6	 1096	719.4	374.6	546.4	 2561	 9426	9999.9	 7992	45.66	16.62	12.31	9.355	8.417	7.060	6.014	5.795	5.472	5.020	4.734	4.548	3.780	3.758	3.726	3.653	3.652	3.138	3.014	3.016	3.184	3.009	3.158	2.937	3.077	3.404	3.086	3.306	3.162	2.565	2.597	2.940	2.716	2.840	2.937	3.167	3.453	3.778	4.031	4.321	4.348	4.590	4.879	5.280	5.524	6.140	7.017	7.938	7.585	6.728	5.072	4.401	4.334	4.787	7.314	14.43	31.91
315.0	429.5	480.1	492.6	367.0	277.3	278.3	332.3	387.4	471.3	587.2	672.2	772.2	844.4	 1014	581.5	315.0	686.7	 2188	 4976	9999.9	 3953	55.53	16.76	12.62	10.20	7.732	6.864	6.670	5.793	5.549	4.985	4.461	4.040	4.223	3.524	3.832	3.407	3.212	3.163	2.955	2.978	3.140	3.016	3.128	2.986	3.640	3.059	3.284	3.076	2.691	2.550	3.030	2.913	3.024	2.866	3.168	3.435	3.861	4.202	4.335	4.510	5.158	5.163	5.463	5.751	5.920	5.838	6.465	6.756	7.486	7.524	5.916	4.536	4.136	4.353	5.804	9.721
320.0	428.6	540.5	535.5	403.9	320.9	298.5	347.9	407.3	491.5	596.9	684.6	748.8	747.7	864.9	853.1	352.8	290.5	578.0	 1226	 7592	9999.9	 3379	44.36	15.71	12.45	9.320	7.713	6.888	6.265	6.242	5.416	4.549	4.437	3.933	3.664	3.687	3.404	3.096	3.261	3.415	3.126	3.069	3.240	3.064	2.986	3.779	3.285	3.533	3.310	2.857	2.711	3.135	3.144	2.993	3.054	3.453	3.476	3.954	4.407	4.291	4.541	5.187	5.220	5.282	5.698	5.843	5.498	5.987	5.706	6.084	7.515	8.001	6.114	4.414	3.808	4.114	4.983
325.0	459.9	623.3	622.2	495.5	367.2	333.0	366.9	427.1	504.7	597.9	701.3	754.1	729.6	709.2	858.8	567.8	244.0	238.0	346.6	 1960	9999.9	9999.9	 2637	32.60	14.40	10.84	8.370	7.459	6.667	6.495	5.283	5.181	4.591	4.313	4.009	3.668	3.653	3.281	3.221	3.063	2.972	3.299	3.319	3.162	3.193	3.529	3.619	3.652	3.648	3.150	2.931	3.227	3.188	3.265	3.350	3.475	3.723	4.164	4.382	4.662	4.756	4.675	5.234	5.740	5.468	5.590	5.987	5.890	5.761	5.628	6.184	6.936	7.043	6.252	4.520	4.021	4.016
330.0	521.4	681.6	745.9	628.3	472.8	411.5	433.0	470.4	532.7	628.4	713.4	764.8	745.4	674.5	657.9	674.8	452.1	215.2	172.9	512.5	 2593	 9117	9999.9	 6798	166.5	14.74	10.76	8.662	7.415	6.744	6.085	5.566	4.769	4.387	4.014	3.689	3.773	3.401	3.422	3.289	3.063	3.248	3.227	3.187	3.344	3.683	3.702	4.172	4.081	3.542	3.398	3.794	3.633	3.637	3.574	3.864	3.918	4.202	4.392	4.553	4.738	5.051	5.259	5.597	5.657	5.630	5.906	5.960	5.887	5.897	5.715	5.652	6.029	6.141	6.294	5.775	4.948
335.0	553.8	744.6	877.6	765.1	618.3	526.2	532.7	524.6	573.8	645.9	727.7	768.6	767.0	689.9	595.0	528.4	600.9	395.8	176.7	214.3	652.7	 2104	 5390	9999.9	 9585	47.24	14.92	10.39	8.800	7.280	6.777	5.609	5.134	4.539	4.040	3.874	3.690	3.523	3.291	3.576	3.249	3.250	3.158	3.522	3.589	3.992	4.071	4.396	4.523	4.052	3.819	4.290	4.076	4.037	3.949	4.312	4.308	4.440	4.729	4.566	5.097	5.219	5.560	5.475	5.668	5.790	5.759	6.255	5.951	6.136	5.883	5.538	5.474	4.919	5.290	5.922	6.577
340.0	560.8	787.3	945.1	883.8	729.7	633.7	611.2	585.9	609.8	662.5	712.8	757.5	759.2	688.4	591.0	478.5	491.2	547.2	268.8	169.3	235.8	539.2	 1331	 7772	9999.9	 2867	39.90	13.13	10.42	8.194	7.113	5.975	5.456	4.546	4.225	4.033	3.692	3.421	3.389	3.268	3.273	3.173	3.621	3.791	3.648	3.971	4.141	4.696	4.664	4.268	4.244	4.817	4.288	4.453	4.383	4.818	4.466	4.802	5.028	4.727	5.310	5.328	5.598	5.609	5.524	5.788	5.834	6.130	5.482	6.089	6.008	5.703	5.191	5.199	4.747	4.875	5.915
345.0	569.4	860.4	956.1	931.2	820.3	713.8	690.5	646.6	638.4	675.9	713.2	745.1	748.5	681.1	592.5	477.3	411.1	501.7	426.3	205.1	162.2	204.6	366.3	 2028	9999.9	9999.9	 2324	29.37	12.60	9.566	7.598	6.435	5.602	4.807	4.598	3.841	3.975	3.555	3.641	3.484	3.361	3.167	3.432	3.537	3.480	4.136	4.118	4.788	4.888	4.431	4.207	5.153	4.610	4.751	4.590	4.810	4.868	4.978	4.860	4.928	5.397	5.611	5.682	5.577	5.593	5.781	5.750	5.807	5.824	5.900	5.839	5.763	5.484	4.968	5.108	4.792	5.325
350.0	590.3	835.9	982.7	990.0	905.6	818.9	780.4	699.3	668.5	684.9	697.2	706.9	713.9	664.7	590.9	486.6	403.0	384.4	438.7	369.4	205.2	158.1	174.7	522.3	 2623	 8514	9999.9	 5703	157.2	13.67	9.458	7.308	5.816	5.370	4.758	4.086	4.051	3.800	3.571	3.575	3.243	3.318	3.462	3.447	3.672	4.253	4.127	4.857	5.083	4.338	4.482	5.161	4.851	5.175	4.943	4.960	5.270	5.393	5.328	5.179	5.471	5.526	5.699	5.388	5.473	5.472	5.398	5.825	5.774	5.868	5.597	5.692	5.523	5.264	5.207	5.039	4.803
355.0	580.1	824.0	966.5	 1026	973.9	897.0	849.8	761.6	705.7	704.8	680.8	685.0	677.0	643.7	591.2	494.7	419.0	365.6	350.6	428.4	361.2	196.3	161.6	213.1	654.7	 1964	 4923	9999.9	 8461	44.60	12.91	9.549	7.017	6.016	4.754	4.512	4.108	3.734	3.562	3.787	3.341	3.378	3.426	3.331	3.688	4.175	4.265	4.717	4.995	4.514	4.770	5.583	5.116	5.346	5.274	5.406	5.929	5.686	5.312	5.427	5.496	5.660	5.751	5.411	5.367	5.289	5.416	5.579	5.840	5.688	5.847	5.468	5.607	5.154	5.014	5.042	5.389
360.0	559.7	774.0	958.2	 1020	999.3	942.9	881.7	788.5	721.7	701.2	684.0	669.3	658.7	630.7	583.6	500.7	430.5	381.7	337.1	375.5	444.5	293.8	188.6	167.6	235.4	503.3	 1210	 6723	9999.9	 2676	36.68	11.50	8.348	6.501	5.362	4.417	4.130	4.030	4.101	3.957	3.413	3.450	3.454	3.701	3.677	4.269	4.260	4.554	4.668	4.337	4.691	5.667	5.097	5.321	5.259	5.872	5.747	5.627	5.517	5.864	5.445	5.679	5.619	5.737	5.306	5.484	5.309	5.834	5.527	5.639	5.313	5.686	5.760	5.326	5.173	5.152	5.168
365.0	567.6	788.5	938.6	 1021	 1017	969.4	910.9	811.8	732.6	702.0	674.2	658.5	649.0	614.0	577.4	509.3	447.0	399.5	352.6	348.2	406.2	410.8	254.2	180.6	163.9	193.2	330.9	 1749	 9081	9999.9	 2223	27.48	10.27	7.875	6.035	5.025	4.629	4.510	3.897	3.629	3.544	3.567	3.629	3.500	3.762	4.117	4.234	4.653	4.524	4.339	4.684	5.721	5.346	5.716	5.349	5.773	5.756	5.746	5.511	5.755	5.476	5.552	5.466	5.671	5.372	5.388	5.216	5.507	5.225	5.544	5.105	5.328	5.717	5.422	5.026	5.322	5.230
370.0	538.5	754.2	916.0	997.0	 1006	986.0	927.8	817.2	743.9	706.5	667.8	641.2	622.4	596.6	563.8	507.7	461.2	420.9	376.4	369.1	361.7	403.4	392.7	254.3	179.7	153.0	155.5	451.0	 2346	 7846	9999.9	 5404	140.7	10.92	7.460	5.711	4.916	4.605	4.095	3.724	3.691	3.715	3.491	3.590	3.827	4.002	4.087	4.512	4.597	4.389	4.625	5.672	5.442	5.774	5.482	5.753	5.726	5.686	5.497	5.467	5.560	5.430	5.481	5.203	5.452	5.157	5.298	5.306	5.219	5.591	5.366	5.391	5.439	5.248	5.385	5.720	5.606
375.0	510.9	702.6	861.1	944.0	984.9	960.8	919.3	809.3	737.9	706.1	653.1	621.0	599.6	579.3	547.5	506.0	472.3	438.3	402.2	397.3	370.1	364.0	414.8	389.3	245.6	177.7	144.8	180.7	584.2	 1807	 4657	9999.9	 7396	37.91	10.12	7.088	5.584	4.739	4.535	3.712	3.600	3.895	3.539	3.510	3.888	4.193	4.099	4.605	4.452	4.210	4.593	5.765	5.306	5.552	5.300	5.670	5.642	5.589	5.559	5.326	5.325	5.539	5.746	5.520	5.410	5.143	5.005	5.351	5.363	5.120	5.216	5.358	5.656	5.477	5.489	5.587	5.543
380.0	528.8	707.1	816.6	918.1	958.6	951.6	902.0	811.9	730.1	683.8	648.5	616.2	585.7	565.4	537.3	505.0	475.9	447.3	418.8	415.0	389.6	365.8	383.7	432.7	335.6	210.9	161.9	138.4	207.2	457.8	 1133	 6220	9999.9	 2287	30.13	8.742	6.406	5.448	5.000	4.172	3.743	3.960	3.867	3.766	3.863	4.039	3.960	4.432	4.350	4.174	4.386	5.418	5.158	5.704	5.336	5.599	5.592	5.630	5.377	5.194	5.325	5.492	5.213	5.118	5.331	5.222	5.331	5.199	5.179	5.243	5.681	5.070	5.525	5.089	5.222	5.011	5.466
385.0	497.6	667.6	797.8	882.3	943.0	925.3	899.7	793.3	723.2	674.3	625.0	602.2	577.6	552.8	529.8	496.5	474.2	452.9	429.6	430.0	405.4	381.5	374.8	395.3	408.3	270.4	187.6	144.7	140.4	171.5	303.6	 1602	 7833	9999.9	 1792	21.13	7.825	6.110	5.298	4.421	3.931	3.853	3.815	3.641	3.930	4.150	3.834	4.502	4.217	4.047	4.199	5.468	5.190	5.489	5.076	5.798	5.485	5.698	5.286	5.224	5.097	5.339	5.154	5.297	5.370	4.964	5.474	5.048	5.029	5.189	4.933	5.092	5.430	5.022	5.245	5.491	5.645
390.0	491.1	652.9	764.3	842.8	882.8	893.2	860.4	770.1	688.5	654.2	610.3	580.0	556.5	539.5	517.3	489.7	469.9	453.0	431.2	438.2	420.1	400.2	392.8	374.5	390.7	365.4	256.1	178.7	153.9	133.0	137.0	405.3	 2006	 6345	 9631	 3880	116.8	8.290	6.042	5.105	4.377	3.943	3.908	3.865	3.915	3.985	3.921	4.495	4.280	3.923	4.310	5.375	4.946	5.500	5.167	5.497	5.488	5.357	5.292	5.240	5.125	5.181	5.181	5.217	4.905	5.004	5.130	5.091	5.172	4.960	5.004	5.204	5.379	5.243	5.222	5.354	5.600
395.0	486.0	635.4	737.6	798.5	841.0	848.2	822.2	740.0	659.0	621.0	595.1	567.1	544.7	523.9	504.4	479.3	466.2	451.1	433.2	440.3	425.9	413.4	412.0	385.5	365.8	368.6	355.3	238.3	185.0	151.8	123.1	155.4	492.4	 1455	 3994	9999.9	 5398	32.14	7.895	6.144	5.136	4.405	4.010	4.047	4.093	3.820	3.877	4.365	4.012	3.734	4.077	5.116	4.764	5.331	5.137	5.318	5.352	5.600	5.506	5.129	5.185	5.258	5.531	5.010	4.734	4.762	5.001	5.034	5.207	4.785	5.006	5.299	5.313	5.407	5.217	5.367	5.485
400.0	469.0	601.9	704.0	758.6	812.3	815.5	794.8	717.3	658.1	610.0	583.3	554.5	535.8	516.2	493.7	474.4	459.1	444.5	426.3	444.0	430.1	419.9	424.6	395.6	370.4	348.9	375.3	311.5	223.3	175.7	135.7	112.2	165.3	362.5	963.1	 5187	9999.9	 1912	25.38	7.005	5.608	5.046	4.233	4.098	4.212	4.159	3.729	4.416	3.839	3.704	4.097	5.038	4.501	5.107	5.042	5.173	5.514	5.385	5.202	5.053	5.076	5.098	5.219	4.812	4.723	4.541	4.743	4.904	4.803	5.314	5.076	5.022	5.093	4.930	5.324	5.303	5.704
405.0	467.4	578.8	683.1	747.7	789.8	794.4	778.2	696.5	655.8	601.6	578.2	550.0	533.4	512.0	484.1	470.4	453.0	434.1	423.9	441.4	429.2	416.8	425.4	405.0	378.6	347.8	348.6	355.8	276.8	199.2	153.7	117.0	103.8	127.3	248.2	 1316	 6145	 8930	 1511	18.33	6.553	5.255	4.864	4.319	4.064	4.080	4.069	4.229	3.996	3.760	3.966	4.778	4.714	5.330	5.057	5.150	5.486	5.253	5.260	4.826	4.976	5.170	4.902	4.780	4.618	4.488	4.745	4.779	4.976	5.232	5.168	5.003	4.796	5.176	5.276	5.013	5.643
410.0	466.4	557.7	644.8	725.2	753.4	756.6	753.6	681.0	630.9	586.2	564.3	529.9	518.4	496.0	476.6	454.0	437.9	421.6	409.0	427.0	421.0	412.1	427.9	409.7	388.4	356.1	333.3	333.7	337.4	256.3	182.0	136.0	103.6	87.90	96.96	323.3	 1557	 4990	 7005	 2893	101.8	7.010	5.278	4.744	4.402	4.163	3.850	4.164	3.998	3.732	4.003	4.867	4.628	4.991	4.668	4.804	5.302	5.132	4.875	4.852	5.040	5.007	4.735	4.680	4.761	4.613	4.702	4.763	4.939	5.100	5.093	4.982	4.918	4.986	4.990	4.953	5.476
