Sample:	'1
File name:	Default_20230213_103146.FD3
Run date:	'10:25:25, 02/13/2023
Operator:	user
Comment:	'

Instrument
Model:	F-2700 FL Spectrophotometer
Serial number:	2190-003
ROM Version:	4J14000 07

Instrument parameters
Measurement type:	3-D scan
Data mode:	Fluorescence
EX  Start WL:	220.0 nm
EX  End WL:	600.0 nm
EX Sampling interval:	5.0 nm
EM  Start WL:	230.0 nm
EM  End WL:	650.0 nm
EM Sampling interval:	5.0 nm
Scan speed:	12000 nm/min
EX Slit:	5.0 nm
EM Slit:	5.0 nm
PMT Voltage:	700 V
Response:	Auto 
Corrected spectra:	Off
Contour interval:	50.000

Peak integration
Integration method:	Rectangular
Sensitivity:	1
Threshold:	1.000

Peaks
No.	ApexEX/EM(nm)	Height(Data)
1	245.0/265.0	59.13
2	245.0/370.0	 1422
3	245.0/380.0	 1452
4	250.0/270.0	117.2
5	250.0/375.0	 1448
6	250.0/545.0	57.33
7	255.0/555.0	41.89
8	265.0/580.0	114.3
9	270.0/295.0	 2090
10	270.0/590.0	126.1
11	275.0/305.0	 2169
12	280.0/340.0	 1088
13	280.0/355.0	 1059
14	280.0/380.0	 1153
15	285.0/390.0	 1175
16	290.0/395.0	 1191
17	290.0/640.0	9.611
18	320.0/360.0	624.1
19	485.0/380.0	-0.889
20	490.0/360.0	-0.924
21	495.0/375.0	-0.791
22	505.0/370.0	-0.789
23	535.0/295.0	-0.157
24	540.0/300.0	0.631
25	550.0/305.0	0.060

Data points
	220.0	225.0	230.0	235.0	240.0	245.0	250.0	255.0	260.0	265.0	270.0	275.0	280.0	285.0	290.0	295.0	300.0	305.0	310.0	315.0	320.0	325.0	330.0	335.0	340.0	345.0	350.0	355.0	360.0	365.0	370.0	375.0	380.0	385.0	390.0	395.0	400.0	405.0	410.0	415.0	420.0	425.0	430.0	435.0	440.0	445.0	450.0	455.0	460.0	465.0	470.0	475.0	480.0	485.0	490.0	495.0	500.0	505.0	510.0	515.0	520.0	525.0	530.0	535.0	540.0	545.0	550.0	555.0	560.0	565.0	570.0	575.0	580.0	585.0	590.0	595.0	600.0
230.0	-448.2	-352.0	32.76	302.3	-153.9	-152.7	-130.4	-109.1	-100.7	-87.50	-77.76	-67.06	-55.66	-45.58	-37.39	-30.14	-25.47	-21.93	-18.79	-17.23	-15.37	-14.09	-13.47	-11.71	-11.23	-10.38	-10.24	-9.382	-9.407	-9.353	-8.956	-8.190	-7.799	-7.214	-6.559	-5.990	-5.880	-5.930	-5.575	-5.404	-5.275	-5.368	-5.411	-4.901	-4.997	-4.904	-4.257	-4.200	-3.224	-2.609	-3.069	-4.034	-3.818	-4.078	-4.022	-4.119	-4.346	-4.344	-4.346	-4.334	-4.193	-4.528	-4.272	-4.322	-4.436	-4.418	-4.428	-4.490	-4.508	-4.621	-4.516	-4.606	-4.738	-4.729	-4.645	-4.846	-4.987
235.0	-450.8	-364.2	-138.9	 1120	509.8	-91.66	-124.7	-112.3	-98.21	-84.27	-77.13	-63.82	-52.25	-45.68	-36.59	-30.68	-26.84	-21.74	-18.76	-17.43	-15.22	-13.36	-12.63	-11.74	-11.61	-10.03	-9.656	-9.584	-8.893	-9.534	-8.885	-8.120	-7.860	-7.054	-6.856	-5.743	-5.775	-5.684	-5.661	-5.623	-5.381	-5.427	-5.446	-5.273	-4.914	-5.167	-4.213	-4.311	-3.645	-2.717	-1.775	-2.303	-2.683	-3.955	-4.176	-4.298	-4.443	-4.117	-4.209	-4.224	-4.279	-4.499	-4.441	-4.314	-4.432	-4.419	-4.611	-4.489	-4.601	-4.444	-4.601	-4.355	-4.577	-4.510	-4.791	-5.019	-4.939
240.0	-448.3	-376.0	-246.0	509.7	 1258	611.8	-94.36	-111.6	-98.12	-89.44	-75.81	-63.88	-51.20	-41.77	-38.11	-30.54	-25.35	-22.89	-18.66	-15.59	-15.13	-14.04	-12.91	-11.83	-11.40	-11.06	-9.449	-9.932	-9.113	-9.276	-8.806	-7.794	-7.747	-6.851	-6.857	-6.132	-6.023	-5.884	-5.499	-5.594	-5.558	-5.410	-5.510	-4.883	-4.859	-4.694	-4.269	-4.213	-3.929	-3.199	-2.768	-1.544	0.452	-1.458	-3.347	-4.129	-4.302	-4.119	-4.424	-4.068	-4.214	-4.422	-4.245	-4.146	-4.450	-4.434	-4.534	-4.491	-4.277	-4.663	-4.516	-4.395	-4.690	-4.691	-4.754	-4.790	-4.952
245.0	-443.2	-357.8	-281.8	-36.67	778.7	 1839	498.4	-94.89	-95.40	-87.57	-75.55	-59.38	-49.00	-42.40	-37.47	-29.52	-24.42	-22.51	-18.04	-17.18	-15.51	-13.77	-13.14	-12.29	-11.60	-10.23	-9.979	-9.836	-9.079	-9.278	-9.069	-8.149	-7.379	-7.238	-6.968	-6.453	-5.964	-5.744	-5.464	-5.644	-5.364	-5.304	-5.479	-5.174	-4.872	-4.680	-4.178	-4.176	-3.915	-3.209	-3.257	-3.355	-0.880	0.593	0.302	-1.647	-3.975	-4.108	-4.298	-4.180	-4.310	-4.472	-4.532	-4.619	-4.545	-4.557	-4.521	-4.539	-4.574	-4.458	-4.628	-4.774	-4.783	-4.983	-4.907	-4.865	-4.861
250.0	-455.4	-379.3	-255.9	-137.8	75.87	972.3	 2020	 1091	44.51	-84.53	-75.05	-61.92	-54.44	-43.64	-37.34	-31.01	-25.33	-21.58	-19.03	-17.15	-14.74	-13.60	-13.35	-11.88	-11.05	-10.36	-9.816	-9.423	-9.265	-9.313	-8.642	-8.357	-7.584	-7.557	-6.628	-6.277	-6.022	-6.117	-5.542	-5.553	-5.405	-5.312	-5.367	-4.963	-4.980	-4.691	-4.267	-4.371	-3.788	-3.283	-3.206	-3.903	-3.117	-2.539	-0.849	0.963	1.538	0.479	-1.991	-3.973	-4.302	-4.480	-4.313	-4.500	-4.546	-4.559	-4.554	-4.480	-4.573	-4.368	-4.555	-4.796	-4.724	-4.575	-4.888	-4.754	-4.994
255.0	-464.3	-377.2	-266.7	-96.87	-35.02	116.9	724.9	 2812	 1598	91.05	-69.21	-63.94	-53.01	-44.01	-37.48	-29.38	-26.33	-20.59	-18.60	-16.49	-13.91	-13.85	-12.50	-10.66	-11.60	-10.82	-9.794	-9.220	-9.003	-9.217	-8.990	-8.432	-7.790	-7.383	-6.684	-6.398	-6.201	-5.804	-5.738	-5.430	-5.457	-4.973	-5.355	-5.055	-5.008	-4.649	-4.051	-4.509	-3.975	-3.148	-3.210	-3.803	-3.711	-3.655	-3.159	-3.161	-1.972	2.034	5.989	4.441	-1.229	-4.065	-4.235	-4.310	-4.449	-4.505	-4.568	-4.680	-4.548	-4.436	-4.544	-4.619	-4.490	-4.497	-4.610	-4.619	-5.016
260.0	-466.5	-369.8	-286.5	-153.6	13.87	-20.47	87.80	 1247	 3380	 1315	26.15	-59.23	-51.29	-43.05	-36.12	-28.68	-25.55	-20.04	-18.34	-17.31	-15.16	-14.48	-12.31	-12.00	-10.67	-10.27	-9.812	-9.737	-9.396	-9.395	-8.851	-8.246	-7.837	-7.318	-6.870	-6.013	-5.922	-5.824	-5.834	-5.814	-5.282	-5.406	-5.416	-4.937	-4.891	-4.818	-4.147	-4.340	-3.772	-3.288	-3.322	-3.684	-3.458	-3.787	-3.715	-4.130	-3.680	-2.601	0.417	6.235	8.334	3.714	-2.502	-3.896	-4.071	-4.443	-4.811	-4.420	-4.385	-4.692	-4.232	-4.703	-4.579	-4.559	-4.750	-4.986	-5.070
265.0	-446.1	-365.1	-306.2	-200.9	-35.04	59.13	-36.45	237.3	 1811	 3828	 1043	-30.80	-51.63	-42.32	-35.74	-29.82	-25.57	-20.86	-18.78	-16.94	-14.75	-13.25	-12.76	-12.10	-11.46	-10.46	-10.35	-9.390	-9.299	-9.337	-8.736	-7.855	-7.937	-7.177	-6.935	-6.193	-5.965	-5.869	-5.693	-5.780	-5.448	-5.325	-5.590	-5.034	-5.021	-4.802	-3.878	-4.224	-3.706	-3.159	-3.286	-3.989	-3.348	-3.621	-3.794	-4.160	-4.163	-3.840	-3.209	-0.927	4.756	10.06	8.625	1.474	-3.394	-4.420	-4.748	-4.651	-4.317	-4.501	-4.615	-4.649	-4.540	-4.704	-4.812	-4.963	-4.841
270.0	-437.7	-370.6	-284.7	-218.6	-131.7	14.54	117.2	27.80	390.5	 1743	 3614	 2469	216.6	-42.17	-35.19	-29.54	-24.56	-20.03	-18.93	-16.66	-15.14	-13.39	-12.28	-12.14	-11.34	-10.18	-10.10	-9.526	-9.407	-9.327	-8.703	-8.174	-7.782	-7.249	-6.528	-6.537	-6.142	-6.041	-5.726	-5.341	-5.671	-5.398	-5.492	-5.154	-4.886	-4.815	-4.174	-4.295	-3.847	-3.271	-3.326	-3.768	-3.742	-4.062	-3.653	-3.591	-3.846	-4.004	-3.910	-3.566	-2.316	0.010	3.865	7.494	9.732	5.736	-0.350	-4.058	-4.543	-4.351	-4.628	-4.632	-4.690	-4.605	-4.663	-4.835	-5.062
275.0	-432.7	-347.0	-276.1	-198.7	-160.7	-86.67	101.9	253.5	137.7	466.2	 1257	 4403	 3740	224.9	-33.26	-29.10	-24.32	-20.01	-18.07	-16.27	-15.09	-13.13	-11.86	-11.39	-10.58	-9.913	-10.32	-9.449	-9.136	-9.311	-8.402	-7.910	-7.268	-7.280	-6.836	-6.040	-6.028	-5.793	-5.704	-5.775	-5.441	-5.245	-5.410	-5.250	-4.476	-4.744	-4.023	-4.249	-3.859	-3.249	-3.116	-3.909	-3.787	-3.909	-3.994	-3.833	-3.537	-3.189	-3.599	-3.727	-3.845	-3.111	-2.330	-1.344	1.623	8.607	16.03	10.80	0.240	-4.237	-4.861	-4.430	-4.647	-4.620	-4.946	-4.704	-4.953
280.0	-456.3	-335.2	-268.6	-210.0	-157.4	-93.19	27.43	411.2	416.7	388.0	658.7	 2076	 5553	 2883	66.13	-27.22	-25.21	-21.09	-17.59	-15.41	-14.51	-13.57	-11.85	-10.54	-11.09	-10.17	-9.849	-9.629	-9.719	-9.232	-8.542	-8.591	-7.288	-6.904	-7.005	-6.098	-6.020	-5.637	-5.768	-5.523	-5.461	-5.321	-5.238	-5.457	-4.611	-4.574	-4.022	-4.301	-3.773	-3.043	-3.310	-3.990	-3.729	-4.046	-3.863	-3.872	-3.739	-3.272	-3.000	-2.952	-3.626	-3.813	-3.076	-3.131	-1.984	-0.333	5.888	15.95	17.62	7.095	-2.535	-4.271	-4.406	-4.588	-4.644	-4.754	-5.249
285.0	-443.4	-367.2	-219.7	-161.8	-137.5	-64.16	38.56	314.6	788.7	742.7	816.2	 1151	 2858	 5762	658.0	3.000	-22.87	-20.76	-16.71	-14.17	-14.51	-13.04	-12.14	-10.76	-10.92	-10.09	-9.115	-9.684	-9.885	-8.819	-8.370	-8.167	-7.790	-6.971	-6.723	-6.373	-6.004	-6.154	-5.661	-5.573	-5.588	-5.378	-5.117	-4.739	-4.409	-4.650	-3.882	-3.994	-3.940	-3.168	-3.223	-3.970	-3.911	-3.971	-3.837	-3.716	-3.778	-3.293	-3.161	-2.412	-2.433	-2.774	-3.003	-2.832	-2.549	-2.498	-0.732	3.693	11.80	20.44	15.58	2.188	-3.900	-4.514	-4.509	-4.873	-4.990
290.0	-429.4	-308.7	-172.3	-110.8	-58.48	5.295	131.3	352.2	825.2	 1366	 1369	 1298	 1343	 2542	 4060	 2268	144.8	-17.98	-16.39	-14.97	-14.92	-12.42	-11.97	-11.45	-10.68	-9.947	-9.023	-8.988	-9.652	-8.935	-8.238	-8.062	-7.630	-7.004	-6.834	-6.203	-5.812	-6.025	-5.888	-5.462	-5.406	-5.316	-5.301	-4.870	-4.793	-4.731	-4.052	-3.958	-3.828	-3.237	-3.047	-3.882	-3.668	-3.770	-3.569	-3.655	-3.677	-3.700	-3.405	-2.879	-2.345	-1.718	-1.332	-1.707	-1.691	-2.060	-1.556	-1.215	0.156	4.016	9.722	12.62	14.04	8.199	-0.039	-4.105	-4.925
295.0	-408.7	-259.2	-135.0	-76.26	-15.72	48.11	224.3	440.2	812.8	 1439	 2090	 1764	 1183	858.0	 1300	 4070	 3188	177.3	-14.71	-15.37	-13.76	-13.17	-11.49	-11.90	-10.48	-10.71	-9.812	-8.836	-9.355	-8.596	-8.177	-8.178	-7.402	-6.599	-6.848	-6.251	-6.144	-5.693	-5.740	-5.687	-5.486	-5.040	-5.188	-4.846	-5.130	-4.798	-3.996	-3.778	-3.569	-2.923	-3.043	-3.687	-3.501	-3.477	-3.486	-3.666	-3.495	-3.104	-3.179	-2.863	-1.998	-1.567	-1.208	-0.157	-0.180	-0.754	-1.408	-1.380	-2.190	-1.854	-0.857	-0.293	3.565	14.68	19.98	12.16	-0.206
300.0	-411.1	-258.5	-113.1	-7.386	25.71	106.1	251.6	452.9	849.5	 1361	 2050	 2142	 1212	552.4	426.7	 1549	 4891	 2380	86.70	-12.30	-13.04	-12.81	-11.70	-11.76	-10.34	-10.54	-9.002	-9.539	-9.034	-9.120	-8.680	-8.428	-7.391	-7.078	-6.322	-6.152	-5.919	-5.808	-5.714	-5.780	-5.491	-5.310	-5.459	-4.944	-4.845	-4.807	-3.904	-3.940	-3.468	-2.943	-3.054	-3.837	-3.445	-3.542	-3.234	-3.265	-3.224	-3.149	-3.479	-2.381	-1.987	-1.672	-1.444	-0.733	0.631	-0.041	-0.479	-1.277	-2.684	-2.916	-3.009	-3.281	-2.035	1.020	8.516	20.32	19.81
305.0	-385.3	-254.5	-106.3	6.970	45.87	130.7	278.6	481.7	866.3	 1324	 1790	 2169	 1530	545.5	290.1	448.2	 2232	 5023	 1657	19.16	-13.10	-10.94	-11.37	-11.08	-10.03	-10.20	-8.845	-8.722	-8.951	-8.854	-8.473	-8.206	-7.563	-6.965	-6.311	-6.032	-6.085	-5.663	-6.007	-5.671	-5.597	-5.340	-5.183	-5.145	-4.909	-4.686	-4.011	-4.172	-3.622	-2.960	-3.126	-3.416	-3.391	-3.693	-3.526	-3.613	-3.218	-3.230	-3.093	-2.596	-2.680	-1.747	-1.720	-1.027	-0.592	0.014	0.060	-0.814	-2.534	-3.076	-3.640	-3.983	-3.707	-2.664	-1.390	3.907	14.05
310.0	-391.9	-281.6	-92.58	30.18	72.10	142.3	289.5	446.4	781.0	 1164	 1550	 1702	 1557	845.2	353.1	248.5	611.6	 2150	 3816	 2018	103.5	-9.151	-10.68	-10.20	-10.21	-9.680	-9.441	-8.458	-8.278	-8.751	-7.988	-7.751	-7.489	-7.019	-6.316	-6.063	-5.970	-5.845	-5.842	-5.703	-5.210	-5.268	-5.127	-4.921	-4.811	-4.650	-4.156	-3.900	-3.593	-2.957	-2.864	-3.497	-3.503	-3.661	-3.288	-3.439	-3.418	-3.511	-3.074	-2.577	-2.600	-2.294	-1.750	-1.576	-1.219	-0.911	-0.902	-0.861	-1.196	-2.191	-3.531	-3.683	-3.746	-3.865	-3.452	-2.592	-0.013
315.0	-425.3	-258.8	-83.91	30.57	102.7	159.2	264.9	420.7	710.6	 1023	 1298	 1387	 1191	 1010	644.8	271.1	278.2	571.8	 1169	 3702	 2221	142.3	-9.613	-9.783	-9.836	-10.07	-9.487	-8.593	-8.580	-8.511	-7.906	-7.274	-7.941	-6.742	-6.647	-6.113	-5.503	-6.017	-5.770	-5.868	-5.228	-5.439	-5.024	-5.350	-4.683	-4.865	-4.325	-3.931	-3.526	-3.010	-3.112	-3.857	-3.269	-3.338	-3.440	-3.514	-3.383	-3.726	-3.449	-2.559	-2.802	-1.741	-2.150	-1.873	-1.687	-1.494	-1.708	-1.931	-1.854	-1.926	-1.849	-2.821	-3.247	-3.823	-3.900	-3.816	-3.232
320.0	-390.4	-253.6	-66.66	61.84	115.2	176.2	306.8	450.5	625.8	929.8	 1176	 1264	 1083	877.1	899.0	438.3	256.7	262.0	331.4	 1424	 4309	 1800	74.55	-8.924	-8.685	-9.029	-8.828	-8.513	-8.990	-8.989	-7.470	-7.301	-7.472	-7.094	-5.992	-5.824	-5.340	-5.860	-5.455	-5.701	-5.677	-5.281	-5.248	-4.933	-4.991	-4.836	-4.049	-4.055	-3.441	-3.018	-2.984	-3.526	-3.475	-3.459	-3.074	-3.476	-3.461	-3.472	-3.442	-2.486	-2.783	-2.386	-2.369	-2.175	-2.134	-2.321	-1.914	-2.351	-2.107	-2.492	-1.813	-2.035	-2.342	-3.542	-3.428	-3.970	-3.979
325.0	-389.5	-242.4	-6.410	130.0	168.0	212.1	290.4	446.7	601.2	858.7	 1086	 1139	 1044	839.9	851.7	640.7	328.3	230.8	169.7	384.3	 1984	 4350	 1359	24.02	-8.017	-8.754	-8.981	-7.896	-8.631	-8.492	-7.299	-7.354	-7.353	-6.779	-6.789	-5.952	-5.651	-6.122	-5.710	-5.299	-5.317	-4.938	-5.215	-4.887	-5.326	-4.565	-4.049	-4.170	-3.362	-2.669	-2.898	-3.336	-3.299	-3.426	-3.083	-3.181	-3.435	-3.281	-3.009	-2.806	-2.830	-2.440	-2.594	-1.928	-1.856	-2.047	-2.150	-2.251	-2.291	-2.777	-2.694	-2.489	-2.210	-2.342	-2.910	-4.027	-4.236
330.0	-422.3	-245.5	51.97	257.4	310.1	344.6	400.0	500.8	634.7	805.8	 1014	 1108	 1039	864.4	766.8	755.6	593.1	322.2	192.1	180.5	524.1	 1844	 3426	 1887	83.82	-6.121	-8.129	-8.127	-8.155	-8.024	-7.589	-7.472	-7.160	-6.980	-6.395	-5.647	-5.721	-5.826	-5.491	-5.320	-5.199	-5.175	-4.943	-4.986	-4.968	-4.619	-3.873	-4.189	-3.387	-2.570	-2.714	-3.182	-2.910	-3.213	-3.075	-2.938	-3.108	-3.105	-2.784	-2.723	-2.717	-2.606	-2.838	-2.114	-2.215	-2.084	-2.030	-2.331	-2.429	-2.556	-2.611	-2.552	-2.722	-2.369	-2.323	-3.016	-3.692
335.0	-420.5	-198.7	105.6	407.7	530.8	545.7	606.7	610.2	720.4	783.4	983.1	 1101	 1059	950.3	807.1	699.9	684.4	570.5	277.3	187.6	219.9	480.1	 1080	 3584	 1679	124.8	-5.778	-7.168	-7.979	-8.037	-7.705	-7.533	-7.170	-6.443	-6.425	-5.708	-5.928	-5.800	-5.575	-5.450	-5.268	-5.204	-5.379	-5.033	-5.009	-4.704	-3.868	-4.025	-2.844	-2.565	-2.549	-2.648	-2.990	-2.995	-2.877	-2.676	-2.738	-2.740	-2.523	-2.600	-2.339	-2.610	-2.486	-2.325	-2.179	-2.194	-2.076	-2.590	-2.443	-2.246	-2.668	-2.543	-2.601	-2.620	-2.383	-2.461	-2.351
340.0	-433.9	-196.5	185.1	502.8	705.4	749.1	771.9	732.2	794.6	843.6	988.2	 1059	 1088	991.5	863.1	718.0	630.8	686.8	400.9	231.6	180.5	203.5	310.7	 1419	 4039	 1497	72.68	-5.262	-7.481	-7.988	-7.521	-7.188	-6.999	-6.213	-6.495	-5.825	-5.718	-6.017	-5.088	-5.339	-5.261	-5.200	-5.354	-5.077	-5.098	-4.710	-3.906	-3.920	-2.930	-2.410	-2.286	-2.635	-2.463	-2.582	-1.897	-2.195	-2.363	-2.456	-2.290	-2.588	-2.213	-2.006	-2.455	-2.236	-2.120	-2.420	-2.380	-2.052	-2.073	-2.198	-2.437	-2.730	-2.583	-2.603	-2.449	-2.993	-2.709
345.0	-403.4	-192.8	232.6	564.9	793.1	892.4	889.2	860.4	863.2	920.0	 1009	 1070	 1053	 1019	915.7	744.3	637.6	621.5	593.4	325.6	213.3	177.7	158.8	389.7	 2014	 4443	 1177	23.22	-6.713	-6.820	-7.093	-6.739	-6.588	-6.498	-6.212	-5.767	-5.650	-5.682	-5.258	-5.254	-5.423	-5.325	-5.239	-4.940	-4.748	-4.672	-3.567	-3.331	-3.083	-2.278	-2.195	-2.256	-2.137	-1.700	-2.236	-2.077	-1.687	-2.148	-2.127	-2.261	-2.368	-2.413	-2.215	-2.051	-2.329	-2.382	-2.319	-1.712	-2.258	-2.272	-2.251	-2.406	-2.544	-2.575	-2.748	-2.930	-3.102
350.0	-388.2	-158.3	254.2	728.3	923.6	 1066	 1056	987.7	929.5	967.2	 1024	 1039	 1050	 1016	942.4	801.3	677.5	592.8	600.4	535.3	339.0	237.6	181.3	190.7	541.5	 1997	 3372	 1738	72.62	-4.776	-6.532	-6.089	-6.716	-6.278	-5.860	-5.900	-5.720	-5.696	-5.411	-5.103	-5.348	-5.580	-5.028	-4.963	-4.760	-4.515	-3.769	-3.676	-3.097	-2.168	-1.857	-2.143	-1.813	-1.507	-1.883	-1.827	-1.762	-1.942	-1.553	-2.341	-2.008	-2.257	-2.219	-2.091	-2.229	-2.155	-2.352	-2.029	-2.189	-2.059	-2.095	-2.439	-2.162	-2.688	-2.665	-2.782	-2.854
355.0	-390.8	-159.7	249.7	785.2	 1070	 1242	 1267	 1144	 1056	 1049	 1088	 1044	 1059	 1047	977.6	849.8	737.9	637.5	587.1	572.3	548.8	361.0	248.8	204.8	225.8	518.5	 1129	 3502	 1418	96.82	-4.132	-5.887	-5.982	-6.821	-6.121	-5.653	-5.639	-5.764	-5.740	-5.513	-5.195	-4.870	-5.030	-5.137	-4.707	-4.586	-3.721	-3.701	-2.936	-2.264	-1.691	-2.178	-1.155	-1.199	-1.161	-1.612	-1.700	-1.638	-1.668	-1.764	-1.929	-2.128	-2.103	-2.460	-1.983	-2.159	-2.784	-2.164	-2.092	-2.359	-2.541	-2.324	-2.326	-3.008	-2.735	-2.610	-2.490
360.0	-385.9	-167.6	257.0	851.2	 1200	 1277	 1320	 1205	 1098	 1068	 1080	 1038	 1040	 1076	993.0	889.8	793.0	698.6	632.9	576.1	624.1	507.5	320.8	244.7	195.8	212.1	314.4	 1473	 3934	 1265	54.37	-4.531	-5.652	-6.877	-6.006	-5.495	-5.298	-5.408	-5.610	-5.360	-5.337	-5.236	-5.186	-4.864	-4.419	-4.513	-3.758	-3.554	-2.991	-2.029	-1.818	-1.943	-1.449	-1.720	-0.924	-1.195	-1.441	-1.265	-1.607	-1.963	-1.740	-1.930	-2.072	-2.271	-2.273	-2.547	-2.159	-2.071	-1.851	-2.200	-2.283	-2.256	-1.930	-2.369	-2.189	-1.665	-2.316
365.0	-367.5	-140.9	243.5	874.0	 1216	 1397	 1368	 1233	 1159	 1088	 1104	 1042	 1068	 1088	 1016	912.3	842.9	761.7	675.2	615.8	597.6	618.6	433.2	303.6	225.8	176.6	156.3	399.2	 2065	 4165	 1001	13.38	-4.604	-5.907	-5.696	-5.276	-5.334	-5.765	-5.403	-5.491	-4.810	-4.965	-5.311	-4.898	-4.745	-4.203	-3.881	-3.410	-2.848	-2.093	-1.646	-1.307	-1.371	-1.127	-1.142	-1.241	-1.279	-1.215	-1.473	-1.745	-1.823	-1.696	-2.032	-2.238	-2.135	-2.586	-2.091	-1.912	-2.063	-2.146	-2.172	-2.170	-2.386	-2.133	-2.515	-2.198	-2.232
370.0	-378.8	-139.6	263.9	841.6	 1238	 1422	 1400	 1269	 1170	 1141	 1133	 1076	 1097	 1091	 1068	970.8	922.1	830.3	755.1	689.6	635.0	631.2	603.8	432.6	298.2	222.4	165.3	173.8	541.6	 2003	 3444	 1618	54.33	-3.804	-5.116	-4.549	-5.232	-5.423	-5.111	-5.375	-5.095	-5.157	-4.990	-5.040	-4.631	-4.603	-3.875	-3.441	-2.800	-2.127	-1.759	-1.641	-1.329	-0.978	-1.295	-1.037	-1.132	-0.789	-1.683	-1.710	-1.646	-2.165	-1.780	-1.755	-1.718	-2.437	-2.221	-2.198	-1.984	-2.164	-1.995	-1.956	-1.745	-1.830	-2.522	-2.203	-2.220
375.0	-378.4	-137.9	319.1	853.2	 1241	 1397	 1448	 1299	 1191	 1132	 1136	 1104	 1112	 1120	 1095	 1040	985.9	906.5	841.2	761.0	703.0	644.6	640.5	605.7	418.1	296.9	224.7	169.4	207.1	498.7	 1232	 3708	 1162	71.22	-3.496	-4.283	-4.965	-5.300	-5.002	-5.201	-4.724	-5.090	-5.329	-4.886	-4.577	-4.272	-3.963	-3.581	-2.535	-2.323	-1.421	-1.510	-1.291	-1.081	-1.204	-0.791	-0.857	-1.018	-1.813	-1.403	-1.529	-1.655	-1.943	-1.450	-1.970	-2.555	-2.076	-1.793	-1.817	-1.964	-2.238	-2.087	-1.761	-1.922	-2.456	-1.809	-2.214
380.0	-388.5	-148.3	270.0	862.5	 1263	 1452	 1381	 1270	 1180	 1108	 1132	 1113	 1153	 1147	 1112	 1078	 1044	944.5	885.8	823.8	743.4	680.1	642.7	644.5	542.2	366.0	275.2	195.3	160.1	184.9	328.1	 1707	 3900	991.9	35.82	-3.456	-4.508	-4.729	-4.805	-4.938	-4.892	-4.994	-5.082	-4.623	-4.520	-4.300	-3.880	-3.582	-2.784	-1.912	-1.716	-1.805	-1.031	-0.889	-1.484	-1.234	-1.145	-1.366	-1.644	-1.685	-1.567	-1.857	-1.823	-1.904	-1.993	-2.149	-1.944	-1.973	-1.478	-1.683	-2.168	-1.771	-1.029	-1.703	-1.460	-1.586	-1.550
385.0	-369.8	-157.8	265.6	852.5	 1184	 1357	 1353	 1259	 1168	 1157	 1102	 1092	 1144	 1156	 1169	 1105	 1066	998.3	942.4	844.0	780.5	715.3	658.4	626.1	614.7	460.2	318.8	238.4	175.3	138.8	137.3	450.6	 2299	 3721	719.8	5.174	-4.073	-4.537	-4.647	-4.968	-4.718	-4.913	-5.102	-4.848	-4.681	-4.601	-3.747	-3.603	-3.012	-2.030	-1.636	-2.030	-1.281	-0.969	-1.298	-1.187	-1.552	-1.311	-1.840	-1.520	-1.368	-1.919	-1.836	-2.030	-2.181	-2.520	-1.776	-1.849	-1.752	-1.499	-2.337	-1.670	-1.390	-1.518	-1.765	-1.578	-1.672
390.0	-358.4	-160.3	253.5	784.0	 1146	 1311	 1280	 1209	 1120	 1095	 1090	 1088	 1140	 1175	 1169	 1134	 1089	 1039	965.3	874.6	816.6	756.4	685.3	633.8	598.7	558.3	419.8	297.8	215.9	162.3	122.6	160.9	598.8	 1948	 2890	 1216	39.70	-3.426	-4.165	-4.633	-4.630	-4.744	-4.821	-4.668	-4.609	-4.487	-3.728	-3.474	-2.952	-2.110	-1.674	-1.879	-1.485	-1.279	-1.430	-1.618	-1.402	-1.740	-1.882	-1.551	-1.741	-1.962	-1.877	-2.116	-2.424	-2.116	-1.964	-1.725	-1.816	-1.693	-2.089	-1.746	-1.704	-1.620	-1.592	-1.449	-1.612
395.0	-412.0	-196.1	219.6	704.3	 1117	 1268	 1255	 1162	 1074	 1035	 1062	 1041	 1109	 1155	 1191	 1144	 1101	 1041	972.2	890.5	819.2	779.6	718.9	657.9	592.4	560.5	537.3	377.6	270.1	208.8	150.8	118.2	185.6	470.4	 1142	 3150	895.0	50.62	-2.770	-3.465	-4.120	-4.647	-4.635	-4.200	-4.477	-4.272	-3.498	-3.759	-2.840	-2.172	-1.577	-1.800	-1.161	-1.260	-1.217	-1.717	-1.435	-1.447	-1.986	-1.579	-1.901	-2.116	-2.075	-1.955	-2.000	-2.273	-1.932	-1.764	-1.551	-1.647	-1.733	-1.708	-1.575	-1.595	-1.658	-1.354	-1.642
