Sample:	'1
File name:	t2025042104明集镇南桥.FD3
Run date:	'11:20:28, 04/22/2025
Operator:	Administrator
Comment:	'

Instrument
Model:	F-2700 FL Spectrophotometer
Serial number:	23B8-004
ROM Version:	4J14000 07

Instrument parameters
Measurement type:	3-D scan
Data mode:	Fluorescence
EX  Start WL:	220.0 nm
EX  End WL:	600.0 nm
EX Sampling interval:	5.0 nm
EM  Start WL:	230.0 nm
EM  End WL:	650.0 nm
EM Sampling interval:	5.0 nm
Scan speed:	12000 nm/min
EX Slit:	5.0 nm
EM Slit:	5.0 nm
PMT Voltage:	700 V
Response:	Auto 
Corrected spectra:	Off
Contour interval:	50.000

Peak integration
Integration method:	Rectangular
Sensitivity:	1
Threshold:	1.000

Peaks
No.	ApexEX/EM(nm)	Height(Data)
1	225.0/600.0	31.93
2	225.0/635.0	30.18
3	230.0/345.0	648.4
4	230.0/565.0	48.53
5	235.0/395.0	446.7
6	235.0/510.0	223.5
7	240.0/405.0	429.3
8	240.0/525.0	200.2
9	245.0/535.0	169.4
10	250.0/430.0	386.9
11	250.0/550.0	142.3
12	255.0/280.0	625.0
13	255.0/560.0	131.5
14	260.0/285.0	631.4
15	260.0/575.0	103.1
16	265.0/290.0	605.1
17	265.0/585.0	97.60
18	270.0/300.0	743.7
19	270.0/595.0	80.90
20	275.0/305.0	882.9
21	275.0/610.0	68.39
22	280.0/310.0	758.4
23	280.0/335.0	413.0
24	280.0/625.0	57.39
25	285.0/315.0	747.4
26	285.0/635.0	42.92
27	290.0/325.0	649.4
28	295.0/330.0	483.0
29	300.0/335.0	439.8
30	305.0/340.0	376.5
31	310.0/350.0	294.3
32	315.0/355.0	280.1
33	320.0/360.0	275.7
34	330.0/375.0	228.1
35	335.0/380.0	236.2
36	345.0/395.0	188.8
37	350.0/400.0	192.6
38	355.0/405.0	179.3
39	365.0/420.0	152.0
40	370.0/425.0	140.4
41	385.0/445.0	94.13
42	395.0/455.0	69.01
43	400.0/465.0	58.72
44	405.0/470.0	48.39
45	410.0/475.0	41.65
46	415.0/485.0	36.38
47	420.0/490.0	31.37
48	425.0/495.0	27.71
49	430.0/505.0	23.50
50	435.0/510.0	20.44
51	440.0/515.0	18.18
52	445.0/525.0	15.11
53	450.0/530.0	12.87
54	520.0/285.0	4.437
55	530.0/290.0	4.086
56	540.0/295.0	5.035
57	545.0/300.0	5.529
58	555.0/305.0	5.704
59	560.0/310.0	4.614
60	570.0/315.0	4.865
61	580.0/320.0	4.786
62	585.0/325.0	4.338

Data points
	220.0	225.0	230.0	235.0	240.0	245.0	250.0	255.0	260.0	265.0	270.0	275.0	280.0	285.0	290.0	295.0	300.0	305.0	310.0	315.0	320.0	325.0	330.0	335.0	340.0	345.0	350.0	355.0	360.0	365.0	370.0	375.0	380.0	385.0	390.0	395.0	400.0	405.0	410.0	415.0	420.0	425.0	430.0	435.0	440.0	445.0	450.0	455.0	460.0	465.0	470.0	475.0	480.0	485.0	490.0	495.0	500.0	505.0	510.0	515.0	520.0	525.0	530.0	535.0	540.0	545.0	550.0	555.0	560.0	565.0	570.0	575.0	580.0	585.0	590.0	595.0	600.0
230.0	66.15	2225	8888	4321	208.6	13.80	11.53	8.617	7.769	7.862	8.008	7.180	6.616	6.132	5.453	4.733	4.185	4.132	3.741	3.399	3.203	2.912	2.796	2.530	2.476	2.343	2.085	1.878	1.892	1.914	1.889	1.707	1.640	1.615	1.478	1.406	1.217	1.152	1.089	1.036	1.017	1.056	1.084	1.006	0.939	0.852	1.890	10.85	27.19	26.86	12.96	3.264	0.888	0.597	0.551	0.520	0.533	0.516	0.497	0.440	0.375	0.426	0.403	0.365	0.383	0.368	0.341	0.331	0.336	0.316	0.297	0.256	0.281	0.281	0.255	0.245	0.245
235.0	141.8	586.6	4388	9999.9	4238	310.3	15.56	12.41	10.83	9.856	8.972	8.807	7.284	7.024	5.806	4.961	4.078	4.409	3.861	3.802	3.612	3.139	3.022	3.040	2.486	2.461	2.126	1.891	1.988	1.961	1.874	1.915	1.731	1.700	1.524	1.435	1.225	1.271	1.028	1.005	1.046	0.995	1.015	1.054	1.175	1.162	1.094	3.181	8.417	17.15	29.23	26.16	20.34	7.091	1.016	0.594	0.547	0.542	0.618	0.503	0.455	0.397	0.372	0.373	0.355	0.367	0.368	0.322	0.301	0.271	0.307	0.277	0.286	0.283	0.254	0.245	0.271
240.0	189.3	259.9	1179	6726	9999.9	3496	202.4	17.42	15.54	11.32	11.21	9.835	8.739	8.243	6.869	5.255	4.700	4.201	3.835	3.949	3.485	2.976	3.057	2.905	2.538	2.538	2.106	2.099	2.193	2.044	1.820	1.884	1.706	1.674	1.541	1.482	1.427	1.256	1.173	1.020	1.022	0.973	0.918	0.980	1.171	1.380	1.141	1.421	2.481	4.764	11.81	31.80	57.07	27.63	18.93	4.793	0.799	0.625	0.653	0.539	0.504	0.443	0.420	0.437	0.415	0.392	0.386	0.280	0.257	0.291	0.318	0.257	0.263	0.232	0.289	0.254	0.337
245.0	131.7	266.6	380.3	1958	9999.9	9999.9	2680	118.4	20.05	15.19	13.56	11.41	9.375	8.465	6.995	6.030	5.316	4.738	4.319	3.698	3.520	3.418	2.999	2.948	2.942	2.667	2.335	2.292	2.511	1.988	1.937	1.818	1.784	1.593	1.792	1.526	1.493	1.180	1.247	1.113	1.081	1.051	0.899	1.077	0.927	1.215	1.376	1.511	1.307	1.620	3.288	9.281	28.28	53.82	77.09	27.21	15.84	2.514	0.770	0.568	0.561	0.509	0.472	0.410	0.511	0.422	0.390	0.380	0.370	0.309	0.309	0.351	0.234	0.263	0.287	0.284	0.308
250.0	73.79	157.1	323.1	587.3	2854	9553	9999.9	8761	175.3	28.53	19.56	16.04	12.25	10.00	8.994	6.973	5.933	5.298	4.964	4.274	3.977	3.398	3.250	3.196	2.964	2.907	2.707	2.535	2.441	2.192	2.092	1.913	1.887	1.603	1.650	1.513	1.465	1.264	1.246	1.137	1.120	1.149	1.084	1.054	0.993	1.020	1.130	1.378	1.448	1.553	1.647	2.808	7.004	14.98	34.06	50.28	80.49	72.80	57.97	11.90	2.922	0.682	0.526	0.510	0.517	0.448	0.463	0.451	0.422	0.403	0.358	0.386	0.321	0.299	0.312	0.334	0.318
255.0	79.69	74.54	180.9	444.3	794.0	2266	7805	9999.9	9999.9	227.1	32.61	23.03	16.59	12.61	10.60	8.585	7.161	6.562	5.373	5.086	4.551	3.845	3.596	3.406	2.949	3.084	2.670	2.969	2.656	2.462	2.305	2.066	1.875	1.655	1.667	1.373	1.556	1.507	1.350	1.172	1.303	1.161	1.119	1.094	1.110	1.022	1.052	1.020	1.017	1.204	1.584	2.277	2.564	4.038	8.316	12.14	22.77	49.67	119.2	155.9	30.47	18.39	2.386	0.738	0.693	0.573	0.446	0.536	0.426	0.491	0.390	0.351	0.376	0.406	0.288	0.317	0.331
260.0	74.31	67.07	82.20	286.3	489.1	616.2	2109	9999.9	9999.9	9999.9	171.1	35.52	22.64	17.62	12.62	10.56	8.321	7.051	5.741	5.312	4.813	4.168	3.943	3.732	3.363	3.462	3.032	3.101	2.985	2.677	2.424	2.288	2.059	1.837	1.828	1.618	1.555	1.519	1.424	1.346	1.322	1.356	1.169	1.099	1.144	1.114	1.092	0.980	0.934	0.919	1.179	1.978	2.497	2.469	2.734	3.385	5.905	12.54	39.30	101.7	166.8	192.1	28.55	12.79	1.442	0.779	0.621	0.595	0.453	0.447	0.438	0.461	0.369	0.450	0.439	0.389	0.343
265.0	75.29	65.20	53.35	124.1	397.0	422.6	552.0	3192	9999.9	9999.9	1794	121.2	33.19	23.93	16.02	12.51	9.597	8.558	6.920	6.261	5.544	4.565	4.675	3.929	3.506	3.581	3.322	3.090	2.925	2.592	2.543	2.685	2.215	2.040	1.959	1.754	1.493	1.536	1.431	1.477	1.446	1.331	1.168	1.272	1.220	1.252	1.157	0.975	0.958	0.762	0.881	1.323	1.851	2.688	2.702	1.839	2.031	3.547	9.653	25.93	68.77	169.9	225.2	182.8	24.11	6.267	0.935	0.737	0.632	0.545	0.574	0.562	0.541	0.541	0.465	0.426	0.431
270.0	97.95	82.84	57.20	68.80	174.8	405.7	433.1	820.7	3527	9999.9	9999.9	9999.9	536.0	42.47	25.62	18.49	13.84	10.81	9.152	7.722	6.488	5.338	5.348	4.539	4.073	4.154	3.534	3.481	3.208	3.264	2.850	2.798	2.492	2.227	2.222	1.962	1.777	1.707	1.578	1.408	1.519	1.447	1.314	1.371	1.280	1.291	1.085	1.019	0.994	0.924	0.947	0.975	1.119	1.548	2.235	2.640	2.690	2.322	3.002	6.564	16.32	43.30	85.81	155.4	189.1	217.7	122.8	15.85	6.163	1.064	0.790	0.758	0.663	0.613	0.557	0.472	0.560
275.0	116.6	112.9	76.71	67.42	81.58	169.5	481.8	508.3	885.3	2456	9999.9	9999.9	9999.9	148.1	45.93	29.47	19.65	15.11	12.37	9.348	7.939	6.996	6.501	5.338	4.891	4.644	3.956	3.636	3.465	3.861	3.164	3.192	2.885	2.588	2.337	2.227	2.112	1.795	1.726	1.556	1.594	1.547	1.443	1.455	1.417	1.620	1.392	1.174	1.143	1.016	0.983	0.989	1.044	1.017	1.146	1.489	2.336	3.808	3.548	2.907	4.537	10.53	19.89	35.77	48.22	100.8	236.6	353.6	208.1	24.77	5.067	1.033	0.981	0.731	0.741	0.721	0.565
280.0	145.3	136.6	107.0	81.92	66.95	88.04	254.2	625.0	434.8	644.1	2738	9999.9	9999.9	8056	113.4	43.55	27.49	20.41	14.57	11.33	9.376	8.151	6.994	5.968	5.271	5.046	4.766	4.292	4.017	3.747	3.303	3.389	3.108	3.018	2.581	2.431	2.240	2.031	1.943	1.645	1.643	1.446	1.539	1.446	1.454	1.598	1.418	1.321	1.246	1.143	0.959	0.952	0.985	0.959	1.092	1.023	1.404	2.365	3.712	4.009	3.294	3.388	5.413	8.716	11.91	24.22	66.94	180.0	336.9	258.2	33.62	18.72	2.385	1.173	0.964	0.814	0.754
285.0	175.3	171.1	137.5	91.05	67.69	73.81	120.1	422.4	631.4	318.1	731.8	3434	9999.9	9999.9	5565	85.50	39.05	26.04	18.84	14.49	11.35	8.996	7.633	6.487	5.998	5.321	5.293	4.372	4.072	3.887	3.682	3.353	3.239	3.145	2.703	2.540	2.302	2.107	1.986	1.964	1.691	1.550	1.731	1.706	1.667	1.718	1.409	1.489	1.395	1.222	1.132	1.069	1.082	1.084	1.180	1.008	1.163	1.484	2.011	3.277	4.437	3.462	2.610	2.974	3.686	6.505	16.23	43.18	107.8	229.5	378.1	246.9	29.67	12.75	1.450	1.058	0.999
290.0	218.0	199.1	175.0	117.6	80.14	70.64	83.61	181.6	468.3	605.1	345.5	912.4	3631	9999.9	9999.9	9999.9	313.6	41.77	27.73	19.62	14.93	11.74	9.433	8.192	7.238	6.697	5.836	4.883	4.784	4.619	4.333	3.566	3.521	3.333	3.075	2.793	2.622	2.457	2.062	2.048	1.851	1.775	1.792	1.797	1.639	1.879	1.622	1.601	1.491	1.328	1.324	1.285	1.177	1.142	1.135	1.151	1.230	1.215	1.339	1.723	2.501	3.379	4.086	3.967	2.872	2.631	4.881	10.82	25.38	55.28	118.7	192.9	284.7	290.6	224.2	94.18	9.994
295.0	227.7	254.2	205.1	143.4	101.0	85.88	90.62	114.4	206.4	498.7	721.9	391.5	964.6	2492	9999.9	9999.9	9999.9	90.74	43.19	29.61	20.33	15.47	12.22	10.27	9.092	7.541	6.408	5.709	5.348	5.091	4.493	4.267	3.818	3.798	3.371	2.933	2.940	2.709	2.280	2.304	1.983	2.038	1.964	1.777	1.911	1.793	1.759	1.733	1.594	1.498	1.391	1.410	1.298	1.271	1.353	1.267	1.331	1.264	1.207	1.602	1.597	1.933	2.432	3.842	5.035	4.141	2.804	3.699	6.988	13.71	27.74	44.28	67.22	102.5	251.2	453.2	269.2
300.0	276.8	289.4	248.8	165.2	112.2	95.10	105.3	120.0	153.4	288.7	743.7	622.0	413.1	718.2	2717	9999.9	9999.9	4925	78.71	39.83	27.96	19.98	15.44	11.76	10.03	8.436	7.728	6.790	6.250	5.516	4.959	4.929	3.965	3.812	3.525	3.168	2.992	2.667	2.412	2.517	2.167	2.274	2.007	1.953	1.781	1.941	1.864	1.974	1.698	1.720	1.356	1.555	1.481	1.429	1.530	1.351	1.356	1.424	1.412	1.510	1.522	1.703	1.731	2.334	3.741	5.529	4.762	3.383	3.262	4.452	7.685	11.07	16.29	24.53	64.38	180.4	368.7
305.0	314.6	309.4	277.3	184.8	130.2	113.9	125.8	140.9	169.9	242.2	478.7	882.9	478.2	354.1	769.1	3391	9999.9	9999.9	3703	65.97	37.60	26.18	19.10	14.25	12.15	9.911	8.890	7.314	6.958	6.085	5.802	4.912	4.375	3.812	4.006	3.197	3.236	3.024	2.678	2.560	2.390	2.322	2.233	1.894	1.821	2.172	1.939	2.211	1.891	1.785	1.505	1.530	1.521	1.507	1.456	1.376	1.685	1.492	1.589	1.605	1.731	1.768	1.738	1.878	2.509	3.423	4.929	5.704	4.078	2.900	3.335	3.902	5.175	6.802	15.75	42.66	104.2
310.0	326.2	330.5	311.8	209.8	146.7	133.2	144.8	165.5	192.1	248.2	344.1	604.7	758.4	457.1	350.0	895.0	3821	9999.9	9999.9	9999.9	216.5	39.70	27.00	19.88	14.91	12.11	9.903	8.425	7.860	6.819	6.065	5.503	5.163	4.454	4.028	3.529	3.452	3.263	3.062	2.827	2.720	2.531	2.515	2.121	2.248	2.264	2.258	2.298	2.040	1.899	1.725	1.700	1.664	1.604	1.596	1.564	1.706	1.630	1.744	1.707	1.764	1.896	1.937	2.026	2.152	2.479	3.092	3.937	4.614	4.564	3.898	2.952	2.963	3.070	5.032	11.09	24.79
315.0	360.1	376.3	366.3	229.2	172.9	151.5	159.4	187.5	215.7	271.2	324.0	417.5	565.5	747.4	378.8	340.8	967.3	2475	9999.9	9999.9	9999.9	69.90	40.15	27.39	20.17	15.32	12.81	10.75	8.987	7.882	6.853	5.861	5.481	4.886	4.508	3.898	3.816	3.365	3.194	3.070	3.011	2.804	2.536	2.352	2.402	2.419	2.363	2.232	2.122	2.059	1.784	1.777	1.803	1.711	1.733	1.689	1.724	1.673	1.862	1.835	1.909	1.893	2.033	2.156	2.280	2.368	2.596	2.770	2.984	3.454	4.865	4.837	3.457	2.435	2.596	3.835	6.927
320.0	383.8	422.4	431.0	267.3	189.9	161.6	174.6	198.7	227.6	290.3	334.9	385.2	430.4	647.1	598.5	255.9	335.0	653.5	2793	9999.9	9999.9	3654	63.18	37.61	26.06	19.70	14.50	12.18	10.23	9.071	7.708	6.421	5.765	5.183	5.017	4.357	3.885	3.749	3.295	3.203	2.972	2.730	2.774	2.343	2.539	2.685	2.840	2.697	2.511	2.216	1.927	2.035	1.915	1.781	1.791	1.914	1.895	1.799	1.979	1.839	1.962	2.146	2.073	2.260	2.505	2.396	2.592	2.675	2.765	2.736	3.381	4.192	4.786	3.908	2.541	2.375	2.847
325.0	428.1	476.5	503.2	319.2	206.9	177.3	183.0	212.2	244.6	298.8	349.9	392.4	406.3	473.2	649.4	381.9	204.3	242.8	713.5	3757	9999.9	9999.9	2770	55.76	33.74	24.51	17.26	13.93	11.37	10.07	8.414	7.188	6.346	5.591	5.035	4.467	4.034	3.967	3.434	3.352	3.083	2.872	2.854	2.761	2.936	2.884	2.825	2.872	2.956	2.424	2.110	2.158	2.011	1.802	1.963	1.915	1.929	1.946	2.068	1.878	2.041	2.150	2.065	2.416	2.401	2.366	2.804	2.623	2.730	2.763	2.851	2.956	3.738	4.338	4.215	2.850	2.153
330.0	465.4	546.7	565.0	385.1	249.2	194.0	192.8	217.5	254.8	309.0	362.6	399.5	406.1	403.3	447.1	483.0	312.4	163.4	237.3	920.3	4328	9999.9	9999.9	9999.9	169.0	36.05	24.88	18.37	14.67	12.26	10.08	8.683	7.223	6.545	5.685	4.862	4.419	4.035	3.638	3.480	3.288	3.054	2.895	2.885	2.935	2.949	2.963	3.060	3.215	2.575	2.226	2.352	2.161	2.058	2.045	1.938	1.879	2.108	2.007	2.013	2.212	2.108	2.139	2.449	2.454	2.410	2.658	2.758	2.592	2.791	2.813	2.567	2.907	3.039	3.631	3.785	3.467
335.0	472.2	597.3	605.7	449.3	293.7	227.6	212.0	239.1	259.5	311.5	368.3	409.0	413.0	392.2	360.2	335.9	439.8	256.0	137.3	276.2	1032	2498	9999.9	9999.9	9999.9	59.47	36.31	25.17	18.81	15.59	12.29	9.924	8.855	7.027	6.105	5.267	4.363	4.221	3.885	3.752	3.522	3.297	3.087	3.080	2.939	3.159	3.257	3.259	3.342	2.920	2.368	2.515	2.348	2.236	2.107	1.978	2.115	2.272	2.145	2.247	2.284	2.306	2.443	2.549	2.749	2.660	2.730	2.809	2.685	2.511	3.000	2.625	2.668	2.643	2.422	2.451	2.865
340.0	484.9	606.2	625.9	474.9	322.6	243.8	225.6	242.9	265.6	313.1	364.4	406.9	404.6	388.3	338.4	268.6	340.9	376.5	160.9	134.2	296.6	624.2	2985	9999.9	9999.9	3082	55.37	33.23	23.70	18.75	14.53	11.51	9.146	7.874	6.921	5.616	5.122	4.703	3.801	3.848	3.513	3.442	3.136	3.036	2.875	3.064	3.249	3.414	3.285	2.898	2.573	2.603	2.353	2.360	2.168	2.088	2.307	2.321	2.199	2.301	2.329	2.381	2.452	2.504	2.731	2.418	2.795	2.832	2.632	2.618	3.000	2.652	2.663	2.640	2.237	2.239	2.351
345.0	466.5	591.1	648.4	493.7	338.4	258.3	234.8	243.6	265.4	309.6	353.9	393.7	396.4	378.9	328.2	252.8	247.9	350.5	271.0	121.1	133.1	202.6	737.3	4292	9999.9	9999.9	414.1	47.72	29.83	21.92	16.85	12.96	10.62	8.675	7.285	5.987	5.311	4.777	4.208	3.668	3.561	3.579	3.257	3.046	3.140	3.276	3.311	3.125	3.308	2.917	2.644	2.724	2.321	2.360	2.118	2.131	2.272	2.128	2.047	2.414	2.284	2.101	2.239	2.466	2.506	2.591	2.504	2.766	2.699	2.629	2.973	2.789	2.808	2.368	2.235	2.049	2.195
350.0	458.8	549.7	588.0	491.0	351.0	277.8	245.3	251.9	265.2	301.9	337.4	375.9	376.4	360.7	314.6	251.4	218.5	230.8	294.3	224.9	119.9	110.2	226.0	1028	4836	9999.9	9999.9	9999.9	48.47	30.79	22.15	16.38	12.38	9.801	8.177	6.556	5.865	5.119	4.589	4.079	3.814	3.542	3.318	3.221	3.243	3.229	3.151	3.188	3.118	2.791	2.531	2.651	2.502	2.378	2.294	2.072	2.242	2.314	2.036	2.257	2.274	2.181	2.174	2.289	2.505	2.398	2.464	2.589	2.409	2.474	2.489	2.526	2.502	2.330	2.230	2.064	2.099
355.0	410.9	510.6	559.5	474.6	368.0	302.5	264.4	265.8	273.5	302.1	332.1	355.9	352.0	342.2	305.8	250.0	217.1	190.6	203.2	280.1	206.4	104.3	116.1	288.0	1136	2537	9999.9	9999.9	9999.9	53.94	31.22	21.56	15.79	11.89	9.842	7.555	6.247	5.557	4.721	4.564	4.136	3.545	3.248	3.235	2.991	3.116	3.037	2.972	3.215	2.764	2.525	2.887	2.596	2.377	2.298	2.105	2.185	2.238	2.200	2.169	2.230	2.162	2.242	2.266	2.336	2.408	2.353	2.423	2.237	2.434	2.445	2.464	2.387	2.382	2.243	2.175	2.080
360.0	379.3	477.7	538.9	465.6	383.6	318.9	291.3	275.0	278.8	304.4	329.7	345.1	343.8	337.6	301.6	252.1	220.9	192.5	175.0	217.3	275.7	150.5	97.72	124.8	310.5	626.0	3039	9999.9	9999.9	2886	49.42	28.64	19.74	14.88	10.91	8.436	7.349	6.115	5.017	4.865	4.154	3.904	3.355	3.165	3.295	3.154	2.970	3.161	3.042	2.653	2.737	2.667	2.598	2.528	2.323	2.260	2.353	2.345	2.152	2.262	2.195	2.161	2.277	2.226	2.385	2.293	2.229	2.261	2.376	2.318	2.316	2.390	2.269	2.318	1.973	1.953	2.173
365.0	367.6	456.9	501.4	467.6	383.4	326.6	297.2	292.5	298.7	306.2	327.0	340.3	333.5	331.4	298.3	254.6	229.7	199.1	173.4	173.6	247.4	235.5	117.8	96.20	128.4	197.3	741.3	4422	9999.9	9999.9	384.9	44.02	25.80	18.21	13.28	9.877	7.952	7.129	5.714	5.289	4.472	4.105	3.632	3.088	3.443	3.090	3.058	3.303	3.138	2.687	2.540	2.552	2.767	2.568	2.219	2.316	2.269	2.278	2.269	2.219	2.461	2.356	2.163	2.315	2.316	2.223	2.389	2.285	2.309	2.289	2.190	2.454	2.297	2.531	2.124	2.012	2.153
370.0	370.5	438.2	480.1	444.5	390.8	349.9	316.8	309.5	311.0	316.7	331.5	333.2	329.2	322.2	295.2	257.6	237.8	208.3	187.1	172.6	185.9	235.5	206.4	117.3	95.92	103.8	219.8	1051	4993	9999.9	9999.9	9415	135.4	26.59	18.09	12.53	9.952	8.066	6.265	5.560	4.806	4.190	3.765	3.588	3.280	3.162	3.224	3.246	3.049	2.731	2.526	2.850	2.772	2.562	2.474	2.421	2.469	2.451	2.460	2.390	2.483	2.370	2.175	2.307	2.382	2.228	2.341	2.305	2.259	2.211	2.309	2.457	2.269	2.216	2.184	2.258	2.108
375.0	368.0	428.0	464.9	443.4	396.2	370.5	342.2	324.7	322.7	323.7	329.6	333.4	323.1	313.3	291.3	261.5	242.4	221.3	201.8	185.8	169.3	179.4	228.1	196.9	108.8	89.88	107.2	285.6	1164	2580	9999.9	9999.9	9999.9	45.67	26.07	16.73	13.14	9.526	7.589	6.380	5.653	4.805	4.371	3.852	3.527	3.479	3.186	3.123	3.272	2.890	2.423	2.753	2.627	2.839	2.439	2.451	2.650	2.481	2.505	2.527	2.544	2.414	2.314	2.340	2.356	2.118	2.184	2.432	2.234	2.202	2.424	2.414	2.243	2.163	2.314	2.200	2.080
380.0	356.0	417.5	451.4	442.8	416.5	382.5	362.8	341.4	335.3	330.0	331.9	335.4	323.1	307.3	290.4	262.1	246.4	229.0	213.1	192.2	176.3	167.7	188.2	236.2	153.7	95.79	85.49	118.4	309.1	629.6	3188	9999.9	9999.9	2446	40.02	21.73	16.02	11.59	8.817	7.447	6.083	5.256	4.863	4.120	3.898	3.721	3.543	3.429	3.206	2.906	2.739	2.811	2.936	2.804	2.785	2.483	2.567	2.581	2.356	2.506	2.412	2.519	2.469	2.555	2.510	2.388	2.132	2.481	2.214	2.347	2.290	2.217	2.099	2.021	2.213	2.219	2.273
385.0	366.2	396.9	451.2	438.1	424.7	396.7	367.4	356.9	341.0	338.1	336.9	337.2	319.1	308.3	288.3	264.0	246.2	232.9	215.6	199.9	184.5	168.4	165.6	210.3	210.0	117.5	85.90	83.44	120.7	189.6	768.6	4408	9999.9	9999.9	1879	33.29	20.09	14.02	10.78	8.288	6.625	5.623	5.139	4.393	4.084	3.972	3.393	3.217	3.179	2.751	2.817	2.915	2.930	2.605	2.786	2.834	2.740	2.707	2.634	2.499	2.566	2.674	2.521	2.360	2.526	2.407	2.218	2.289	2.178	2.148	2.198	2.170	2.224	2.064	2.282	2.058	2.168
390.0	343.6	398.3	446.2	439.7	424.8	404.0	384.8	373.5	352.6	343.4	336.8	334.1	316.6	301.3	285.8	263.4	248.0	238.9	223.6	209.3	190.3	178.3	167.0	171.0	199.7	182.2	112.0	84.03	82.83	91.26	216.7	1039	4497	9999.9	9999.9	7872	121.6	20.69	14.10	10.69	8.134	6.732	5.568	4.830	4.426	4.282	3.615	3.500	3.280	2.943	2.793	2.949	2.981	2.993	2.844	2.639	2.808	2.802	2.708	2.563	2.595	2.598	2.507	2.525	2.482	2.433	2.432	2.311	2.249	2.144	2.301	2.217	2.233	2.130	2.129	2.118	2.104
395.0	333.5	399.6	428.1	446.7	420.6	413.7	392.9	378.8	365.9	353.8	343.4	330.9	320.2	305.6	280.6	261.9	249.6	240.5	228.7	212.8	199.1	184.5	171.3	161.1	160.8	188.8	173.5	103.9	81.77	74.71	94.97	274.2	1042	2479	9999.9	9999.9	9999.9	38.97	20.87	14.06	10.69	8.180	6.586	5.410	4.767	4.396	4.314	3.659	3.499	3.195	2.902	2.991	2.980	3.036	2.746	2.846	2.851	2.872	2.780	2.792	2.448	2.509	2.515	2.569	2.450	2.471	2.461	2.234	2.341	2.252	2.358	2.181	2.295	2.132	2.245	2.184	2.209
400.0	339.5	398.6	412.3	430.2	421.3	412.7	403.1	385.6	368.8	356.2	341.6	334.1	316.8	298.4	279.1	259.3	248.4	237.4	229.4	216.9	202.6	188.8	177.3	162.7	151.3	158.2	192.6	142.8	89.72	74.98	70.65	103.4	269.7	592.2	2852	9999.9	9999.9	2199	35.43	18.22	13.22	9.839	7.848	6.092	5.265	4.696	4.375	4.073	3.632	3.225	2.850	3.093	2.964	2.919	2.739	2.883	2.851	2.739	2.590	2.482	2.723	2.590	2.563	2.516	2.290	2.389	2.433	2.108	2.379	2.270	2.237	2.090	2.148	2.054	1.994	2.143	2.365
405.0	316.7	358.9	418.5	425.5	429.3	417.3	411.0	392.9	378.7	354.5	345.0	336.2	312.7	293.4	275.4	255.7	245.7	233.2	226.5	216.7	202.1	191.2	179.3	166.2	154.0	143.8	168.0	179.3	113.3	79.14	67.69	66.69	97.47	166.2	675.5	3481	9999.9	9999.9	1850	30.71	15.74	11.60	9.288	6.892	5.917	5.337	4.317	4.183	3.669	3.395	2.861	3.119	3.024	2.697	2.842	2.780	2.886	2.865	2.798	2.618	2.635	2.553	2.492	2.666	2.393	2.207	2.457	2.152	2.318	2.235	2.229	2.159	2.155	2.193	1.960	2.163	2.019
410.0	305.5	371.3	405.7	422.9	418.6	418.0	406.1	398.6	379.2	360.5	345.6	332.8	308.7	286.0	267.9	250.8	237.1	227.6	219.8	213.4	200.1	188.3	181.8	168.9	155.9	142.5	141.9	161.7	156.4	104.5	72.76	61.39	60.01	70.30	181.0	810.3	3546	9999.9	9999.9	7731	122.4	17.03	11.75	8.913	6.592	5.912	4.846	4.384	3.844	3.495	2.967	3.099	3.238	2.830	2.938	2.774	3.068	3.014	3.006	2.773	2.700	2.670	2.584	2.477	2.392	2.325	2.328	2.183	2.194	2.147	2.101	2.159	2.199	2.129	1.978	2.293	2.096
