Sample:	'1
File name:	S2025070701清泉林东环路桥.FD3
Run date:	'13:40:12, 07/10/2025
Operator:	Administrator
Comment:	'

Instrument
Model:	F-2700 FL Spectrophotometer
Serial number:	23B8-004
ROM Version:	4J14000 07

Instrument parameters
Measurement type:	3-D scan
Data mode:	Fluorescence
EX  Start WL:	220.0 nm
EX  End WL:	600.0 nm
EX Sampling interval:	5.0 nm
EM  Start WL:	230.0 nm
EM  End WL:	650.0 nm
EM Sampling interval:	5.0 nm
Scan speed:	12000 nm/min
EX Slit:	5.0 nm
EM Slit:	5.0 nm
PMT Voltage:	700 V
Response:	Auto 
Corrected spectra:	Off
Contour interval:	50.000

Peak integration
Integration method:	Rectangular
Sensitivity:	1
Threshold:	1.000

Peaks
No.	ApexEX/EM(nm)	Height(Data)
1	225.0/345.0	738.6
2	225.0/595.0	50.60
3	225.0/625.0	43.97
4	230.0/500.0	386.5
5	235.0/510.0	322.1
6	240.0/265.0	380.8
7	240.0/395.0	923.1
8	240.0/525.0	262.8
9	245.0/270.0	385.1
10	245.0/535.0	217.5
11	250.0/275.0	507.6
12	250.0/550.0	171.6
13	255.0/285.0	551.2
14	255.0/560.0	149.8
15	260.0/290.0	539.2
16	260.0/575.0	120.7
17	265.0/295.0	687.1
18	265.0/585.0	109.1
19	270.0/300.0	890.2
20	270.0/600.0	89.97
21	275.0/305.0	863.9
22	275.0/610.0	72.32
23	280.0/625.0	59.15
24	285.0/320.0	713.9
25	285.0/635.0	43.55
26	290.0/325.0	634.1
27	300.0/335.0	450.8
28	305.0/345.0	439.9
29	310.0/350.0	396.2
30	315.0/355.0	404.0
31	320.0/365.0	419.9
32	325.0/370.0	404.4
33	330.0/375.0	400.0
34	335.0/380.0	393.3
35	425.0/500.0	41.65
36	440.0/520.0	25.23
37	505.0/275.0	3.252
38	510.0/280.0	3.517
39	515.0/285.0	3.956
40	525.0/290.0	3.652
41	530.0/430.0	4.120
42	540.0/295.0	4.768
43	545.0/300.0	5.314
44	550.0/305.0	5.317
45	560.0/310.0	4.240
46	570.0/315.0	4.723
47	580.0/320.0	4.443
48	585.0/325.0	4.514

Data points
	220.0	225.0	230.0	235.0	240.0	245.0	250.0	255.0	260.0	265.0	270.0	275.0	280.0	285.0	290.0	295.0	300.0	305.0	310.0	315.0	320.0	325.0	330.0	335.0	340.0	345.0	350.0	355.0	360.0	365.0	370.0	375.0	380.0	385.0	390.0	395.0	400.0	405.0	410.0	415.0	420.0	425.0	430.0	435.0	440.0	445.0	450.0	455.0	460.0	465.0	470.0	475.0	480.0	485.0	490.0	495.0	500.0	505.0	510.0	515.0	520.0	525.0	530.0	535.0	540.0	545.0	550.0	555.0	560.0	565.0	570.0	575.0	580.0	585.0	590.0	595.0	600.0
230.0	81.24	1539	3285	738.1	33.15	8.830	6.393	5.766	4.964	4.410	3.721	3.578	3.039	2.538	2.102	1.850	1.719	1.479	1.466	1.359	1.239	1.151	1.006	0.943	0.909	0.840	0.842	0.756	0.773	0.747	0.701	0.657	0.600	0.564	0.538	0.532	0.522	0.568	0.529	0.568	0.606	0.789	0.737	0.577	0.459	0.458	2.108	8.336	12.55	7.522	2.645	0.653	0.372	0.350	0.324	0.341	0.353	0.349	0.369	0.360	0.358	0.319	0.336	0.361	0.351	0.348	0.357	0.333	0.373	0.374	0.397	0.335	0.332	0.359	0.334	0.408	0.371
235.0	145.8	429.1	2236	3204	526.5	46.03	8.807	6.062	5.290	4.245	4.019	3.678	3.351	2.791	2.004	2.088	1.963	1.556	1.462	1.600	1.145	1.196	1.112	1.149	0.838	0.857	0.841	0.861	0.789	0.890	0.748	0.607	0.552	0.561	0.585	0.504	0.722	0.563	0.453	0.459	0.507	0.619	0.711	0.887	0.680	0.534	0.838	2.326	5.295	8.994	12.23	10.96	4.596	1.059	0.373	0.386	0.364	0.347	0.347	0.384	0.365	0.327	0.294	0.343	0.396	0.344	0.340	0.325	0.338	0.349	0.340	0.363	0.367	0.377	0.378	0.354	0.431
240.0	206.0	200.6	698.6	3034	3159	399.5	22.12	7.493	5.857	4.927	4.341	3.960	3.635	3.152	2.096	2.140	1.857	1.428	1.540	1.232	1.286	1.042	1.120	1.024	0.994	0.916	0.787	0.928	0.704	0.799	0.746	0.651	0.540	0.501	0.625	0.492	0.581	0.589	0.512	0.534	0.513	0.493	0.575	0.694	0.915	0.961	0.772	0.847	1.569	2.950	7.436	16.46	17.86	10.99	3.648	0.718	0.413	0.413	0.371	0.380	0.450	0.333	0.317	0.355	0.378	0.336	0.354	0.324	0.330	0.342	0.345	0.341	0.351	0.366	0.312	0.471	0.458
245.0	167.7	258.0	229.7	1095	3914	2965	286.6	11.11	6.832	5.257	5.008	4.702	3.689	3.485	2.198	2.371	2.052	1.632	1.840	1.405	1.210	1.056	1.203	1.063	0.866	0.927	0.840	0.803	0.802	0.783	0.794	0.756	0.678	0.605	0.597	0.577	0.486	0.519	0.498	0.615	0.512	0.467	0.616	0.544	0.733	0.987	1.153	0.859	0.778	0.913	2.039	6.074	14.63	22.57	19.34	9.256	2.200	0.458	0.419	0.417	0.392	0.369	0.367	0.346	0.318	0.374	0.379	0.340	0.342	0.361	0.344	0.367	0.365	0.363	0.356	0.384	0.397
250.0	72.84	197.5	263.4	328.1	1353	3561	3760	1008	48.69	7.591	6.178	4.798	4.337	3.347	2.737	2.385	2.122	1.719	1.723	1.513	1.261	1.276	1.097	1.094	0.960	0.994	0.918	0.896	0.855	0.766	0.796	0.727	0.638	0.633	0.573	0.549	0.498	0.531	0.533	0.576	0.515	0.480	0.552	0.450	0.507	0.583	0.711	1.011	1.140	0.946	0.947	1.711	3.804	8.006	13.86	20.04	23.47	17.76	9.404	2.453	0.489	0.396	0.373	0.318	0.375	0.348	0.384	0.346	0.362	0.368	0.338	0.387	0.353	0.336	0.347	0.400	0.421
255.0	46.31	75.74	213.5	333.4	376.7	967.5	3692	5775	1305	39.69	7.859	6.257	5.144	3.866	3.159	2.494	2.166	2.054	1.775	1.521	1.561	1.333	1.041	1.182	1.066	0.965	0.960	0.939	0.870	0.780	0.846	0.749	0.687	0.642	0.588	0.617	0.525	0.502	0.524	0.533	0.562	0.579	0.495	0.481	0.472	0.588	0.494	0.570	0.740	1.172	1.570	1.550	1.318	2.136	3.449	5.235	10.14	22.96	37.07	27.03	13.77	2.307	0.436	0.363	0.366	0.412	0.378	0.384	0.392	0.381	0.470	0.372	0.368	0.395	0.366	0.403	0.416
260.0	39.23	39.40	93.38	322.0	303.7	265.0	1238	5624	5835	238.0	19.68	8.112	5.813	4.653	3.601	3.018	2.422	2.103	1.777	1.681	1.857	1.417	1.213	1.216	1.092	0.985	1.017	0.881	0.965	0.930	0.833	0.806	0.784	0.635	0.618	0.678	0.512	0.509	0.552	0.477	0.512	0.563	0.494	0.553	0.468	0.518	0.452	0.503	0.484	0.608	1.070	1.954	1.625	1.338	1.196	1.565	2.695	6.667	18.39	34.61	44.38	24.94	9.679	1.202	0.432	0.422	0.434	0.400	0.388	0.371	0.392	0.335	0.387	0.426	0.395	0.371	0.459
265.0	42.71	29.63	42.03	167.6	380.8	215.2	317.5	2139	7311	5214	181.7	11.53	7.594	5.228	4.011	3.199	2.601	2.245	1.813	1.996	1.753	1.332	1.351	1.213	1.078	0.994	1.032	0.851	0.949	0.796	0.814	0.846	0.762	0.743	0.673	0.627	0.592	0.560	0.585	0.505	0.492	0.580	0.514	0.542	0.476	0.434	0.422	0.415	0.443	0.405	0.567	1.124	1.855	2.013	1.470	0.964	1.034	1.994	4.667	10.93	27.49	46.06	32.85	21.12	5.232	0.739	0.516	0.434	0.439	0.393	0.341	0.370	0.472	0.415	0.373	0.393	0.456
270.0	51.16	35.10	29.16	60.05	213.1	385.1	266.1	533.6	2527	6539	5645	736.3	36.24	7.551	5.868	3.932	3.060	2.398	2.113	2.080	1.921	1.594	1.492	1.353	1.289	1.234	1.056	0.992	1.002	0.910	0.923	0.884	0.790	0.849	0.713	0.662	0.674	0.632	0.579	0.595	0.542	0.546	0.559	0.609	0.540	0.528	0.473	0.402	0.418	0.403	0.453	0.609	0.908	1.351	2.035	2.211	1.846	1.280	1.472	2.947	6.923	14.16	22.75	38.20	37.87	38.93	14.70	4.962	0.709	0.491	0.411	0.419	0.454	0.473	0.380	0.457	0.441
275.0	78.05	55.66	37.31	36.22	71.85	217.2	507.6	313.4	615.9	1722	5944	9999.9	993.6	28.94	7.840	5.437	3.739	3.277	2.866	2.241	1.990	1.641	1.726	1.429	1.375	1.222	1.162	1.152	1.065	1.059	1.028	0.919	0.825	0.834	0.828	0.849	0.836	0.644	0.644	0.605	0.656	0.590	0.663	0.605	0.607	0.651	0.605	0.536	0.460	0.417	0.365	0.448	0.531	0.692	0.945	1.431	2.716	3.252	2.249	1.390	2.098	3.663	5.615	9.322	12.95	32.24	60.53	64.10	22.86	4.654	0.689	0.437	0.480	0.468	0.448	0.442	0.431
280.0	119.6	78.58	61.75	40.72	48.76	97.15	368.5	526.5	265.6	456.1	1861	9137	8560	141.7	14.99	7.896	4.706	4.071	3.035	2.631	2.445	1.910	1.751	1.607	1.385	1.326	1.078	1.268	1.059	0.977	0.952	1.007	0.828	0.934	0.921	0.981	1.082	0.737	0.842	0.684	0.691	0.638	0.690	0.751	0.620	0.725	0.611	0.715	0.499	0.406	0.429	0.463	0.549	0.586	0.612	0.791	1.331	2.369	3.517	2.995	1.682	1.500	1.995	2.713	3.535	8.593	22.84	52.58	72.93	32.37	16.74	1.914	0.579	0.538	0.492	0.476	0.449
285.0	171.5	127.0	91.05	56.07	52.08	63.52	173.8	551.2	328.8	214.9	520.4	3089	9999.9	6403	103.7	10.45	6.178	4.566	3.747	2.856	2.473	2.025	1.841	1.691	1.397	1.266	1.192	1.287	1.097	0.968	0.945	1.002	0.991	1.099	1.108	0.982	1.124	0.910	0.833	0.776	0.855	0.810	0.790	0.923	0.785	0.901	0.682	0.765	0.612	0.500	0.490	0.588	0.593	0.589	0.569	0.607	0.823	1.189	2.168	3.956	3.631	2.193	1.258	1.354	1.605	2.788	6.012	14.25	33.10	61.64	78.50	27.82	9.836	0.979	0.562	0.504	0.525
290.0	241.1	202.9	147.4	98.82	73.82	74.41	109.5	264.8	539.2	466.3	285.0	841.8	3255	7929	7239	421.4	22.87	6.537	4.988	3.576	2.850	2.191	2.106	1.927	1.578	1.464	1.383	1.289	1.273	1.118	1.092	0.942	1.115	1.139	1.256	1.227	1.181	1.062	0.905	0.910	0.956	0.888	0.973	0.882	0.921	1.009	0.826	0.929	0.769	0.724	0.682	0.689	0.679	0.610	0.664	0.751	0.839	0.841	1.163	1.901	2.598	3.652	3.391	2.697	1.653	1.710	2.435	4.196	8.385	16.91	32.54	46.03	60.53	51.47	18.66	8.023	1.110
295.0	312.9	272.8	215.4	143.2	101.9	109.8	112.1	164.3	297.9	687.1	609.6	410.9	890.3	2025	5964	6532	585.1	17.63	6.254	4.983	3.558	2.617	2.526	2.110	1.759	1.731	1.372	1.469	1.358	1.149	1.140	1.081	1.030	1.211	1.304	1.226	1.154	1.264	1.179	1.011	1.021	0.935	1.135	1.011	1.107	0.998	1.007	1.215	1.065	0.954	0.838	0.857	0.808	0.726	0.748	0.892	0.896	0.858	1.116	1.162	1.416	1.892	2.554	4.316	4.768	3.282	2.044	2.243	3.260	5.004	8.203	11.36	16.22	30.97	64.47	82.22	29.45
300.0	373.7	333.5	269.9	185.3	125.1	120.8	130.8	160.1	221.0	457.5	890.2	514.1	408.9	582.3	1730	7423	5607	84.33	10.66	6.084	3.984	3.421	2.571	2.352	1.636	1.745	1.649	1.503	1.387	1.181	1.195	1.116	1.013	1.388	1.547	1.398	1.280	1.162	1.228	1.171	1.048	1.070	1.195	1.092	1.154	1.198	1.167	1.310	1.227	1.064	0.908	0.933	0.915	0.741	0.891	0.902	1.044	1.032	1.126	1.198	1.259	1.459	1.758	2.586	4.124	5.314	4.131	2.498	2.221	2.383	3.053	3.600	4.558	7.975	19.83	49.44	80.92
305.0	387.6	370.2	308.4	203.6	148.8	142.4	152.1	179.7	219.0	332.5	712.5	863.9	393.6	300.4	492.8	2406	8571	4471	64.95	8.056	5.854	4.081	3.115	2.699	2.015	1.877	1.776	1.628	1.598	1.289	1.258	1.268	1.069	1.312	1.290	1.468	1.334	1.318	1.283	1.160	1.216	1.130	1.176	1.112	1.190	1.312	1.237	1.481	1.211	1.012	0.979	1.113	0.939	0.886	0.969	1.027	1.086	1.132	1.170	1.406	1.320	1.628	1.738	1.957	2.520	3.964	5.317	4.808	3.022	2.108	2.018	2.048	2.188	2.616	5.258	12.50	29.12
310.0	393.4	412.0	342.4	231.9	173.1	160.6	179.6	205.2	247.0	320.9	471.5	758.1	737.2	350.1	243.1	617.7	2627	6122	5719	299.1	17.39	5.420	3.928	3.273	2.554	2.103	1.830	1.552	1.728	1.409	1.321	1.232	1.206	1.269	1.517	1.365	1.499	1.292	1.373	1.157	1.164	1.142	1.170	1.243	1.344	1.317	1.320	1.445	1.309	1.146	0.973	1.132	1.021	0.949	1.020	0.989	1.241	1.157	1.304	1.392	1.404	1.688	1.917	1.928	2.140	2.636	3.375	4.156	4.240	4.166	3.142	2.275	1.832	1.734	2.045	3.615	7.364
315.0	421.3	443.8	385.4	245.8	186.1	178.2	196.3	232.4	271.7	338.3	412.7	516.6	692.1	670.8	267.7	235.0	646.6	1489	4569	7374	453.6	14.35	5.412	4.131	2.923	2.589	2.403	1.790	1.696	1.489	1.466	1.305	1.213	1.319	1.494	1.499	1.402	1.378	1.323	1.150	1.265	1.279	1.154	1.253	1.495	1.391	1.406	1.530	1.388	1.203	1.001	1.095	1.126	1.132	1.083	1.032	1.326	1.345	1.478	1.441	1.610	1.744	2.043	1.921	1.988	2.332	2.663	2.804	2.969	3.732	4.723	4.146	2.662	1.696	1.690	1.756	2.539
320.0	445.9	485.9	401.6	277.9	206.9	196.9	215.6	247.4	289.3	345.5	418.8	468.0	523.0	713.9	469.1	185.2	221.7	382.2	1250	6047	4207	65.39	8.891	4.911	3.572	2.855	2.440	2.123	1.874	1.582	1.457	1.356	1.337	1.357	1.321	1.393	1.183	1.413	1.295	1.145	1.179	1.289	1.212	1.141	1.468	1.511	1.559	1.611	1.519	1.195	1.241	1.257	1.161	1.133	1.252	1.218	1.279	1.495	1.581	1.478	1.695	1.694	1.878	2.022	2.194	2.289	2.473	2.483	2.642	2.854	3.553	4.167	4.443	3.166	2.022	1.497	1.528
325.0	491.6	536.6	486.0	324.5	232.4	213.0	233.3	269.7	308.9	371.0	430.7	472.9	467.1	542.2	634.1	285.0	147.5	149.4	324.6	1829	6352	3576	54.39	6.786	4.061	3.398	2.408	1.954	2.190	1.747	1.563	1.493	1.330	1.321	1.357	1.401	1.412	1.309	1.178	1.063	1.164	1.268	1.291	1.368	1.562	1.457	1.653	1.879	1.681	1.335	1.379	1.348	1.323	1.241	1.231	1.191	1.378	1.462	1.455	1.513	1.682	1.815	2.172	2.254	2.346	2.346	2.373	2.607	2.594	2.693	2.955	2.935	3.932	4.514	3.275	2.021	1.378
330.0	521.6	626.0	559.9	405.5	276.7	249.0	263.0	292.7	340.8	398.8	453.5	491.5	480.4	456.6	491.6	474.0	251.7	128.3	135.7	456.0	1903	4657	4651	1052	16.90	4.529	3.193	2.706	2.147	1.980	1.842	1.456	1.320	1.385	1.420	1.282	1.333	1.253	1.244	1.244	1.185	1.177	1.432	1.365	1.596	1.672	1.893	2.013	1.941	1.596	1.537	1.490	1.378	1.417	1.279	1.383	1.497	1.588	1.624	1.673	1.872	1.956	2.198	2.289	2.470	2.527	2.593	2.736	2.783	2.694	2.637	2.599	2.841	3.060	3.225	3.426	2.945
335.0	568.7	683.4	649.5	469.8	344.2	298.7	303.7	322.9	364.0	420.6	478.4	509.5	504.5	459.2	405.8	401.0	450.8	225.6	124.8	166.9	475.7	1128	3567	6375	405.8	16.37	4.101	3.332	2.687	1.986	1.960	1.705	1.429	1.524	1.314	1.362	1.201	1.339	1.278	1.223	1.267	1.092	1.502	1.496	1.594	1.958	1.941	2.169	2.159	1.876	1.570	1.789	1.601	1.623	1.563	1.575	1.619	1.783	1.865	1.865	2.068	1.882	2.274	2.395	2.481	2.570	2.715	2.660	2.807	2.939	2.826	2.777	2.758	2.690	2.545	2.738	3.013
340.0	581.8	716.4	682.7	533.0	400.5	349.4	346.9	352.9	392.1	449.6	495.8	527.1	519.0	478.1	404.8	349.3	426.9	385.4	169.4	124.6	169.9	302.2	975.1	4895	3534	327.1	8.591	3.987	3.101	2.503	2.098	1.915	1.567	1.523	1.406	1.320	1.334	1.363	1.401	1.271	1.353	1.167	1.566	1.620	1.723	1.948	1.981	2.435	2.234	1.943	1.900	1.936	1.780	1.707	1.784	1.650	1.891	1.864	1.820	1.943	2.080	2.074	2.362	2.432	2.569	2.653	2.871	2.718	2.505	3.172	2.997	2.910	2.816	2.662	2.539	2.444	2.598
345.0	621.3	738.6	715.6	574.2	448.5	396.0	384.0	382.3	417.6	462.6	505.7	540.6	532.4	496.1	425.8	355.1	344.3	439.9	295.1	148.0	127.1	136.4	268.5	1447	5066	3220	50.19	5.622	3.914	2.967	2.483	1.909	1.671	1.558	1.581	1.348	1.190	1.504	1.378	1.313	1.342	1.301	1.393	1.521	1.738	1.988	2.058	2.433	2.354	2.111	2.074	2.235	1.964	1.950	1.773	1.783	1.971	1.966	1.958	2.101	2.061	2.254	2.428	2.566	2.665	2.687	2.966	2.939	2.922	3.011	3.272	2.970	2.940	2.842	2.620	2.601	2.436
350.0	616.8	737.8	722.7	627.7	518.6	473.7	444.6	435.0	452.5	490.2	524.3	553.7	547.0	513.2	455.2	387.6	341.3	361.0	396.2	284.2	168.0	133.1	136.8	378.9	1493	3653	3822	1013	17.39	3.830	3.037	2.066	1.819	1.616	1.514	1.364	1.324	1.450	1.259	1.261	1.229	1.362	1.330	1.523	1.719	2.091	2.061	2.413	2.360	2.144	2.157	2.479	2.275	2.363	2.098	2.110	2.252	2.281	2.153	2.342	2.373	2.415	2.603	2.541	2.589	2.956	2.905	2.957	3.127	3.117	3.121	2.940	3.042	2.962	2.846	2.647	2.600
355.0	618.5	734.2	741.6	673.5	594.9	551.9	524.5	502.6	521.3	533.2	556.3	570.3	567.4	541.9	492.1	429.7	381.0	351.6	351.8	404.0	290.2	176.0	141.1	165.9	385.3	878.6	2551	5173	390.9	18.93	4.099	2.954	2.177	1.718	1.637	1.466	1.436	1.289	1.309	1.289	1.320	1.354	1.443	1.484	1.802	2.084	2.112	2.458	2.410	2.290	2.125	2.602	2.535	2.536	2.351	2.405	2.462	2.471	2.632	2.685	2.620	2.786	2.798	2.624	2.647	2.937	2.811	3.072	3.127	3.031	3.337	3.025	2.956	3.293	3.086	2.780	2.808
360.0	630.6	740.3	761.5	727.2	662.3	619.6	596.1	555.5	564.5	575.5	590.2	586.6	583.8	557.5	516.7	462.1	415.7	383.5	353.5	382.2	403.0	250.0	170.2	142.4	160.8	245.8	678.5	3566	4700	337.2	10.62	3.804	2.441	1.929	1.884	1.519	1.438	1.486	1.305	1.421	1.453	1.342	1.449	1.556	1.753	1.965	2.127	2.306	2.422	2.221	2.039	2.650	2.644	2.883	2.698	2.797	2.935	2.879	2.875	2.650	2.872	2.881	2.812	2.988	2.926	3.185	3.129	3.144	2.977	3.104	3.305	3.410	3.234	3.351	3.122	3.028	3.153
365.0	636.1	767.8	772.3	741.6	720.0	681.6	647.6	610.7	619.4	609.2	612.8	618.4	604.4	578.8	536.6	487.8	454.7	414.5	378.8	361.3	419.9	357.9	216.0	162.3	130.4	122.9	199.1	1002	4249	3103	50.24	5.908	3.110	2.768	1.894	1.843	1.458	1.548	1.304	1.316	1.419	1.371	1.571	1.631	1.804	1.875	2.216	2.351	2.518	2.295	2.321	2.917	2.742	3.213	2.806	2.889	3.014	2.893	3.044	3.044	3.124	3.152	3.105	3.336	3.180	3.223	3.194	3.076	3.122	3.274	3.262	3.519	3.279	3.405	3.379	3.219	3.254
370.0	681.9	781.5	806.5	795.6	765.6	743.9	718.4	676.0	660.7	660.8	651.4	645.4	625.4	599.0	567.9	522.6	489.6	457.6	421.1	388.6	386.3	404.4	337.8	216.7	158.8	123.8	114.0	272.6	1189	3093	3521	1014	16.97	3.523	2.476	2.094	1.752	1.691	1.459	1.437	1.469	1.544	1.462	1.656	1.888	1.974	2.127	2.559	2.660	2.522	2.374	3.103	3.038	3.199	3.136	3.085	3.344	3.515	3.402	3.186	3.389	3.447	3.392	3.357	3.484	3.354	3.218	3.289	3.384	3.575	3.418	3.563	3.500	3.577	3.384	3.566	3.544
375.0	681.3	779.8	858.3	830.5	803.5	790.5	772.7	730.8	718.8	693.1	683.1	675.4	649.3	621.6	580.7	550.9	521.0	492.3	461.0	433.6	395.3	381.3	400.0	329.4	207.3	152.6	119.4	129.7	311.7	739.3	2126	4591	347.0	19.55	3.679	2.530	2.086	1.858	1.597	1.531	1.558	1.408	1.547	1.781	2.042	2.173	2.269	2.588	2.718	2.628	2.690	3.128	3.175	3.132	3.345	3.219	3.705	3.492	3.574	3.478	3.598	3.721	3.641	3.569	3.612	3.613	3.314	3.449	3.404	3.676	3.583	3.898	3.541	3.607	3.407	3.489	3.712
380.0	683.9	789.3	847.9	862.4	852.2	824.2	798.0	767.5	748.6	723.5	712.2	684.4	662.6	634.7	592.0	560.4	541.5	512.6	488.6	457.1	417.5	383.7	378.3	393.3	275.3	183.2	140.5	113.0	130.4	205.8	555.0	2979	4026	297.8	10.08	3.005	2.271	2.002	1.804	1.724	1.595	1.786	1.715	1.817	2.008	2.285	2.041	2.515	2.600	2.512	2.795	3.204	3.345	3.293	3.558	3.239	3.769	3.726	3.722	3.386	3.816	3.609	3.549	3.832	3.402	3.551	3.560	3.582	3.440	3.635	3.772	3.734	3.934	3.781	3.553	3.705	3.922
385.0	698.3	819.0	880.6	856.4	869.2	850.4	817.8	791.3	769.8	737.9	727.8	698.8	671.8	643.7	606.4	575.6	551.2	532.3	503.0	476.5	441.4	401.2	372.5	383.5	351.6	228.2	164.0	126.6	104.9	98.73	160.4	816.7	3377	2616	224.9	4.928	2.725	2.267	1.974	1.771	1.595	1.665	1.923	1.881	1.931	2.162	2.279	2.595	2.624	2.623	2.764	3.278	3.426	3.482	3.416	3.628	3.897	3.961	3.639	3.609	3.852	3.801	3.728	3.951	3.787	3.592	3.731	3.756	3.432	3.553	3.586	3.498	4.043	3.801	3.764	3.655	3.959
390.0	710.3	818.2	886.1	881.6	888.8	871.4	847.2	820.0	786.0	765.7	740.0	713.0	678.7	647.7	610.7	581.8	561.8	546.1	519.2	493.5	461.9	424.3	388.4	364.4	360.7	315.0	213.9	156.8	123.5	96.03	87.51	216.6	918.8	2370	2759	827.1	14.80	3.086	2.478	1.937	1.881	1.735	1.848	1.884	1.959	2.125	2.379	2.735	2.600	2.653	2.821	3.308	3.414	3.668	3.543	3.695	3.929	3.960	4.024	3.922	3.880	3.733	3.752	3.846	3.754	3.739	3.763	3.636	3.557	3.565	3.700	3.683	4.025	3.914	3.802	3.681	3.922
395.0	721.8	864.8	898.3	890.2	923.1	899.4	866.8	835.6	801.1	782.9	756.4	726.5	687.1	650.9	614.1	584.2	563.7	547.9	531.7	507.6	479.9	445.4	402.2	369.5	342.2	341.8	296.9	199.9	151.9	116.9	89.39	96.36	237.7	562.8	1607	3484	286.4	17.27	3.165	2.258	2.046	1.943	1.805	2.053	2.112	2.284	2.174	2.843	2.554	2.769	2.844	3.392	3.457	3.389	3.692	3.712	3.912	4.100	3.981	3.901	4.140	3.886	3.713	3.889	3.903	3.392	3.706	3.654	3.556	3.763	3.696	3.802	3.926	3.790	3.676	3.909	4.199
400.0	696.7	841.0	901.5	895.7	912.4	899.7	871.0	850.8	818.7	797.8	764.4	718.9	679.0	648.0	610.2	582.4	559.8	550.9	534.6	507.2	484.8	452.1	415.5	380.2	342.5	326.0	332.3	254.2	177.5	136.0	104.4	82.28	93.89	153.5	414.5	2221	3067	257.4	9.441	2.828	2.452	2.234	1.978	1.958	2.183	2.389	2.344	2.610	2.692	2.779	2.790	3.427	3.497	3.765	3.807	3.644	4.031	4.092	3.822	3.872	4.036	3.979	3.933	3.598	3.774	3.871	3.806	3.501	3.397	3.711	3.790	3.753	3.568	3.727	3.846	3.995	4.266
405.0	725.1	860.7	895.0	890.9	914.5	902.9	876.5	857.2	833.8	793.5	765.2	720.6	679.5	642.1	605.7	572.2	555.7	546.2	524.2	509.1	482.9	456.2	422.0	391.0	351.8	321.9	320.4	302.2	213.3	156.6	117.8	86.19	70.41	67.67	116.6	607.8	2559	2219	196.6	4.599	2.660	2.285	2.009	2.084	2.223	2.475	2.353	2.560	2.732	2.860	2.873	3.403	3.387	3.702	3.674	3.722	4.001	4.125	3.923	3.940	4.012	3.882	4.053	3.927	3.817	3.964	3.874	3.564	3.637	3.572	3.797	3.739	3.612	3.706	3.887	3.780	4.133
410.0	716.8	844.6	887.5	903.8	910.2	895.5	882.6	856.4	837.0	802.3	756.8	717.9	673.0	625.8	591.4	560.1	542.9	533.1	512.6	495.0	478.4	453.8	426.8	396.7	363.0	329.8	301.6	299.8	271.6	193.1	140.0	103.3	77.55	58.53	56.49	157.1	691.7	1887	2249	701.5	13.33	2.956	2.289	2.362	2.200	2.414	2.335	2.634	2.797	2.629	2.820	3.595	3.505	3.472	3.588	3.773	4.187	4.176	4.101	4.178	4.100	3.948	4.023	3.896	3.895	3.626	3.913	3.734	3.644	3.524	3.618	3.614	3.553	3.689	3.855	3.801	3.825
415.0	699.4	819.8	869.2	882.6	882.2	887.1	867.5	856.5	828.5	794.6	748.9	706.4	659.4	612.7	576.4	542.1	524.1	509.7	499.1	484.1	465.5	443.6	419.7	394.6	367.8	335.1	302.7	278.8	277.2	249.8	168.4	120.9	91.24	65.91	51.65	61.98	172.8	443.8	1259	2703	263.0	15.92	3.000	2.590	2.295	2.468	2.412	2.557	2.542	2.583	2.768	3.391	3.434	3.712	3.685	3.590	4.034	4.171	4.068	4.112	3.953	3.905	4.098	3.785	3.732	3.695	3.572	3.614	3.615	3.359	3.284	3.664	3.421	3.694	3.660	3.880	3.575
