Sample:	'1
File name:	银盘河入淮口.FD3
Run date:	'10:43:31, 04/03/2024
Operator:	Administrator
Comment:	'

Instrument
Model:	F-2700 FL Spectrophotometer
Serial number:	23B8-004
ROM Version:	4J14000 07

Instrument parameters
Measurement type:	3-D scan
Data mode:	Fluorescence
EX  Start WL:	220.0 nm
EX  End WL:	600.0 nm
EX Sampling interval:	5.0 nm
EM  Start WL:	230.0 nm
EM  End WL:	650.0 nm
EM Sampling interval:	5.0 nm
Scan speed:	12000 nm/min
EX Slit:	5.0 nm
EM Slit:	5.0 nm
PMT Voltage:	700 V
Response:	Auto 
Corrected spectra:	Off
Contour interval:	50.000

Peak integration
Integration method:	Rectangular
Sensitivity:	1
Threshold:	1.000

Peaks
No.	ApexEX/EM(nm)	Height(Data)
1	225.0/600.0	86.83
2	225.0/625.0	74.37
3	230.0/325.0	1535
4	230.0/495.0	333.9
5	230.0/640.0	65.26
6	240.0/520.0	236.1
7	245.0/535.0	193.5
8	250.0/545.0	160.1
9	255.0/280.0	541.2
10	255.0/560.0	129.7
11	260.0/285.0	560.0
12	260.0/575.0	107.7
13	265.0/585.0	109.5
14	270.0/300.0	1226
15	270.0/595.0	107.9
16	275.0/305.0	1526
17	275.0/330.0	1542
18	275.0/610.0	103.7
19	280.0/310.0	1542
20	280.0/625.0	95.65
21	285.0/320.0	1529
22	285.0/635.0	75.16
23	310.0/350.0	331.8
24	315.0/355.0	329.1
25	320.0/360.0	325.9
26	325.0/370.0	316.9
27	330.0/375.0	321.1
28	335.0/380.0	323.8
29	340.0/390.0	300.3
30	345.0/395.0	288.2
31	350.0/400.0	285.3
32	355.0/410.0	263.2
33	360.0/415.0	250.0
34	365.0/420.0	241.7
35	430.0/505.0	37.78
36	435.0/510.0	32.60
37	440.0/515.0	29.00
38	455.0/330.0	5.721
39	460.0/325.0	5.622
40	505.0/275.0	3.078
41	515.0/280.0	3.218
42	520.0/285.0	3.593
43	530.0/290.0	4.296
44	540.0/295.0	5.816
45	555.0/305.0	7.656
46	560.0/310.0	7.717
47	570.0/315.0	7.910
48	575.0/320.0	7.268
49	585.0/325.0	6.812

Data points
	220.0	225.0	230.0	235.0	240.0	245.0	250.0	255.0	260.0	265.0	270.0	275.0	280.0	285.0	290.0	295.0	300.0	305.0	310.0	315.0	320.0	325.0	330.0	335.0	340.0	345.0	350.0	355.0	360.0	365.0	370.0	375.0	380.0	385.0	390.0	395.0	400.0	405.0	410.0	415.0	420.0	425.0	430.0	435.0	440.0	445.0	450.0	455.0	460.0	465.0	470.0	475.0	480.0	485.0	490.0	495.0	500.0	505.0	510.0	515.0	520.0	525.0	530.0	535.0	540.0	545.0	550.0	555.0	560.0	565.0	570.0	575.0	580.0	585.0	590.0	595.0	600.0
230.0	56.37	1847	6344	2504	99.55	8.049	6.698	5.412	4.418	4.269	4.401	4.245	3.678	3.411	3.241	2.705	2.498	2.174	2.014	1.899	1.755	1.542	1.533	1.377	1.413	1.279	1.145	1.093	1.122	1.073	0.963	1.007	0.952	0.974	0.840	0.719	0.733	0.649	0.624	0.565	0.628	0.962	0.899	0.634	0.580	0.598	2.483	12.93	24.02	18.26	7.338	1.508	0.448	0.375	0.334	0.305	0.355	0.342	0.284	0.261	0.250	0.233	0.252	0.210	0.171	0.213	0.154	0.152	0.146	0.126	0.119	0.090	0.091	0.080	0.093	0.097	0.080
235.0	159.3	478.4	3103	6333	3006	183.6	9.412	6.717	5.988	5.378	5.141	4.832	4.090	3.841	3.407	2.689	2.617	2.403	2.242	2.039	1.707	1.632	1.509	1.566	1.433	1.265	1.165	1.053	1.216	1.105	0.882	1.023	0.975	0.951	0.857	0.915	0.639	0.668	0.737	0.572	0.522	0.634	0.778	1.004	0.910	0.719	0.981	3.441	8.137	14.43	22.00	24.43	12.91	3.052	0.430	0.367	0.348	0.325	0.284	0.217	0.273	0.243	0.236	0.198	0.183	0.176	0.175	0.132	0.179	0.208	0.131	0.117	0.102	0.077	0.107	0.087	0.055
240.0	180.8	224.9	830.1	4265	7551	2464	96.04	11.12	7.738	7.482	7.088	5.006	4.437	4.476	3.747	3.325	2.815	2.937	2.378	2.181	2.009	1.592	1.535	1.604	1.414	1.396	1.321	1.359	1.167	1.075	1.129	0.941	1.111	0.918	0.863	1.035	0.798	0.752	0.724	0.533	0.639	0.585	0.601	0.740	1.019	1.257	0.936	1.260	2.268	4.050	10.10	27.27	37.20	24.14	10.92	1.489	0.388	0.336	0.358	0.324	0.397	0.229	0.206	0.211	0.216	0.151	0.206	0.165	0.180	0.129	0.149	0.120	0.099	0.101	0.095	0.131	0.078
245.0	118.0	253.9	271.4	1256	6427	8209	460.3	38.23	10.55	9.096	7.634	6.208	4.900	5.142	4.199	3.302	3.188	2.685	2.463	2.439	2.074	1.822	1.548	1.656	1.405	1.308	1.287	1.251	1.169	1.235	1.256	0.978	1.082	0.964	0.903	0.928	0.754	0.770	0.718	0.674	0.652	0.543	0.569	0.566	0.819	1.124	1.261	1.230	1.034	1.265	2.683	8.220	21.77	39.51	44.19	22.16	7.290	0.762	0.325	0.350	0.376	0.326	0.194	0.223	0.270	0.194	0.199	0.170	0.194	0.118	0.136	0.096	0.111	0.084	0.054	0.091	0.082
250.0	47.40	134.7	272.8	391.5	1798	6036	9313	4054	131.7	13.37	11.17	8.904	6.985	5.762	4.815	3.820	3.424	3.172	2.717	2.402	2.084	1.934	1.830	1.795	1.734	1.520	1.412	1.369	1.276	1.381	1.219	1.064	1.079	1.021	0.809	0.936	0.834	0.752	0.757	0.632	0.664	0.619	0.593	0.628	0.543	0.653	0.820	1.058	1.312	1.166	1.240	2.307	5.393	11.65	22.62	33.87	40.87	43.43	17.13	7.295	0.922	0.391	0.303	0.307	0.245	0.224	0.209	0.141	0.218	0.178	0.146	0.165	0.122	0.111	0.145	0.126	0.109
255.0	30.76	46.71	138.1	337.5	514.3	1427	5362	9999.9	2458	159.3	18.17	13.02	9.508	7.744	6.314	4.895	3.980	3.430	2.724	2.600	2.415	2.065	1.908	2.108	1.629	1.690	1.589	1.617	1.467	1.410	1.525	1.043	0.957	1.026	0.803	0.949	0.766	0.837	0.747	0.685	0.632	0.604	0.571	0.595	0.595	0.572	0.576	0.699	0.786	1.074	1.454	1.899	1.942	3.064	5.462	8.099	14.00	35.67	67.48	80.27	26.53	9.342	0.727	0.323	0.349	0.245	0.322	0.159	0.270	0.189	0.171	0.146	0.133	0.092	0.142	0.136	0.153
260.0	24.25	28.99	52.63	230.5	374.9	385.3	1412	8039	9999.9	2050	106.4	18.35	13.39	9.625	7.435	5.353	4.813	3.835	3.368	2.977	3.032	2.168	2.110	2.096	1.870	2.087	1.818	1.430	1.504	1.475	1.425	1.276	1.176	1.028	0.939	0.981	0.864	0.858	0.847	0.664	0.694	0.684	0.581	0.589	0.666	0.536	0.610	0.671	0.523	0.603	0.971	1.861	2.167	1.545	1.689	2.199	3.617	9.094	25.60	64.87	97.18	88.34	22.46	4.692	0.427	0.313	0.346	0.218	0.177	0.177	0.197	0.222	0.155	0.116	0.140	0.105	0.155
265.0	23.23	25.51	29.74	95.63	329.3	299.6	365.8	2351	9999.9	9999.9	1567	46.64	18.22	11.96	8.829	6.883	5.907	4.408	3.719	3.448	3.028	2.635	2.300	2.166	1.939	1.896	1.807	1.555	1.789	1.445	1.409	1.461	1.197	1.103	0.932	0.803	0.873	0.838	0.763	0.763	0.708	0.702	0.664	0.603	0.650	0.622	0.691	0.577	0.502	0.484	0.674	0.939	1.691	2.185	1.743	1.132	1.271	2.447	6.227	17.61	46.03	100.2	122.4	33.50	16.37	1.672	0.418	0.308	0.239	0.229	0.245	0.217	0.217	0.221	0.177	0.182	0.170
270.0	39.53	35.19	31.13	45.53	137.4	329.7	331.5	590.0	2978	9999.9	9999.9	5700	91.57	20.91	13.90	9.831	8.024	6.099	4.797	4.179	3.291	2.969	2.808	2.397	2.276	2.114	2.003	1.913	1.925	1.756	1.723	1.591	1.334	1.283	1.037	0.964	1.012	0.915	0.823	0.766	0.788	0.702	0.785	0.680	0.662	0.722	0.635	0.676	0.521	0.515	0.575	0.600	0.791	1.280	1.844	2.141	1.949	1.500	1.945	4.411	10.90	26.68	52.27	78.18	112.0	91.95	68.89	11.95	2.212	0.499	0.391	0.329	0.275	0.267	0.187	0.212	0.242
275.0	68.85	63.73	55.95	40.40	55.77	126.8	402.7	414.6	720.9	2377	8927	9999.9	8123	107.4	22.77	14.86	11.07	8.114	6.483	5.205	4.336	3.795	3.155	2.680	2.420	2.852	2.318	1.861	2.142	2.111	1.848	1.525	1.444	1.478	1.176	1.208	1.150	1.059	0.789	0.886	0.798	0.896	0.867	0.816	0.876	0.744	0.710	0.793	0.669	0.659	0.608	0.601	0.599	0.660	0.819	1.073	1.856	3.078	2.789	1.935	2.963	6.477	12.19	18.09	30.14	58.14	141.0	182.4	34.52	18.43	1.781	0.427	0.398	0.289	0.299	0.313	0.253
280.0	131.7	137.0	109.3	62.80	47.04	57.66	206.7	541.2	354.3	597.9	2368	9999.9	9999.9	1195	75.78	21.14	15.69	10.62	8.007	6.224	5.012	4.376	4.033	3.076	2.830	2.823	2.370	2.200	2.322	2.166	1.948	1.682	1.640	1.619	1.369	1.490	1.238	1.335	0.966	1.012	0.884	1.033	0.906	0.978	0.970	0.985	0.937	1.045	0.946	0.619	0.694	0.636	0.637	0.574	0.588	0.634	1.025	1.846	3.167	3.218	2.117	2.037	3.361	4.663	7.446	14.21	43.15	107.4	169.7	192.9	32.13	12.08	0.819	0.388	0.455	0.333	0.290
285.0	233.9	269.6	245.6	160.2	75.14	55.22	97.68	380.2	560.0	298.2	672.7	3145	9999.9	9999.9	923.3	45.61	21.02	13.89	9.920	7.370	6.104	5.008	4.695	3.527	3.366	3.096	2.679	2.416	2.726	2.229	2.078	1.880	1.533	1.773	1.732	1.732	1.696	1.505	1.359	1.307	1.074	1.097	1.150	1.210	1.214	1.188	1.243	1.532	1.400	1.028	1.084	0.868	0.822	0.741	0.655	0.620	0.819	1.016	1.763	3.019	3.593	2.745	1.822	1.920	2.554	4.122	10.79	26.31	60.20	150.5	209.9	174.0	26.89	7.108	0.739	0.526	0.401
290.0	471.6	568.9	541.6	354.0	167.2	95.04	98.78	203.2	507.6	665.6	510.0	1017	3475	9999.9	9999.9	3672	62.55	22.90	15.44	10.60	8.148	6.323	5.479	4.311	4.082	3.732	3.221	2.935	3.094	2.485	2.451	2.234	1.964	2.011	2.438	2.192	2.378	2.204	1.865	1.712	1.516	1.657	1.671	1.814	1.872	2.127	2.140	2.564	2.306	1.962	1.614	1.469	1.112	0.971	0.854	0.749	0.834	0.900	1.215	1.546	2.404	3.320	4.296	3.601	2.626	2.613	4.083	7.484	15.18	37.34	69.82	118.9	152.4	179.5	128.6	19.16	8.129
295.0	732.9	893.6	873.0	562.5	271.3	152.2	143.4	198.5	340.7	710.6	1032	776.2	1228	2619	9999.9	9999.9	5504	74.47	24.36	16.20	11.90	8.676	7.105	5.488	5.084	4.708	3.990	3.529	3.317	3.101	2.712	2.575	2.388	2.648	2.854	2.845	2.892	2.756	2.606	2.133	2.028	2.192	2.225	2.332	2.683	2.955	2.988	3.633	3.222	2.689	2.212	2.023	1.773	1.193	1.110	1.015	1.124	1.135	1.196	1.483	1.695	2.332	3.114	4.471	5.816	4.928	4.011	4.185	5.672	10.52	17.70	28.22	36.74	63.58	149.8	253.2	226.4
300.0	853.7	1080	1106	718.4	344.8	196.4	185.2	246.8	361.8	607.3	1226	1122	873.2	1010	2743	9999.9	9999.9	4053	56.24	22.60	15.24	10.92	8.983	6.648	5.986	5.304	4.418	4.201	3.532	3.384	2.805	2.654	2.697	2.905	2.952	3.269	3.281	3.160	2.737	2.543	2.319	2.453	2.667	2.851	2.929	3.434	3.489	4.294	4.034	3.292	2.682	2.566	2.012	1.518	1.269	1.292	1.324	1.405	1.410	1.636	1.986	2.305	2.845	3.439	5.074	6.810	6.836	4.941	4.650	5.424	6.673	8.479	10.01	15.89	38.69	105.1	225.9
305.0	984.6	1224	1254	819.4	417.7	251.7	233.7	299.9	433.2	651.1	1099	1526	1058	772.5	932.7	3176	9999.9	9999.9	592.1	40.88	20.15	13.85	11.52	8.640	6.621	6.049	4.862	4.773	3.997	3.871	3.199	2.947	2.842	3.314	3.430	3.366	3.749	3.442	2.969	2.831	2.622	2.524	2.850	2.940	3.342	3.695	3.906	5.000	4.701	3.722	3.040	3.178	2.384	1.791	1.522	1.389	1.416	1.754	1.604	1.936	2.429	2.771	3.081	3.374	3.957	5.727	7.455	7.656	6.378	5.243	4.593	4.554	4.517	5.479	10.07	25.07	61.56
310.0	1057	1334	1389	894.6	469.7	307.4	298.5	378.8	534.9	763.5	1124	1459	1542	1042	678.2	938.4	3489	9999.9	9999.9	9237	48.14	22.27	15.92	11.61	8.706	7.351	6.086	5.320	4.617	4.331	3.754	3.505	3.274	3.722	3.547	3.761	3.783	3.755	3.230	2.970	2.955	2.756	3.096	3.268	3.614	4.173	4.298	4.987	5.004	4.009	3.574	3.249	2.590	2.044	1.822	1.758	1.755	1.987	1.959	2.372	2.940	3.146	3.637	3.976	4.387	5.159	6.073	6.926	7.717	7.615	6.337	4.723	3.729	3.759	4.179	7.090	15.05
315.0	1117	1365	1473	927.8	521.7	361.5	369.1	445.5	623.8	881.9	1243	1432	1534	1505	843.0	499.6	913.9	2385	9999.9	9999.9	4016	57.16	24.25	16.12	11.73	8.706	7.922	6.326	5.619	5.235	4.524	3.889	3.693	3.828	3.787	3.780	3.936	3.857	3.576	3.252	3.056	3.218	3.350	3.556	3.968	4.252	4.547	5.214	5.316	4.375	3.669	3.398	2.662	2.241	2.150	1.952	2.011	2.369	2.201	2.549	3.196	3.744	4.171	4.445	4.981	5.623	6.451	6.247	6.642	7.323	7.910	7.266	5.471	4.498	3.311	3.287	4.802
320.0	1110	1387	1487	944.4	553.2	406.5	404.6	486.6	668.1	957.3	1339	1486	1491	1529	1136	471.8	352.4	613.6	2580	9999.9	9999.9	3255	47.79	22.33	15.39	11.55	9.341	7.435	6.414	5.871	5.014	4.257	4.128	3.987	3.717	4.014	4.122	4.007	3.564	3.683	3.203	3.457	3.668	3.705	4.216	4.406	4.811	5.340	5.515	4.302	3.732	3.614	2.790	2.514	2.503	2.149	2.166	2.402	2.665	2.984	3.503	3.859	4.521	5.028	5.010	5.826	6.312	6.193	6.569	6.804	6.884	7.268	7.184	6.198	4.078	2.686	2.629
325.0	1105	1422	1535	973.0	578.7	432.8	440.9	519.4	701.6	985.0	1389	1527	1518	1410	1276	625.1	250.8	223.9	641.0	3119	9999.9	9999.9	467.8	36.67	20.34	15.15	11.36	9.180	7.628	6.352	5.422	4.652	4.568	4.343	3.940	4.033	4.045	3.852	3.863	3.489	3.466	3.549	3.585	3.854	3.989	4.554	4.812	5.374	5.622	4.637	3.788	3.670	3.053	2.637	2.600	2.352	2.240	2.455	2.701	3.059	3.449	4.020	4.821	5.084	5.589	5.975	6.565	6.383	6.563	6.508	6.516	6.501	6.502	6.812	6.192	3.714	2.424
330.0	1087	1400	1534	987.2	607.3	458.9	463.3	535.4	723.9	1005	1412	1542	1532	1351	1109	759.4	377.0	160.7	210.5	753.7	3413	9999.9	9999.9	8676	43.13	22.14	15.68	11.54	9.683	7.954	6.790	5.540	5.061	4.779	4.358	4.146	4.166	4.198	3.974	3.454	3.459	3.435	3.668	3.820	4.256	4.674	4.981	5.721	5.507	4.455	3.959	3.757	3.201	2.831	2.662	2.457	2.552	2.696	2.715	3.026	3.807	4.084	4.635	5.142	5.506	5.890	6.613	6.836	6.690	6.753	6.575	6.082	5.856	5.724	4.902	4.554	3.869
335.0	1038	1358	1491	952.8	623.0	485.4	474.8	543.3	721.2	991.0	1363	1509	1482	1314	1015	626.1	523.4	260.4	129.8	229.1	813.5	2369	9999.9	9999.9	3392	50.81	23.44	16.17	12.52	9.595	7.752	6.930	5.481	5.877	5.024	4.281	4.549	4.346	4.211	3.546	3.508	3.701	3.477	4.023	4.313	4.806	5.237	5.657	5.158	4.585	3.891	4.138	3.335	3.009	2.686	2.601	2.870	2.874	2.869	3.133	3.895	4.167	4.521	4.881	5.408	5.705	6.431	6.662	6.574	6.706	6.418	6.382	5.803	5.270	4.014	3.809	3.347
340.0	1014	1279	1410	940.0	624.2	492.7	473.7	543.6	702.5	955.0	1314	1436	1419	1258	962.3	554.1	438.9	396.6	162.5	120.1	242.4	581.8	2695	9999.9	9999.9	2893	42.36	20.51	15.31	11.38	9.255	7.869	6.119	5.681	5.060	4.552	4.216	4.750	4.202	3.589	3.641	3.442	3.457	3.962	4.297	4.522	4.953	5.633	5.126	4.384	3.758	4.004	3.447	2.748	2.790	2.867	2.767	2.898	3.041	3.047	3.937	4.096	4.588	4.868	5.382	5.631	6.043	6.325	6.246	6.458	6.263	6.161	5.712	5.100	3.982	3.363	2.919
345.0	968.3	1214	1348	905.4	632.1	511.7	486.4	532.7	673.3	901.5	1222	1353	1339	1189	914.3	527.6	341.8	392.3	282.2	125.7	123.6	190.2	658.1	3309	9999.9	9999.9	416.1	32.07	18.81	13.84	10.83	8.380	6.809	5.978	5.495	4.801	4.646	4.487	3.794	3.608	3.643	3.266	3.472	4.023	3.988	4.549	4.624	4.952	4.838	3.987	3.743	4.044	3.364	2.823	2.776	2.688	2.660	2.819	2.862	3.082	3.784	3.889	4.279	4.586	4.942	5.326	5.507	5.876	6.149	6.090	6.149	5.429	5.030	4.739	3.672	2.960	2.802
350.0	874.8	1096	1193	842.7	619.0	501.6	474.1	520.7	642.2	821.7	1094	1207	1199	1081	843.1	508.3	314.7	285.5	331.8	242.0	130.5	120.3	212.0	796.5	3768	9999.9	9999.9	7867	39.20	19.64	14.28	10.34	7.822	6.849	5.820	4.879	4.583	4.607	3.912	3.821	3.437	3.256	3.348	3.558	3.674	4.129	4.197	4.863	4.544	3.985	3.526	3.704	3.226	2.752	2.601	2.512	2.765	2.816	2.957	2.976	3.384	3.694	3.923	4.188	4.430	5.029	5.307	5.285	5.456	5.624	5.275	5.134	4.713	4.447	3.538	2.918	2.712
355.0	819.5	1027	1077	783.7	604.5	508.3	471.4	506.0	598.9	751.9	981.7	1071	1062	956.3	765.3	486.4	321.6	257.7	256.9	329.1	232.3	131.6	129.9	245.7	896.0	2413	9999.9	9999.9	3185	46.72	19.40	14.25	10.15	8.109	6.173	5.320	4.939	4.725	4.255	3.470	3.277	3.350	3.276	3.414	3.642	3.985	3.780	4.289	4.365	3.471	3.248	3.455	3.108	2.742	2.735	2.441	2.773	2.538	2.767	2.830	3.209	3.322	3.626	3.945	4.215	4.691	4.633	4.888	5.171	4.938	4.878	4.645	4.408	4.373	3.489	2.901	2.661
360.0	764.4	946.7	1004	748.7	597.9	522.6	476.4	503.6	583.9	706.6	890.9	975.5	964.5	878.9	709.9	471.9	331.7	270.6	240.9	283.2	325.9	190.5	130.6	139.0	266.6	595.4	2755	9999.9	9999.9	2783	38.29	18.12	12.86	9.832	7.505	5.822	5.554	4.980	4.429	3.951	3.442	3.231	3.314	3.247	3.345	3.952	3.838	4.338	4.124	3.361	2.985	3.362	3.287	2.688	2.780	2.576	2.699	2.649	2.882	2.853	3.236	3.270	3.362	3.744	4.115	4.115	4.418	4.522	4.770	4.670	4.542	4.361	4.094	4.047	3.426	2.847	2.660
365.0	720.6	881.5	920.8	730.7	607.3	523.3	489.7	507.1	562.1	673.6	826.9	893.1	876.2	820.9	665.8	468.1	344.0	284.7	254.6	247.9	319.0	286.8	159.8	127.6	139.0	197.7	671.0	3540	9999.9	9999.9	395.6	30.97	16.62	12.35	8.722	6.258	5.789	5.126	4.712	4.098	3.523	3.358	3.439	3.339	3.488	3.800	3.832	4.177	3.957	3.355	3.020	3.194	2.940	2.796	2.564	2.564	2.772	2.760	2.779	2.879	3.029	3.126	3.436	3.514	3.756	3.936	3.997	4.227	4.294	4.392	4.399	4.199	3.869	3.679	3.212	2.767	2.692
370.0	664.2	813.1	862.3	699.2	592.6	526.7	513.9	518.6	553.3	640.4	760.2	815.1	797.8	741.5	619.4	457.8	360.3	314.1	279.8	262.3	271.2	316.9	267.3	167.2	132.3	125.2	215.0	849.3	3952	9999.9	9999.9	7839	34.84	17.69	11.93	8.493	6.761	6.073	4.970	4.204	3.808	3.475	3.471	3.420	3.360	3.676	3.626	3.860	3.718	3.258	2.990	3.300	2.869	2.804	2.752	2.654	2.789	2.857	2.740	2.914	3.095	3.022	3.370	3.453	3.581	3.654	3.780	3.881	4.067	4.241	3.958	3.708	3.745	3.647	3.095	2.743	2.636
375.0	622.8	746.1	793.2	680.9	593.8	551.9	523.6	527.4	550.6	618.8	702.0	747.4	725.7	679.3	579.7	447.3	376.7	341.3	315.5	288.2	275.3	277.3	321.1	266.4	160.7	128.2	127.1	252.6	932.9	2459	9999.9	9999.9	2774	40.57	17.78	11.98	8.885	7.470	5.719	4.824	4.120	3.949	3.661	3.747	3.451	3.628	3.504	3.619	3.439	3.136	2.911	3.161	2.993	2.916	2.765	2.767	2.913	2.930	2.842	2.896	3.003	3.174	3.332	3.417	3.375	3.425	3.578	3.434	3.696	3.733	3.589	3.626	3.315	3.544	3.083	2.927	2.861
380.0	588.8	736.4	764.8	684.9	595.4	575.4	526.2	541.3	556.6	598.2	662.0	712.5	682.2	641.0	547.8	449.7	387.9	356.7	338.2	311.8	293.2	272.3	296.1	323.8	214.5	145.5	121.1	129.5	266.1	600.2	2819	9999.9	9999.9	2387	32.73	15.23	11.34	8.615	6.474	5.294	4.321	3.975	4.019	3.630	3.559	3.486	3.269	3.712	3.587	2.975	2.940	3.070	3.133	3.092	2.916	2.808	2.925	2.925	2.798	2.930	3.054	3.176	3.164	3.466	3.185	3.305	3.423	3.283	3.685	3.659	3.614	3.525	3.227	3.550	3.139	2.568	2.923
385.0	593.2	696.5	754.0	667.4	588.7	574.0	530.7	534.5	556.5	587.5	643.0	675.8	652.5	605.2	537.0	446.7	398.3	372.3	349.8	331.0	310.2	288.6	277.9	311.4	290.0	179.9	134.3	114.4	127.8	189.8	678.8	3668	9999.9	9999.9	327.3	24.31	14.12	10.63	7.487	5.794	4.947	4.238	3.901	3.846	3.783	3.681	3.677	3.716	3.532	3.095	2.905	3.339	3.103	3.071	2.892	2.801	2.802	3.058	2.878	3.082	3.091	3.124	3.210	3.196	3.234	3.218	3.504	3.166	3.555	3.661	3.416	3.390	3.247	3.259	2.920	2.768	2.709
390.0	594.6	686.1	731.0	660.6	605.4	589.7	574.2	561.3	560.4	581.7	621.1	635.7	616.0	578.3	516.6	444.1	406.2	386.6	368.8	351.5	327.7	309.8	288.6	282.5	300.3	260.0	173.1	131.4	112.9	110.5	205.9	867.9	3735	9999.9	9999.9	6159	29.12	14.33	10.12	7.502	5.892	5.009	4.570	4.030	3.967	4.038	3.817	3.757	3.354	3.204	2.989	3.293	3.278	3.103	2.984	2.918	3.272	3.135	3.053	2.989	2.995	3.074	3.109	3.206	3.337	3.158	3.247	3.209	3.333	3.337	3.178	2.985	3.097	3.046	3.109	2.925	2.916
395.0	608.6	688.4	698.1	641.5	619.0	602.6	581.9	570.1	569.2	574.2	599.6	596.7	588.8	550.2	503.1	440.7	411.0	397.6	385.4	366.4	348.0	325.9	306.4	287.3	273.0	288.2	248.4	164.0	129.2	108.0	112.5	244.4	872.6	2443	9999.9	9999.9	2352	35.16	14.25	9.924	7.177	5.860	5.520	4.702	4.424	4.168	3.945	4.135	3.820	3.257	2.953	3.383	3.280	3.334	3.204	3.122	3.240	3.444	3.176	3.149	3.309	3.111	3.184	3.040	3.332	3.109	3.234	3.040	3.176	3.074	3.138	2.975	2.877	3.271	2.960	2.979	2.956
400.0	600.3	678.0	674.5	647.2	630.4	607.6	591.3	582.3	574.1	574.6	590.7	586.5	567.7	537.9	489.9	437.5	417.3	404.8	390.5	373.3	358.8	337.1	320.7	298.4	273.3	267.7	285.3	211.6	150.5	120.0	100.3	114.1	238.3	583.1	2708	9999.9	9999.9	2089	28.41	12.24	9.142	7.036	5.941	5.015	4.628	4.137	3.910	4.172	3.634	3.184	3.052	3.277	3.425	3.233	3.311	3.157	3.348	3.369	3.313	3.317	2.995	3.161	3.083	3.046	3.269	3.222	3.050	3.226	2.920	3.026	3.038	2.848	2.974	2.961	3.105	2.703	3.007
405.0	580.6	659.8	673.2	642.9	623.8	622.6	607.7	592.2	576.4	567.9	579.8	570.6	553.5	528.7	478.1	437.4	416.4	405.2	392.3	377.6	362.6	348.5	330.8	308.9	282.7	257.6	274.6	262.0	179.4	135.3	107.5	89.91	103.9	169.1	639.4	3191	9999.9	9999.9	1598	21.45	10.79	8.086	7.002	5.108	4.880	4.279	4.053	3.980	3.674	3.323	3.078	3.590	3.444	2.973	3.199	3.381	3.640	3.255	3.366	3.456	3.027	3.191	3.120	3.195	2.938	3.048	3.118	2.898	2.940	2.663	3.069	2.981	2.928	3.073	2.953	2.793	3.059
410.0	586.3	653.1	668.7	644.2	626.4	605.7	598.0	591.3	587.7	573.5	577.6	569.8	539.3	508.1	464.3	426.8	409.8	402.0	393.6	378.3	365.2	352.1	336.5	315.6	293.5	265.5	254.5	263.2	238.9	169.5	125.1	98.41	82.78	84.64	178.8	744.1	3210	9999.9	9999.9	5845	25.83	11.30	8.484	6.690	5.469	5.012	4.427	4.370	3.913	3.473	3.188	3.607	3.403	3.110	3.255	3.290	3.465	3.348	3.255	3.413	3.266	3.196	3.277	3.214	3.031	2.868	2.995	2.889	2.898	2.831	2.899	2.811	2.909	2.900	2.900	3.018	2.870
415.0	568.0	624.4	644.8	625.4	604.5	599.0	597.4	595.6	588.7	577.8	563.8	549.9	514.4	486.7	447.9	417.3	398.9	390.8	386.8	371.9	359.8	350.9	335.9	319.8	300.7	274.4	252.6	241.3	250.0	222.3	152.1	111.2	88.31	72.18	82.18	197.4	741.8	2338	8084	9999.9	2201	32.35	11.89	8.273	6.395	5.878	4.782	4.558	4.000	3.371	3.234	3.498	3.498	3.321	3.345	3.301	3.524	3.490	3.140	3.308	3.312	3.384	3.284	3.025	2.836	2.757	2.925	2.893	2.841	2.778	2.807	2.683	2.768	2.883	2.648	2.696	2.899
