Sample:	'1
File name:	G2025061806±ıƒœ÷ßπµ.FD3
Run date:	'13:42:22, 06/23/2025
Operator:	Administrator
Comment:	'

Instrument
Model:	F-2700 FL Spectrophotometer
Serial number:	23B8-004
ROM Version:	4J14000 07

Instrument parameters
Measurement type:	3-D scan
Data mode:	Fluorescence
EX  Start WL:	220.0 nm
EX  End WL:	600.0 nm
EX Sampling interval:	5.0 nm
EM  Start WL:	230.0 nm
EM  End WL:	650.0 nm
EM Sampling interval:	5.0 nm
Scan speed:	12000 nm/min
EX Slit:	5.0 nm
EM Slit:	5.0 nm
PMT Voltage:	700 V
Response:	Auto 
Corrected spectra:	Off
Contour interval:	50.000

Peak integration
Integration method:	Rectangular
Sensitivity:	1
Threshold:	1.000

Peaks
No.	ApexEX/EM(nm)	Height(Data)
1	225.0/340.0	727.6
2	225.0/385.0	648.5
3	225.0/570.0	57.00
4	230.0/345.0	723.9
5	230.0/405.0	636.2
6	230.0/500.0	309.7
7	235.0/260.0	340.8
8	235.0/510.0	264.7
9	240.0/265.0	431.1
10	240.0/400.0	651.1
11	240.0/525.0	233.4
12	245.0/270.0	474.8
13	245.0/535.0	204.8
14	250.0/275.0	612.9
15	250.0/415.0	616.9
16	250.0/550.0	167.9
17	255.0/280.0	604.3
18	255.0/560.0	139.4
19	260.0/290.0	522.0
20	260.0/575.0	115.1
21	265.0/295.0	619.9
22	265.0/585.0	100.4
23	270.0/300.0	855.8
24	270.0/600.0	86.41
25	275.0/305.0	880.7
26	275.0/340.0	471.0
27	275.0/610.0	69.30
28	280.0/310.0	767.8
29	280.0/625.0	56.45
30	285.0/315.0	723.9
31	285.0/635.0	44.27
32	290.0/325.0	652.8
33	295.0/330.0	497.2
34	300.0/335.0	459.9
35	305.0/345.0	401.9
36	310.0/350.0	343.5
37	315.0/355.0	335.2
38	320.0/360.0	331.4
39	325.0/370.0	308.1
40	325.0/415.0	328.3
41	330.0/375.0	307.0
42	335.0/380.0	308.9
43	340.0/390.0	280.2
44	345.0/395.0	267.1
45	350.0/400.0	264.8
46	355.0/410.0	239.7
47	360.0/415.0	224.9
48	365.0/420.0	221.2
49	425.0/500.0	37.68
50	485.0/265.0	2.169
51	495.0/270.0	2.336
52	505.0/275.0	3.381
53	510.0/280.0	3.648
54	515.0/285.0	3.570
55	530.0/290.0	3.364
56	540.0/295.0	4.364
57	545.0/300.0	4.866
58	550.0/305.0	5.269
59	560.0/310.0	4.332
60	575.0/315.0	4.124
61	580.0/320.0	4.317
62	585.0/325.0	4.374

Data points
	220.0	225.0	230.0	235.0	240.0	245.0	250.0	255.0	260.0	265.0	270.0	275.0	280.0	285.0	290.0	295.0	300.0	305.0	310.0	315.0	320.0	325.0	330.0	335.0	340.0	345.0	350.0	355.0	360.0	365.0	370.0	375.0	380.0	385.0	390.0	395.0	400.0	405.0	410.0	415.0	420.0	425.0	430.0	435.0	440.0	445.0	450.0	455.0	460.0	465.0	470.0	475.0	480.0	485.0	490.0	495.0	500.0	505.0	510.0	515.0	520.0	525.0	530.0	535.0	540.0	545.0	550.0	555.0	560.0	565.0	570.0	575.0	580.0	585.0	590.0	595.0	600.0
230.0	92.47	1113	1686	356.1	14.05	6.359	4.829	4.406	3.875	3.584	2.938	2.723	2.532	2.102	1.637	1.520	1.342	1.194	1.147	1.002	0.959	0.829	0.719	0.790	0.669	0.708	0.646	0.554	0.575	0.612	0.565	0.567	0.495	0.434	0.437	0.444	0.413	0.410	0.555	0.419	0.557	0.673	0.557	0.435	0.384	0.405	1.590	4.831	5.982	3.395	1.088	0.354	0.264	0.268	0.275	0.283	0.260	0.272	0.262	0.274	0.287	0.286	0.278	0.264	0.246	0.287	0.276	0.301	0.292	0.294	0.256	0.318	0.279	0.294	0.292	0.310	0.279
235.0	132.8	337.6	1332	1689	403.4	19.61	4.989	5.118	3.992	3.434	3.042	2.720	2.777	2.060	1.749	1.616	1.249	1.432	1.151	1.043	0.850	0.798	0.679	0.692	0.743	0.687	0.602	0.597	0.484	0.553	0.542	0.591	0.536	0.443	0.435	0.431	0.417	0.446	0.541	0.418	0.395	0.473	0.571	0.699	0.602	0.461	0.580	1.515	2.986	4.686	5.855	5.437	2.153	0.536	0.273	0.296	0.327	0.234	0.276	0.304	0.248	0.273	0.282	0.252	0.281	0.246	0.276	0.236	0.279	0.318	0.324	0.262	0.246	0.303	0.259	0.364	0.355
240.0	219.2	155.7	468.4	1792	1737	292.7	10.54	5.408	4.450	3.933	3.714	3.161	2.440	2.357	1.815	1.524	1.565	1.131	1.118	1.171	0.865	0.912	0.673	0.699	0.669	0.591	0.679	0.580	0.584	0.598	0.609	0.617	0.452	0.456	0.410	0.388	0.429	0.440	0.493	0.347	0.412	0.419	0.438	0.685	0.759	0.742	0.539	0.573	0.979	1.662	3.890	8.490	8.936	5.106	1.631	0.356	0.315	0.271	0.357	0.302	0.274	0.324	0.304	0.325	0.263	0.236	0.266	0.303	0.310	0.240	0.356	0.287	0.307	0.296	0.271	0.414	0.365
245.0	180.5	236.8	165.9	725.2	2271	1618	191.2	7.357	6.042	3.649	3.439	3.212	2.998	2.443	2.083	1.562	1.488	1.164	1.155	1.108	0.894	0.868	0.753	0.734	0.726	0.683	0.794	0.585	0.606	0.567	0.633	0.570	0.501	0.433	0.434	0.417	0.377	0.454	0.581	0.402	0.428	0.385	0.340	0.425	0.560	0.861	0.859	0.844	0.538	0.571	1.163	3.436	7.439	11.53	9.696	4.469	1.166	0.347	0.356	0.350	0.292	0.285	0.299	0.280	0.277	0.245	0.276	0.293	0.315	0.294	0.269	0.286	0.390	0.279	0.262	0.369	0.290
250.0	79.47	213.7	252.2	239.9	830.3	2061	2182	639.0	29.20	4.896	4.401	3.782	3.175	2.575	2.133	1.714	1.456	1.403	1.269	1.047	0.926	0.917	0.847	0.761	0.803	0.693	0.732	0.636	0.614	0.618	0.582	0.574	0.470	0.533	0.450	0.455	0.405	0.429	0.555	0.429	0.453	0.402	0.330	0.366	0.394	0.511	0.691	0.919	0.996	0.863	0.669	1.058	2.081	4.324	7.024	10.38	12.35	10.14	5.009	1.379	0.335	0.292	0.286	0.280	0.268	0.275	0.260	0.336	0.323	0.320	0.286	0.293	0.325	0.278	0.306	0.340	0.302
255.0	45.93	78.32	233.9	328.9	266.3	589.7	2198	2868	291.6	24.67	5.453	4.953	3.507	2.710	2.317	1.928	1.706	1.349	1.266	1.151	1.040	0.873	0.849	0.725	0.774	0.873	0.665	0.592	0.686	0.657	0.575	0.600	0.444	0.444	0.416	0.499	0.415	0.405	0.518	0.436	0.436	0.529	0.380	0.383	0.324	0.423	0.466	0.489	0.616	1.129	1.402	1.179	1.069	1.293	1.868	2.831	5.528	12.50	20.20	17.00	7.025	1.314	0.402	0.286	0.297	0.315	0.297	0.331	0.268	0.330	0.304	0.261	0.340	0.287	0.307	0.387	0.331
260.0	36.27	37.24	100.9	340.8	307.7	199.2	770.7	3216	2367	231.7	12.90	6.204	4.015	3.473	2.452	2.215	1.528	1.431	1.172	1.052	1.117	0.900	0.811	0.679	0.871	0.700	0.700	0.690	0.631	0.643	0.562	0.676	0.513	0.461	0.442	0.478	0.439	0.410	0.483	0.509	0.412	0.487	0.423	0.351	0.392	0.341	0.410	0.384	0.425	0.584	1.100	1.692	1.673	1.116	0.879	1.008	1.686	3.800	9.943	19.69	24.69	16.64	5.346	0.663	0.311	0.298	0.305	0.315	0.285	0.313	0.326	0.296	0.308	0.303	0.326	0.360	0.382
265.0	41.11	28.78	39.78	190.4	431.1	245.0	242.4	1276	4212	2028	169.0	8.268	5.231	3.917	3.412	2.107	1.947	1.398	1.314	1.189	1.153	1.132	1.117	0.706	0.764	0.802	0.698	0.639	0.670	0.734	0.593	0.583	0.507	0.515	0.442	0.413	0.431	0.480	0.618	0.482	0.413	0.432	0.432	0.414	0.464	0.413	0.410	0.309	0.331	0.320	0.536	1.138	1.948	2.169	1.495	0.804	0.876	1.350	2.730	6.640	16.51	27.19	27.42	13.54	2.874	0.376	0.303	0.325	0.355	0.334	0.355	0.324	0.301	0.354	0.314	0.345	0.363
270.0	44.77	30.09	31.75	81.20	275.1	474.8	310.3	369.9	1520	3799	3810	701.7	30.54	5.637	4.036	2.791	2.372	1.939	1.707	1.412	1.253	1.200	1.064	0.974	0.881	0.824	0.854	0.712	0.764	0.803	0.689	0.610	0.622	0.617	0.552	0.502	0.460	0.456	0.591	0.452	0.423	0.404	0.428	0.454	0.433	0.458	0.386	0.365	0.393	0.372	0.360	0.629	0.936	1.545	2.189	2.336	2.114	1.341	1.182	1.951	4.285	8.545	15.42	23.19	26.57	20.31	11.43	2.890	0.495	0.330	0.320	0.369	0.299	0.363	0.332	0.364	0.362
275.0	80.66	56.48	46.67	62.15	143.7	321.8	612.9	333.7	394.3	1022	3650	6468	905.2	22.67	5.748	3.680	2.888	2.094	1.732	1.349	1.442	1.228	1.395	1.094	0.788	0.878	0.734	0.764	0.732	0.898	0.771	0.769	0.698	0.674	0.624	0.617	0.542	0.492	0.787	0.491	0.550	0.443	0.493	0.464	0.483	0.515	0.395	0.461	0.416	0.376	0.354	0.488	0.582	0.836	1.130	1.664	3.034	3.381	2.395	1.229	1.459	2.299	3.796	5.720	8.888	19.80	36.84	30.59	16.36	2.576	0.453	0.411	0.369	0.347	0.376	0.366	0.383
280.0	113.1	99.48	66.98	69.15	111.4	203.6	464.6	604.3	226.5	279.7	1126	5551	5922	140.4	11.40	4.774	3.529	2.514	2.184	1.887	1.506	1.476	1.505	1.033	0.915	0.954	0.757	0.813	0.801	0.951	0.828	0.696	0.733	0.683	0.681	0.642	0.651	0.648	0.775	0.523	0.516	0.464	0.533	0.525	0.544	0.601	0.496	0.572	0.469	0.458	0.383	0.465	0.514	0.670	0.868	0.969	1.825	2.845	3.648	2.854	1.574	1.079	1.351	1.688	2.459	5.451	13.98	29.61	43.11	28.33	11.22	1.350	0.343	0.375	0.389	0.338	0.377
285.0	154.6	143.1	98.41	80.12	102.3	151.3	251.9	603.1	339.3	148.5	318.8	1821	6575	4686	100.3	7.545	4.466	3.239	2.675	2.025	1.635	1.505	1.421	0.993	1.007	0.996	0.911	0.779	0.730	0.818	0.684	0.718	0.693	0.849	0.828	0.684	0.725	0.747	0.960	0.730	0.568	0.565	0.554	0.743	0.560	0.675	0.562	0.667	0.515	0.510	0.467	0.545	0.612	0.635	0.829	0.771	1.065	1.368	2.267	3.570	3.534	2.006	0.998	0.871	1.118	1.801	3.663	8.597	19.91	37.02	44.61	23.58	6.188	0.645	0.425	0.373	0.406
290.0	222.0	216.3	139.9	102.0	102.4	126.2	156.6	277.1	522.0	456.2	210.2	514.7	2026	4854	4786	425.8	20.78	4.505	3.423	2.415	1.825	1.788	1.422	1.343	1.114	1.012	1.002	0.943	0.852	0.907	0.778	0.781	0.760	0.791	0.849	0.865	0.890	0.817	0.987	0.812	0.634	0.661	0.647	0.696	0.719	0.765	0.678	0.772	0.659	0.615	0.509	0.569	0.656	0.598	0.731	0.783	0.833	0.934	1.107	1.533	2.290	3.082	3.364	2.550	1.368	1.155	1.534	2.626	5.234	10.17	18.82	27.99	29.74	32.07	16.01	5.725	0.760
295.0	276.3	270.4	204.9	140.7	104.6	123.5	130.2	156.8	256.7	619.9	582.8	289.7	584.0	1239	3376	5928	589.7	16.05	4.493	3.010	2.177	2.102	1.608	1.311	1.074	1.151	1.072	1.069	0.906	0.883	0.650	0.803	0.823	0.794	0.932	0.974	0.963	0.899	1.117	0.813	0.775	0.742	0.810	0.846	0.742	0.827	0.878	0.825	0.784	0.728	0.635	0.609	0.561	0.682	0.810	0.766	0.770	0.923	0.795	1.026	1.139	1.455	2.216	4.046	4.364	2.670	1.437	1.509	2.088	3.077	5.001	7.140	8.417	17.57	35.42	45.16	24.61
300.0	303.9	298.8	244.6	161.1	120.9	129.2	142.8	155.8	195.4	404.9	855.8	484.2	291.9	403.2	970.6	4534	5139	85.61	8.858	4.101	2.807	2.832	1.937	1.560	1.313	1.129	1.091	1.168	0.989	1.044	0.856	0.672	0.756	1.015	1.026	0.987	1.236	1.139	1.258	0.854	0.827	0.730	0.808	0.960	0.780	0.853	1.035	0.955	0.875	0.785	0.709	0.696	0.740	0.805	0.735	0.939	0.751	0.931	0.954	1.014	1.011	1.132	1.424	2.209	3.818	4.866	3.838	2.082	1.519	1.769	1.938	2.452	2.622	4.757	11.27	25.77	43.71
305.0	360.3	329.4	275.2	192.4	145.9	153.7	166.8	188.8	224.3	330.7	676.2	880.7	378.5	261.0	328.0	1388	5233	4015	67.73	5.884	3.791	3.156	2.022	1.468	1.437	1.421	1.343	1.068	1.074	0.948	0.923	0.859	0.758	0.966	1.181	1.026	1.180	1.020	1.424	1.060	0.907	0.882	0.847	0.942	0.909	1.109	1.140	1.150	0.941	0.883	0.735	0.766	0.801	0.827	0.787	0.947	1.003	0.955	1.126	1.133	1.312	1.261	1.538	1.757	2.327	3.584	5.269	4.580	3.073	1.757	1.571	1.745	1.677	1.904	3.233	6.738	15.67
310.0	369.9	368.8	319.5	222.9	179.4	185.6	197.6	226.3	259.8	326.1	456.3	739.5	767.8	369.8	221.4	402.1	1538	3794	3907	299.6	17.47	4.632	2.510	2.193	1.698	1.563	1.362	1.204	1.054	0.964	1.030	0.846	0.859	1.022	1.076	1.081	1.266	1.087	1.393	1.073	0.894	0.893	0.917	1.047	0.909	1.131	1.188	1.198	1.032	0.884	0.851	0.893	0.929	0.980	0.903	1.029	1.129	1.163	1.283	1.343	1.404	1.451	1.686	1.763	2.141	2.384	3.008	3.719	4.332	4.209	2.959	1.979	1.468	1.378	1.647	2.287	4.288
315.0	407.6	397.4	339.3	259.2	211.1	212.7	231.8	262.9	290.2	341.9	405.6	506.4	669.1	723.9	294.1	203.4	423.8	927.5	2501	4451	467.1	18.61	3.623	2.869	2.200	1.527	1.584	1.292	1.236	0.936	1.098	0.883	0.973	0.998	1.051	1.089	1.132	1.188	1.407	0.934	0.923	0.911	0.919	1.006	1.001	1.316	1.103	1.347	1.074	1.008	0.850	0.989	0.989	1.102	1.035	1.082	1.221	1.241	1.395	1.343	1.428	1.539	1.854	1.798	1.927	2.172	2.338	2.552	2.895	3.383	4.082	4.124	2.656	1.647	1.390	1.405	1.802
320.0	444.1	479.7	405.6	296.8	232.1	232.1	261.6	281.9	301.4	351.5	413.0	456.0	502.7	706.9	529.7	199.5	190.4	267.0	670.6	3278	3978	376.8	7.770	3.508	2.749	1.999	1.696	1.422	1.183	1.275	1.134	0.924	0.973	1.043	0.905	1.154	1.095	1.146	1.306	0.992	1.014	0.991	1.074	1.084	1.038	1.282	1.287	1.501	1.182	1.079	1.067	1.102	1.144	1.184	1.191	1.058	1.349	1.446	1.492	1.467	1.510	1.771	1.742	1.773	1.949	2.237	2.138	2.255	2.458	2.461	2.859	3.928	4.317	3.298	1.877	1.396	1.251
325.0	498.8	563.9	514.0	356.8	262.2	254.6	274.5	289.1	323.2	367.7	416.9	452.7	453.1	513.9	652.8	332.1	159.4	131.4	193.1	937.2	3817	3848	56.10	5.528	3.264	2.252	1.810	1.683	1.309	1.245	1.240	1.062	0.986	0.910	0.976	1.007	1.147	0.980	1.397	0.957	1.007	1.042	1.005	1.107	1.287	1.454	1.502	1.754	1.528	1.350	1.249	1.326	1.081	1.205	1.240	1.207	1.483	1.401	1.555	1.480	1.486	1.826	1.773	1.867	2.034	2.031	2.175	2.251	2.456	2.560	2.394	2.627	3.426	4.374	3.685	2.223	1.342
330.0	551.3	630.4	613.5	450.9	322.2	278.7	287.3	305.3	329.0	369.3	421.5	461.4	452.7	427.7	474.8	497.2	284.6	127.3	102.8	251.1	1085	4507	3182	842.7	15.87	3.004	2.366	1.830	1.559	1.367	1.315	1.104	1.006	1.006	1.034	0.997	1.106	0.987	1.489	1.029	1.032	1.047	1.041	1.086	1.338	1.405	1.682	1.818	1.868	1.701	1.486	1.660	1.373	1.322	1.363	1.283	1.485	1.500	1.699	1.563	1.633	1.836	1.980	1.832	2.135	2.118	2.238	2.351	2.372	2.392	2.353	2.427	2.492	2.882	3.254	3.258	2.962
335.0	575.8	680.7	662.5	539.9	375.2	307.1	305.8	315.8	340.7	382.0	430.9	470.9	468.0	423.5	378.2	377.8	459.9	238.1	107.2	115.1	283.4	1074	1982	3753	402.3	15.88	3.220	2.269	1.874	1.513	1.611	1.156	1.010	1.066	1.047	0.988	1.025	1.088	1.517	1.025	1.090	1.145	1.105	1.148	1.327	1.580	1.841	2.040	2.062	1.784	1.508	1.681	1.500	1.661	1.481	1.227	1.489	1.607	1.670	1.769	1.598	1.707	1.944	1.840	1.968	2.176	2.228	2.322	2.404	2.396	2.434	2.475	2.273	2.276	2.448	2.400	2.683
340.0	578.7	727.6	713.2	574.7	410.2	331.3	310.3	324.3	352.7	390.6	435.9	471.0	469.9	431.7	370.1	317.6	391.8	389.7	158.5	99.08	117.4	279.4	526.4	2724	3324	319.7	7.408	2.982	2.176	1.752	1.428	1.394	1.001	1.115	1.002	1.012	1.033	1.113	1.691	1.001	0.974	1.036	1.032	1.209	1.326	1.615	1.647	2.000	2.102	1.867	1.775	1.806	1.654	1.647	1.581	1.417	1.528	1.548	1.718	1.644	1.724	1.660	1.965	1.837	2.129	2.106	2.209	2.361	2.392	2.474	2.360	2.446	2.340	2.127	2.097	2.094	2.244
345.0	582.8	723.0	723.9	593.7	436.7	354.9	325.9	339.5	347.2	392.5	432.8	465.9	468.6	431.6	374.5	308.5	300.1	401.9	284.2	120.6	90.89	112.7	152.7	778.1	3208	2833	50.36	4.358	2.583	2.032	1.569	1.322	1.139	1.159	1.103	1.093	1.115	1.098	1.439	1.046	0.920	1.057	1.056	1.251	1.373	1.515	1.745	2.068	2.100	2.052	1.819	2.021	1.840	1.739	1.534	1.421	1.484	1.631	1.932	1.559	1.689	1.877	1.867	1.893	2.101	2.160	2.243	2.440	2.301	2.484	2.537	2.519	2.392	2.167	2.257	2.160	2.135
350.0	565.6	664.8	689.6	594.4	469.9	396.4	365.2	364.0	371.5	403.4	434.1	462.7	464.1	431.8	383.4	322.0	281.5	293.0	343.5	245.2	121.7	95.43	86.23	212.1	912.5	2402	2603	698.2	14.72	2.858	1.834	1.527	1.402	1.229	1.086	1.033	1.069	1.063	1.644	0.973	0.939	1.079	1.110	1.226	1.357	1.612	1.657	1.969	2.002	1.981	1.764	2.039	1.940	1.805	1.660	1.699	1.666	1.737	1.833	1.787	1.805	1.931	1.896	2.015	2.110	2.131	2.113	2.244	2.374	2.485	2.409	2.500	2.217	2.272	2.144	2.260	2.012
355.0	552.3	632.3	684.3	586.2	510.5	430.6	402.4	398.0	407.2	426.1	448.0	463.5	467.3	441.9	398.4	342.0	301.9	269.6	269.0	335.2	235.5	125.0	94.39	102.6	243.2	579.8	1638	3220	365.6	15.58	2.486	1.902	1.643	1.342	1.148	1.120	1.194	0.990	1.498	1.005	0.896	1.066	1.130	1.153	1.469	1.631	1.633	1.955	1.860	1.752	1.930	2.179	2.056	2.085	1.800	1.859	1.922	1.918	1.787	1.780	1.910	2.041	2.099	2.224	2.108	2.371	2.267	2.267	2.157	2.582	2.377	2.694	2.471	2.241	2.332	2.363	2.205
360.0	576.4	630.0	667.4	589.9	531.9	467.5	438.1	433.6	436.8	446.1	460.5	470.0	468.5	452.1	408.6	363.0	316.3	280.4	255.4	290.3	331.4	185.1	114.2	95.29	106.2	166.7	439.3	2270	2932	296.5	6.533	2.436	1.786	1.574	1.238	1.156	1.053	0.944	1.769	1.033	0.996	1.120	1.103	1.178	1.341	1.508	1.560	1.719	1.916	1.811	1.754	2.128	2.054	2.138	1.918	2.012	2.017	2.059	2.171	1.983	2.116	2.288	2.040	2.450	2.316	2.514	2.195	2.401	2.159	2.417	2.419	2.679	2.454	2.370	2.493	2.435	2.410
365.0	539.8	623.9	663.2	601.9	552.3	500.8	468.7	467.2	466.3	470.2	471.4	477.1	475.7	457.8	416.0	375.7	335.1	295.0	264.2	255.3	320.2	283.4	150.8	109.8	89.95	85.90	132.1	659.7	2768	2488	46.94	3.671	2.241	1.858	1.439	1.141	1.060	0.989	1.661	1.103	1.045	0.999	1.035	1.111	1.321	1.469	1.489	1.787	1.844	1.678	1.685	2.125	2.213	2.208	1.999	2.111	2.053	2.247	2.260	2.162	2.294	2.615	2.301	2.218	2.162	2.303	2.340	2.246	2.277	2.298	2.487	2.763	2.433	2.485	2.422	2.366	2.351
370.0	522.5	596.6	653.6	615.1	577.3	528.9	504.3	489.5	491.2	492.1	494.4	490.1	478.2	456.0	423.6	382.9	351.5	321.4	289.1	262.5	268.1	308.1	257.9	152.4	110.1	86.50	79.31	182.9	795.0	2161	2299	200.2	13.07	2.354	1.735	1.399	1.266	1.028	1.697	1.129	1.053	1.077	1.169	1.218	1.383	1.461	1.552	1.744	1.825	1.673	1.788	2.233	2.133	2.316	2.161	2.250	2.328	2.184	2.351	2.294	2.289	2.364	2.374	2.322	2.384	2.332	2.428	2.316	2.498	2.500	2.605	2.685	2.568	2.514	2.499	2.373	2.410
375.0	517.5	612.2	654.0	619.2	597.0	556.6	539.0	519.6	519.7	515.2	504.6	501.3	484.3	465.1	428.2	393.2	366.8	339.9	312.0	287.1	267.2	266.7	307.0	251.1	145.9	108.7	84.46	89.49	211.7	523.5	1507	2682	314.6	12.01	2.220	1.762	1.309	1.242	2.093	1.210	1.073	1.109	1.231	1.273	1.367	1.462	1.596	1.601	1.852	1.717	1.840	2.303	2.362	2.117	2.214	2.310	2.490	2.292	2.474	2.483	2.398	2.458	2.306	2.436	2.382	2.430	2.469	2.376	2.320	2.466	2.431	2.601	2.499	2.587	2.684	2.611	2.525
380.0	528.3	606.6	632.7	622.5	613.0	580.6	560.2	545.1	535.5	535.4	519.2	505.0	485.9	467.1	438.0	400.2	372.6	352.3	327.9	301.5	281.6	265.2	274.1	308.9	203.4	130.7	102.4	81.24	91.35	148.0	408.1	1991	2345	236.2	4.885	2.110	1.686	1.464	2.284	1.171	0.971	1.028	1.165	1.225	1.311	1.639	1.607	1.756	1.753	1.946	1.874	2.378	2.275	2.303	2.320	2.329	2.562	2.392	2.563	2.463	2.788	2.524	2.399	2.459	2.531	2.416	2.474	2.340	2.650	2.505	2.220	2.576	2.673	2.610	2.558	2.513	2.637
385.0	537.6	648.5	640.1	638.8	608.2	597.8	578.5	560.7	544.6	546.0	522.1	511.9	485.0	462.2	431.8	402.3	381.3	362.4	339.2	316.1	291.1	275.4	256.6	292.0	274.8	163.6	116.3	92.13	75.12	71.76	119.5	584.0	2218	1830	37.56	3.054	1.948	1.636	2.601	1.261	1.131	1.011	1.214	1.265	1.447	1.601	1.641	1.790	1.756	1.753	1.897	2.296	2.211	2.375	2.460	2.416	2.493	2.420	2.558	2.472	2.617	2.521	2.414	2.444	2.424	2.595	2.444	2.394	2.396	2.543	2.603	2.442	2.798	2.712	2.605	2.544	2.685
390.0	536.7	619.3	637.6	637.7	632.0	609.6	593.0	582.8	558.2	549.5	531.6	515.1	487.3	461.9	433.9	402.0	383.5	366.2	347.3	327.5	307.9	286.4	266.5	259.1	280.2	243.8	158.0	114.4	90.41	70.64	65.55	157.1	642.0	1609	1617	156.7	10.17	2.163	3.577	1.305	1.316	1.117	1.311	1.176	1.340	1.596	1.603	1.842	1.824	1.807	1.840	2.274	2.363	2.354	2.425	2.463	2.589	2.515	2.578	2.503	2.606	2.548	2.563	2.720	2.537	2.516	2.522	2.588	2.493	2.523	2.445	2.572	2.713	2.630	2.614	2.572	2.690
395.0	550.8	613.0	630.4	632.3	638.9	623.4	606.8	579.3	571.3	555.9	537.0	518.2	487.1	462.1	434.6	406.2	382.4	370.0	352.9	329.5	319.4	303.7	280.6	255.5	249.9	267.1	228.9	146.5	111.4	85.58	67.70	71.59	168.2	390.6	1116	1896	249.2	8.291	5.113	1.541	1.330	1.236	1.266	1.369	1.370	1.395	1.480	1.849	1.851	1.768	1.947	2.329	2.313	2.357	2.468	2.445	2.718	2.641	2.622	2.747	2.800	2.712	2.759	2.888	2.539	2.561	2.447	2.547	2.469	2.335	2.322	2.619	2.438	2.420	2.631	2.389	2.749
400.0	549.2	618.6	628.7	635.3	651.1	622.8	610.9	602.6	573.9	568.7	536.0	513.8	491.5	462.7	437.5	397.7	382.2	368.1	354.0	335.4	323.4	313.3	285.5	266.0	245.5	244.7	264.8	193.2	130.6	103.6	78.08	60.88	69.66	109.3	309.5	1446	1623	37.91	9.982	1.730	1.630	1.470	1.418	1.288	1.468	1.435	1.540	1.773	1.756	1.693	1.878	2.244	2.337	2.355	2.471	2.494	2.724	2.685	2.657	2.650	2.619	2.526	2.805	2.873	2.572	2.596	2.541	2.634	2.621	2.467	2.280	2.530	2.563	2.441	2.422	2.665	2.657
405.0	546.3	601.1	636.2	634.8	625.6	625.4	611.3	602.5	580.1	563.9	538.8	516.3	493.3	460.4	427.4	392.7	379.0	362.2	350.2	338.5	325.8	319.5	289.5	274.3	251.1	233.9	249.3	237.5	160.8	120.1	91.15	67.23	55.43	51.51	88.94	432.2	1586	1250	36.77	2.603	1.856	1.645	1.517	1.455	1.492	1.553	1.524	1.857	1.874	1.637	1.877	2.393	2.280	2.509	2.415	2.413	2.660	2.707	2.708	2.695	2.788	2.601	2.765	2.847	2.624	2.698	2.641	2.486	2.629	2.512	2.358	2.420	2.568	2.446	2.446	2.676	2.655
410.0	526.9	605.0	616.8	633.2	635.6	618.6	608.3	602.0	578.9	579.1	541.7	511.8	482.2	448.4	419.1	386.8	371.6	359.2	344.9	330.4	319.4	328.1	294.8	279.8	257.3	239.2	228.0	239.7	216.9	151.1	109.1	82.39	62.36	47.69	44.94	115.0	464.3	1163	3865	142.6	8.295	1.985	1.667	1.432	1.398	1.586	1.512	1.833	1.872	1.842	1.808	2.201	2.413	2.415	2.320	2.524	2.526	2.882	2.717	2.731	2.827	2.582	2.822	2.607	2.767	2.472	2.602	2.507	2.398	2.482	2.363	2.538	2.507	2.494	2.489	2.589	2.632
