Sample:	'1
File name:	T2025032004º«µêºÓ4.FD3
Run date:	'09:41:21, 03/21/2025
Operator:	Administrator
Comment:	'

Instrument
Model:	F-2700 FL Spectrophotometer
Serial number:	23B8-004
ROM Version:	4J14000 07

Instrument parameters
Measurement type:	3-D scan
Data mode:	Fluorescence
EX  Start WL:	220.0 nm
EX  End WL:	600.0 nm
EX Sampling interval:	5.0 nm
EM  Start WL:	230.0 nm
EM  End WL:	650.0 nm
EM Sampling interval:	5.0 nm
Scan speed:	12000 nm/min
EX Slit:	5.0 nm
EM Slit:	5.0 nm
PMT Voltage:	700 V
Response:	Auto 
Corrected spectra:	Off
Contour interval:	50.000

Peak integration
Integration method:	Rectangular
Sensitivity:	1
Threshold:	1.000

Peaks
No.	ApexEX/EM(nm)	Height(Data)
1	225.0/490.0	260.4
2	225.0/625.0	19.22
3	225.0/635.0	26.03
4	230.0/250.0	297.0
5	230.0/345.0	1086
6	230.0/500.0	231.0
7	235.0/255.0	363.2
8	235.0/515.0	192.6
9	240.0/265.0	439.7
10	240.0/525.0	168.1
11	245.0/270.0	431.8
12	245.0/440.0	231.6
13	245.0/535.0	156.9
14	250.0/275.0	546.9
15	250.0/550.0	133.5
16	255.0/280.0	620.2
17	255.0/450.0	226.6
18	255.0/560.0	122.4
19	260.0/290.0	563.3
20	260.0/575.0	108.8
21	265.0/585.0	93.66
22	270.0/300.0	861.9
23	270.0/600.0	78.83
24	275.0/305.0	879.4
25	275.0/610.0	64.65
26	280.0/310.0	751.2
27	280.0/625.0	55.53
28	285.0/315.0	740.9
29	285.0/635.0	41.90
30	290.0/325.0	690.1
31	295.0/330.0	524.9
32	300.0/335.0	468.7
33	305.0/340.0	366.7
34	310.0/350.0	274.7
35	315.0/355.0	253.7
36	320.0/360.0	242.0
37	325.0/370.0	198.7
38	330.0/375.0	195.6
39	335.0/380.0	201.3
40	345.0/395.0	153.3
41	350.0/400.0	162.6
42	355.0/405.0	144.4
43	360.0/415.0	123.0
44	365.0/420.0	126.9
45	370.0/425.0	112.8
46	380.0/440.0	89.56
47	385.0/445.0	78.75
48	395.0/460.0	56.26
49	400.0/465.0	49.46
50	410.0/480.0	34.21
51	415.0/485.0	30.47
52	425.0/500.0	22.14
53	430.0/505.0	19.49
54	435.0/510.0	16.40
55	440.0/520.0	14.26
56	445.0/525.0	12.07
57	455.0/540.0	8.283
58	460.0/340.0	3.001
59	460.0/545.0	6.832
60	465.0/335.0	3.021
61	470.0/560.0	3.969
62	475.0/260.0	1.982
63	485.0/265.0	2.092
64	495.0/270.0	2.027
65	505.0/275.0	3.483
66	520.0/285.0	4.162
67	530.0/290.0	3.468
68	540.0/295.0	4.627
69	545.0/300.0	4.764
70	550.0/305.0	4.674
71	560.0/310.0	3.947
72	575.0/315.0	4.439
73	580.0/320.0	4.416
74	585.0/325.0	4.081

Data points
	220.0	225.0	230.0	235.0	240.0	245.0	250.0	255.0	260.0	265.0	270.0	275.0	280.0	285.0	290.0	295.0	300.0	305.0	310.0	315.0	320.0	325.0	330.0	335.0	340.0	345.0	350.0	355.0	360.0	365.0	370.0	375.0	380.0	385.0	390.0	395.0	400.0	405.0	410.0	415.0	420.0	425.0	430.0	435.0	440.0	445.0	450.0	455.0	460.0	465.0	470.0	475.0	480.0	485.0	490.0	495.0	500.0	505.0	510.0	515.0	520.0	525.0	530.0	535.0	540.0	545.0	550.0	555.0	560.0	565.0	570.0	575.0	580.0	585.0	590.0	595.0	600.0
230.0	68.67	816.3	1614	413.2	11.95	2.254	1.845	1.578	1.216	1.156	1.127	1.052	0.803	0.796	0.633	0.590	0.442	0.410	0.357	0.309	0.284	0.266	0.250	0.213	0.225	0.228	0.175	0.178	0.163	0.170	0.154	0.156	0.153	0.146	0.130	0.138	0.155	0.148	0.118	0.161	0.412	0.781	0.587	0.264	0.128	0.147	1.077	4.239	5.531	3.484	1.074	0.172	0.082	0.063	0.078	0.071	0.077	0.060	0.062	0.062	0.075	0.064	0.084	0.068	0.052	0.069	0.068	0.074	0.072	0.068	0.068	0.063	0.057	0.065	0.051	0.061	0.063
235.0	180.3	244.8	1017	1427	397.7	15.66	2.021	2.202	1.566	1.805	1.014	1.182	0.674	0.847	0.695	0.564	0.502	0.501	0.322	0.299	0.293	0.290	0.276	0.193	0.251	0.214	0.214	0.204	0.235	0.215	0.110	0.132	0.148	0.184	0.111	0.128	0.171	0.197	0.140	0.132	0.207	0.396	0.600	0.605	0.517	0.229	0.358	1.171	2.269	3.774	4.905	4.256	1.915	0.323	0.062	0.066	0.062	0.069	0.071	0.048	0.072	0.066	0.104	0.053	0.049	0.057	0.067	0.069	0.095	0.087	0.055	0.051	0.057	0.050	0.053	0.067	0.072
240.0	299.7	184.8	318.0	1292	1471	291.1	9.835	2.483	2.341	2.023	1.449	1.327	0.898	0.875	0.551	0.474	0.584	0.394	0.404	0.387	0.360	0.275	0.270	0.234	0.298	0.215	0.212	0.264	0.173	0.200	0.133	0.126	0.152	0.118	0.108	0.093	0.129	0.156	0.148	0.106	0.126	0.174	0.280	0.498	0.757	0.798	0.377	0.398	0.609	1.205	2.842	5.983	7.034	4.589	1.448	0.216	0.075	0.087	0.069	0.055	0.060	0.091	0.078	0.055	0.070	0.061	0.063	0.069	0.075	0.064	0.046	0.065	0.068	0.046	0.057	0.080	0.064
245.0	202.1	319.1	150.5	467.4	1682	1410	198.5	5.282	3.125	2.108	1.712	1.098	1.372	1.054	0.913	0.546	0.559	0.407	0.358	0.343	0.333	0.246	0.315	0.197	0.313	0.252	0.212	0.284	0.185	0.207	0.177	0.196	0.208	0.144	0.134	0.104	0.103	0.130	0.200	0.125	0.100	0.153	0.143	0.219	0.439	0.936	0.945	0.585	0.356	0.351	0.777	2.106	5.175	8.411	8.148	3.683	0.950	0.140	0.088	0.066	0.067	0.085	0.097	0.077	0.076	0.084	0.076	0.085	0.082	0.064	0.073	0.071	0.071	0.060	0.078	0.070	0.053
250.0	64.70	225.4	297.0	212.9	565.6	1501	1783	582.3	31.84	2.433	2.167	1.587	1.559	1.154	0.964	0.738	0.663	0.585	0.430	0.368	0.368	0.314	0.362	0.178	0.331	0.232	0.232	0.229	0.232	0.176	0.176	0.165	0.176	0.134	0.137	0.123	0.126	0.131	0.154	0.133	0.147	0.163	0.123	0.151	0.208	0.349	0.517	0.776	1.062	0.783	0.541	0.643	1.350	2.738	5.160	7.413	9.496	7.836	4.194	0.900	0.152	0.077	0.084	0.081	0.086	0.060	0.071	0.068	0.074	0.066	0.075	0.071	0.061	0.072	0.076	0.085	0.079
255.0	25.20	63.04	222.7	363.2	221.2	396.0	1482	2649	290.8	24.43	3.377	3.163	2.083	1.301	1.198	0.814	0.604	0.533	0.518	0.327	0.339	0.263	0.266	0.231	0.333	0.222	0.238	0.238	0.205	0.194	0.206	0.206	0.206	0.159	0.130	0.142	0.173	0.152	0.147	0.112	0.128	0.143	0.157	0.163	0.125	0.155	0.228	0.276	0.497	1.056	1.424	1.383	0.671	0.753	1.276	1.880	3.603	8.362	14.37	12.77	5.731	1.042	0.128	0.114	0.087	0.065	0.110	0.066	0.097	0.076	0.092	0.070	0.052	0.064	0.071	0.081	0.062
260.0	17.95	23.25	82.49	343.7	333.1	138.9	459.8	2305	2305	229.6	11.70	3.726	2.341	1.636	1.007	1.047	0.834	0.653	0.570	0.415	0.457	0.298	0.331	0.254	0.345	0.238	0.237	0.262	0.212	0.180	0.268	0.179	0.155	0.274	0.168	0.180	0.175	0.166	0.169	0.137	0.139	0.192	0.141	0.164	0.133	0.123	0.141	0.135	0.199	0.383	0.873	1.982	1.791	0.917	0.498	0.562	0.976	2.309	6.457	13.33	18.09	12.51	4.297	0.495	0.095	0.105	0.123	0.075	0.092	0.093	0.076	0.105	0.051	0.087	0.073	0.093	0.088
265.0	14.79	14.17	28.06	159.1	439.7	238.0	132.0	797.1	3272	1934	165.8	5.830	3.084	2.318	1.504	1.271	0.833	0.660	0.621	0.554	0.428	0.343	0.391	0.244	0.420	0.225	0.273	0.228	0.245	0.237	0.243	0.269	0.193	0.263	0.171	0.145	0.141	0.189	0.161	0.138	0.138	0.187	0.127	0.135	0.119	0.149	0.126	0.094	0.182	0.195	0.303	0.931	1.909	2.092	1.455	0.458	0.391	0.648	1.654	3.976	10.15	18.65	20.14	10.70	2.369	0.235	0.130	0.083	0.082	0.086	0.101	0.080	0.071	0.088	0.077	0.065	0.078
270.0	22.51	14.81	16.80	46.40	209.3	431.8	263.8	223.0	1076	2671	2923	652.2	27.75	3.268	2.460	1.666	1.049	0.958	0.753	0.634	0.445	0.425	0.437	0.384	0.380	0.246	0.278	0.302	0.288	0.330	0.241	0.276	0.256	0.244	0.195	0.232	0.198	0.234	0.170	0.138	0.235	0.178	0.161	0.171	0.147	0.140	0.122	0.141	0.126	0.134	0.155	0.292	0.670	1.175	1.870	2.027	1.689	0.843	0.603	1.029	2.552	5.530	10.29	15.70	18.31	15.95	8.556	1.949	0.250	0.121	0.111	0.082	0.083	0.098	0.091	0.090	0.098
275.0	67.28	35.05	24.95	22.70	58.77	190.4	546.9	297.1	279.5	688.2	2345	4630	841.7	21.06	3.370	2.319	1.466	1.095	1.025	0.808	0.696	0.544	0.564	0.482	0.405	0.300	0.326	0.309	0.233	0.297	0.280	0.281	0.279	0.265	0.387	0.354	0.283	0.349	0.262	0.261	0.269	0.189	0.255	0.231	0.280	0.223	0.202	0.177	0.147	0.104	0.164	0.185	0.277	0.361	0.601	1.010	2.372	3.483	2.191	0.741	0.828	1.379	2.550	3.824	5.613	12.38	23.21	24.26	11.82	2.081	0.208	0.129	0.109	0.102	0.106	0.137	0.083
280.0	110.5	64.41	37.15	23.25	27.12	63.30	338.4	620.2	211.8	203.2	693.1	3541	4255	138.5	9.924	2.845	2.063	1.372	1.259	0.785	0.640	0.815	0.556	0.456	0.464	0.313	0.392	0.293	0.213	0.333	0.315	0.301	0.342	0.355	0.540	0.490	0.498	0.437	0.404	0.302	0.354	0.282	0.355	0.358	0.359	0.326	0.270	0.282	0.183	0.147	0.170	0.157	0.169	0.175	0.274	0.375	0.842	2.230	3.261	3.302	1.530	0.654	0.797	1.171	1.557	3.322	8.078	18.26	27.17	22.33	8.034	1.014	0.167	0.128	0.142	0.094	0.107
285.0	159.8	102.5	50.89	31.39	20.72	31.37	123.3	551.4	531.2	142.6	219.1	1089	4156	3324	100.2	4.958	2.717	1.732	1.163	0.952	0.767	0.678	0.589	0.643	0.426	0.364	0.310	0.382	0.298	0.382	0.374	0.293	0.333	0.474	0.578	0.686	0.648	0.618	0.507	0.416	0.440	0.416	0.449	0.531	0.434	0.387	0.297	0.277	0.225	0.182	0.154	0.179	0.171	0.136	0.207	0.207	0.358	0.761	1.626	3.332	4.162	2.071	0.772	0.536	0.685	1.137	2.191	4.884	11.32	22.55	27.48	17.57	4.802	0.491	0.150	0.125	0.138
290.0	205.3	144.1	77.43	43.46	32.72	31.85	55.66	210.6	563.3	487.2	181.1	320.1	1212	3015	2425	404.4	18.87	2.640	2.002	1.297	0.977	0.763	0.656	0.659	0.526	0.485	0.328	0.376	0.325	0.303	0.325	0.287	0.434	0.481	0.737	0.827	0.934	0.821	0.590	0.593	0.518	0.511	0.481	0.612	0.549	0.535	0.403	0.407	0.311	0.274	0.189	0.213	0.214	0.206	0.216	0.227	0.240	0.384	0.591	1.182	2.245	3.113	3.468	2.333	1.273	0.736	0.841	1.418	2.950	5.927	10.66	16.28	19.95	19.30	11.31	4.176	0.537
295.0	240.1	176.6	113.6	68.44	46.40	47.11	54.50	96.80	220.1	607.6	628.3	203.3	342.5	748.8	1775	3763	554.6	15.19	2.692	1.768	1.276	0.918	0.694	0.738	0.505	0.546	0.421	0.429	0.382	0.413	0.360	0.341	0.343	0.652	0.830	0.810	1.007	0.826	0.611	0.544	0.585	0.595	0.505	0.675	0.679	0.601	0.426	0.466	0.439	0.333	0.248	0.296	0.261	0.252	0.249	0.227	0.295	0.326	0.419	0.563	0.804	1.143	1.770	3.517	4.627	2.523	1.023	0.910	1.137	1.635	2.764	4.010	5.281	9.390	19.39	26.87	16.79
300.0	246.1	194.6	140.4	92.87	70.40	61.82	72.68	91.77	134.2	339.0	861.9	448.4	183.6	243.7	509.4	2620	3332	83.65	6.590	2.378	1.452	1.223	0.810	0.779	0.618	0.625	0.454	0.425	0.392	0.374	0.301	0.348	0.347	0.571	0.832	0.838	0.968	0.824	0.717	0.615	0.616	0.669	0.561	0.621	0.606	0.743	0.476	0.577	0.518	0.365	0.324	0.337	0.385	0.352	0.308	0.322	0.377	0.372	0.382	0.570	0.519	0.632	0.899	1.629	3.431	4.764	3.515	1.673	0.948	0.900	1.177	1.319	1.641	2.478	5.864	14.50	25.43
305.0	271.8	258.3	192.1	120.1	92.95	88.85	104.0	122.5	151.0	236.4	612.5	879.4	313.1	177.1	211.4	801.1	3082	2576	63.78	3.671	1.952	1.486	1.073	0.720	0.788	0.610	0.491	0.445	0.593	0.363	0.332	0.358	0.389	0.630	0.786	0.875	0.981	0.892	0.681	0.738	0.760	0.674	0.719	0.767	0.706	0.730	0.625	0.669	0.628	0.486	0.463	0.495	0.462	0.463	0.498	0.416	0.593	0.580	0.509	0.628	0.745	0.704	0.978	1.215	1.692	3.041	4.674	4.257	2.413	1.226	1.078	0.982	1.098	1.236	1.938	3.858	8.737
310.0	322.5	305.3	235.1	164.9	123.7	116.1	134.6	161.0	177.9	236.3	366.2	674.3	751.2	345.4	184.1	276.2	919.3	2177	2311	289.5	14.21	2.234	1.537	1.074	0.808	0.791	0.660	0.578	0.510	0.393	0.439	0.378	0.452	0.604	0.720	0.773	0.893	0.789	0.693	0.693	0.764	0.749	0.716	0.845	0.803	0.772	0.716	0.849	0.759	0.638	0.494	0.548	0.557	0.523	0.585	0.524	0.642	0.621	0.688	0.758	0.877	0.756	1.030	1.184	1.287	1.754	2.346	3.379	3.947	3.568	2.740	1.561	1.052	1.028	1.139	1.474	2.635
315.0	394.8	386.5	303.2	211.6	158.1	138.1	162.5	186.6	199.1	252.6	318.3	421.5	619.2	740.9	289.3	177.6	298.8	553.5	1375	2705	419.9	10.72	2.152	1.429	1.094	0.946	0.749	0.652	0.548	0.389	0.412	0.360	0.494	0.530	0.701	0.733	0.874	0.709	0.682	0.773	0.744	0.825	0.813	0.836	0.909	0.975	0.921	1.020	0.875	0.817	0.706	0.669	0.665	0.689	0.672	0.651	0.712	0.757	0.801	0.875	0.875	0.874	1.124	1.331	1.354	1.433	1.644	2.061	2.173	2.889	4.170	4.439	2.387	1.238	0.990	1.076	1.226
320.0	516.4	499.6	407.9	263.7	179.7	147.0	173.5	200.8	215.3	265.4	314.3	377.3	446.2	721.5	552.4	193.3	169.5	183.8	374.3	1829	2388	64.10	5.169	1.904	1.315	1.095	0.802	0.778	0.619	0.547	0.361	0.512	0.446	0.520	0.703	0.794	0.809	0.844	0.851	0.789	0.826	0.961	0.891	0.976	1.112	1.233	1.195	1.244	1.138	0.925	0.852	0.885	0.774	0.740	0.576	0.658	0.734	0.930	0.856	1.072	0.989	1.045	1.056	1.356	1.367	1.490	1.552	1.885	1.875	2.060	2.571	4.074	4.416	2.902	1.635	1.186	0.987
325.0	595.3	655.3	594.7	393.3	222.4	155.8	177.8	208.2	225.3	276.4	330.6	383.6	397.7	502.7	690.1	351.8	156.2	111.2	117.0	528.4	2128	1853	51.40	3.008	1.714	1.213	0.977	0.804	0.656	0.589	0.548	0.477	0.392	0.521	0.663	0.673	0.821	0.788	0.905	0.907	0.874	1.017	1.011	1.174	1.279	1.349	1.576	1.724	1.690	1.504	1.202	1.214	0.903	0.703	0.674	0.745	0.774	0.899	0.988	0.905	1.017	1.105	1.166	1.397	1.396	1.520	1.782	1.662	1.983	1.932	2.002	2.508	3.342	4.081	3.615	1.927	1.179
330.0	739.9	861.8	883.9	717.3	350.6	191.5	183.6	211.8	236.0	289.5	352.7	409.5	409.9	414.3	482.6	524.9	296.7	112.7	70.14	148.1	608.3	1577	1731	231.5	11.37	1.710	1.222	0.989	0.648	0.571	0.597	0.492	0.430	0.613	0.630	0.708	0.828	0.820	0.852	0.866	0.942	1.036	1.268	1.267	1.477	1.673	2.036	2.398	2.542	2.379	2.266	2.164	1.407	1.079	0.813	0.713	0.810	0.913	1.011	0.983	0.975	1.050	1.168	1.474	1.480	1.611	1.921	2.046	1.930	2.064	1.981	2.001	2.306	2.674	3.220	3.299	3.068
335.0	764.7	967.7	1053	875.7	440.3	216.0	180.1	207.2	241.5	284.3	351.4	402.3	403.3	380.4	350.6	363.9	468.7	217.8	68.22	68.33	162.7	387.0	1094	2093	342.1	8.744	1.775	1.191	0.831	0.664	0.671	0.539	0.521	0.614	0.710	0.686	0.713	0.826	0.856	0.972	1.054	1.068	1.281	1.392	1.616	1.955	2.240	2.553	2.762	3.021	2.760	2.723	1.690	1.174	0.903	0.681	0.892	0.946	1.065	0.929	1.097	1.261	1.262	1.449	1.492	1.758	1.917	1.889	1.960	2.165	1.732	1.882	2.150	1.814	1.959	2.005	2.633
340.0	783.0	994.4	1075	931.9	457.5	219.6	180.5	197.7	232.0	271.9	336.6	387.4	386.3	360.4	310.5	265.1	366.1	366.7	88.62	53.90	67.27	110.6	300.1	1491	1871	53.65	3.762	1.609	1.218	0.900	0.621	0.600	0.657	0.579	0.670	0.703	0.737	0.834	0.866	0.940	0.921	1.095	1.247	1.323	1.532	1.920	2.063	2.547	3.001	2.747	2.841	2.766	1.933	1.116	0.885	0.619	0.852	0.821	0.898	0.899	1.038	1.066	1.155	1.271	1.417	1.550	1.684	1.639	1.697	1.901	1.813	1.721	1.755	1.585	1.609	1.451	1.665
345.0	735.4	940.4	1086	940.6	475.4	222.5	178.4	192.3	216.7	262.0	317.9	362.6	364.6	343.1	287.5	230.9	232.2	354.0	229.3	65.42	48.44	52.74	88.67	439.5	1741	1439	43.59	2.381	1.379	1.063	0.789	0.731	0.665	0.587	0.678	0.646	0.710	0.791	0.769	0.921	0.894	1.055	1.084	1.559	1.526	1.901	2.111	2.606	2.897	2.734	2.756	2.753	2.039	1.371	0.894	0.636	0.801	0.888	0.853	0.926	0.987	0.935	1.162	1.143	1.447	1.414	1.558	1.574	1.726	1.823	1.702	1.737	1.544	1.594	1.411	1.239	1.313
350.0	668.8	835.3	976.1	869.1	468.4	224.8	171.3	180.4	199.3	235.9	282.7	320.9	323.5	307.2	258.7	206.4	172.2	200.8	274.7	179.6	60.42	46.04	44.80	116.4	507.0	1277	1306	198.7	9.077	1.383	0.947	0.826	0.632	0.619	0.752	0.682	0.710	0.856	0.825	0.821	0.962	1.049	0.993	1.289	1.389	1.752	1.827	2.350	2.676	2.614	2.636	2.678	1.940	1.359	0.945	0.680	0.746	0.851	0.828	0.883	0.920	0.839	1.132	1.123	1.332	1.317	1.448	1.476	1.507	1.539	1.490	1.559	1.458	1.492	1.315	1.247	1.179
355.0	589.3	705.6	839.2	739.9	435.0	213.9	171.0	171.2	182.1	211.1	244.7	269.8	274.6	266.0	230.0	185.1	150.9	132.5	155.7	253.7	155.6	53.82	40.79	49.21	130.1	310.5	893.7	1750	283.0	5.726	1.228	0.930	0.726	0.703	0.646	0.729	0.714	0.742	0.728	0.708	0.780	0.886	0.996	0.995	1.133	1.445	1.523	1.895	2.324	2.249	2.318	2.426	1.723	1.276	0.922	0.765	0.777	0.678	0.852	0.765	0.800	0.754	1.000	1.116	1.107	1.259	1.232	1.161	1.173	1.313	1.330	1.276	1.187	1.307	1.136	1.105	1.181
360.0	528.3	615.7	719.5	654.4	396.9	217.8	175.3	162.0	174.8	194.7	226.6	248.3	248.6	240.5	204.2	175.7	143.1	115.3	109.7	180.5	242.0	100.2	45.01	38.43	49.69	85.79	249.5	1378	1422	48.44	2.510	1.233	0.773	0.599	0.755	0.679	0.714	0.800	0.784	0.774	0.775	0.789	0.871	0.877	0.990	1.258	1.277	1.785	1.913	1.899	1.880	2.080	1.553	1.218	0.896	0.852	0.696	0.723	0.877	0.795	0.804	0.846	0.916	0.973	0.988	1.118	1.124	1.056	1.206	1.157	1.306	1.186	1.104	1.169	1.150	1.030	1.027
365.0	466.0	549.6	641.9	592.7	370.8	220.0	174.6	162.1	169.2	184.1	211.4	226.9	231.5	216.8	194.2	164.6	138.7	115.2	99.51	116.4	218.0	188.8	62.32	40.49	37.52	39.11	71.05	430.2	1443	1134	37.68	1.911	1.092	0.790	0.662	0.714	0.753	0.737	0.795	0.662	0.752	0.771	0.766	0.871	1.023	1.228	1.076	1.625	1.719	1.797	1.680	1.966	1.515	1.171	0.994	0.778	0.707	0.658	0.766	0.699	0.812	0.786	0.876	0.894	0.996	1.022	1.003	1.072	1.154	1.089	1.310	1.075	1.072	1.052	1.064	1.091	1.004
370.0	405.8	469.0	531.9	494.5	338.3	226.6	177.6	165.3	166.6	176.2	199.0	206.7	209.3	200.6	179.2	156.2	135.1	117.5	102.4	98.39	131.4	198.7	158.2	58.17	41.90	35.30	36.41	112.4	436.6	1101	879.7	167.2	6.990	1.231	0.879	0.763	0.784	0.677	0.760	0.724	0.670	0.771	0.761	0.806	0.873	0.934	1.028	1.328	1.502	1.474	1.485	1.531	1.406	1.205	1.045	0.738	0.774	0.749	0.801	0.796	0.816	0.761	0.786	0.843	0.905	0.895	0.995	1.011	1.007	1.062	1.062	0.990	1.026	1.015	0.989	1.073	0.916
375.0	369.2	403.1	455.8	430.4	303.3	225.7	183.8	168.9	165.0	177.6	183.6	192.7	192.4	181.2	168.3	147.1	135.6	118.4	108.7	99.77	101.1	123.9	195.6	146.7	58.63	42.11	35.38	45.59	113.1	271.8	763.5	1285	224.7	4.643	1.187	0.888	0.763	0.726	0.717	0.712	0.593	0.746	0.730	0.764	0.757	0.787	0.916	1.056	1.218	1.165	1.263	1.457	1.244	1.034	0.932	0.873	0.826	0.681	0.754	0.790	0.829	0.887	0.728	0.945	0.748	0.821	0.901	0.754	0.962	1.022	0.935	0.842	0.935	1.067	1.020	0.969	0.911
380.0	346.1	363.5	395.1	380.0	299.0	222.8	190.9	172.5	168.6	175.5	182.0	182.1	181.9	175.2	163.3	145.5	132.1	119.8	111.8	104.3	98.50	98.87	144.0	201.3	103.9	50.07	40.02	35.60	44.54	75.51	221.2	1040	1085	39.65	2.198	0.947	0.809	0.701	0.655	0.752	0.712	0.593	0.638	0.732	0.773	0.792	0.847	1.028	1.103	1.126	1.187	1.302	1.149	0.900	0.895	0.829	0.922	0.804	0.732	0.826	0.750	0.769	0.688	0.707	0.729	0.830	0.873	0.887	0.898	0.941	0.960	0.837	0.906	0.990	0.966	0.899	0.896
385.0	318.3	355.1	371.5	352.6	291.2	228.2	193.0	176.5	169.7	175.0	178.7	177.5	178.9	168.6	158.1	139.5	132.6	123.6	113.8	107.3	101.6	96.83	107.7	173.4	170.1	63.02	44.96	38.35	33.63	34.55	63.49	325.4	1117	790.4	28.90	1.346	1.099	0.901	0.779	0.756	0.685	0.668	0.673	0.782	0.765	0.813	0.805	1.001	0.990	0.920	0.984	1.125	1.071	0.951	0.923	0.849	0.914	0.782	0.825	0.731	0.811	0.810	0.693	0.749	0.784	0.873	0.741	0.909	0.877	0.819	0.871	0.852	0.797	1.011	0.895	0.980	0.908
390.0	284.7	322.7	324.5	319.0	274.2	227.8	196.4	185.4	177.2	175.8	178.0	175.2	173.0	163.2	150.7	139.4	131.8	124.8	117.8	111.6	105.8	101.9	98.83	116.7	162.3	141.5	70.14	45.22	36.89	30.48	31.69	86.26	337.4	780.7	619.4	126.8	5.026	1.036	0.868	0.826	0.701	0.640	0.652	0.706	0.706	0.801	0.845	0.837	0.860	0.891	0.914	1.068	0.953	0.974	0.931	0.875	0.891	0.840	0.761	0.780	0.880	0.891	0.804	0.797	0.923	0.733	0.848	0.848	0.881	0.962	0.801	0.834	0.832	0.960	0.844	0.818	0.915
395.0	284.3	296.0	300.3	288.9	264.3	229.3	203.4	186.9	181.7	184.7	176.2	172.1	172.6	158.9	148.0	134.3	129.5	125.0	120.0	114.5	109.2	102.7	98.34	100.5	109.6	153.3	134.1	59.40	44.18	35.59	29.57	35.15	86.96	194.6	536.6	867.3	172.2	3.186	1.011	0.930	0.820	0.645	0.720	0.601	0.615	0.717	0.722	0.754	0.854	0.923	0.796	0.986	0.846	0.952	0.897	0.875	0.880	0.775	0.695	0.837	0.883	0.924	0.764	0.718	1.002	0.828	0.781	0.815	0.892	0.832	0.774	0.770	0.866	0.977	0.961	0.881	0.843
400.0	275.3	290.4	276.3	274.7	255.0	224.6	206.5	192.1	189.8	183.0	177.0	174.4	168.3	157.1	145.6	130.9	127.6	124.6	120.6	118.2	111.3	106.7	101.7	97.78	93.28	116.5	162.6	100.2	50.72	40.01	31.90	28.07	32.97	53.40	155.2	705.9	744.6	32.46	1.603	1.008	0.885	0.705	0.747	0.659	0.581	0.669	0.729	0.730	0.878	0.792	0.748	0.856	0.884	0.945	0.801	0.849	0.803	0.892	0.758	0.844	0.871	0.859	0.841	0.791	0.804	0.844	0.696	0.831	0.799	0.821	0.899	0.782	0.861	0.904	0.858	0.841	0.893
405.0	267.0	273.2	266.0	268.9	248.3	229.7	208.5	198.1	190.9	186.7	177.9	174.9	165.0	155.6	142.7	131.1	127.6	122.7	120.1	118.1	112.4	110.2	104.5	98.23	92.18	94.59	135.6	144.4	72.20	45.83	35.91	29.16	23.06	23.06	43.18	219.9	754.7	557.0	24.76	1.344	0.968	0.741	0.744	0.714	0.593	0.702	0.678	0.739	0.806	0.801	0.758	0.849	0.974	0.938	0.896	0.850	0.822	0.943	0.919	0.999	0.950	0.872	0.770	0.841	0.808	0.812	0.803	0.880	0.805	0.816	0.828	0.860	0.907	0.917	0.930	0.826	0.893
