Sample:	'1
File name:	t2025061601ÂÀ¼ÒÕ¢ 5±¶.FD3
Run date:	'10:16:53, 06/18/2025
Operator:	Administrator
Comment:	'

Instrument
Model:	F-2700 FL Spectrophotometer
Serial number:	23B8-004
ROM Version:	4J14000 07

Instrument parameters
Measurement type:	3-D scan
Data mode:	Fluorescence
EX  Start WL:	220.0 nm
EX  End WL:	600.0 nm
EX Sampling interval:	5.0 nm
EM  Start WL:	230.0 nm
EM  End WL:	650.0 nm
EM Sampling interval:	5.0 nm
Scan speed:	12000 nm/min
EX Slit:	5.0 nm
EM Slit:	5.0 nm
PMT Voltage:	700 V
Response:	Auto 
Corrected spectra:	Off
Contour interval:	50.000

Peak integration
Integration method:	Rectangular
Sensitivity:	1
Threshold:	1.000

Peaks
No.	ApexEX/EM(nm)	Height(Data)
1	225.0/640.0	79.87
2	230.0/340.0	2703
3	230.0/505.0	237.5
4	235.0/515.0	204.6
5	240.0/265.0	441.4
6	240.0/525.0	177.7
7	245.0/270.0	457.5
8	245.0/540.0	156.3
9	250.0/275.0	582.0
10	250.0/550.0	126.9
11	255.0/285.0	593.5
12	255.0/565.0	112.9
13	260.0/290.0	530.6
14	260.0/575.0	96.06
15	265.0/590.0	80.15
16	275.0/310.0	1947
17	275.0/615.0	133.0
18	280.0/315.0	2032
19	280.0/625.0	116.7
20	285.0/320.0	1936
21	285.0/640.0	95.88
22	320.0/360.0	312.7
23	325.0/370.0	252.4
24	330.0/375.0	230.2
25	335.0/380.0	223.2
26	345.0/395.0	167.6
27	350.0/400.0	173.0
28	355.0/405.0	156.9
29	365.0/420.0	127.6
30	370.0/425.0	113.2
31	375.0/435.0	89.78
32	380.0/440.0	83.26
33	395.0/460.0	49.77
34	400.0/465.0	40.97
35	410.0/480.0	27.63
36	415.0/485.0	23.79
37	425.0/500.0	17.74
38	430.0/505.0	15.09
39	440.0/520.0	11.67
40	455.0/540.0	6.349
41	460.0/545.0	5.753
42	470.0/560.0	3.418
43	475.0/340.0	7.589
44	480.0/265.0	2.249
45	505.0/275.0	3.336
46	510.0/280.0	3.498
47	515.0/285.0	3.571
48	525.0/290.0	3.212
49	550.0/305.0	8.258
50	560.0/310.0	10.12
51	570.0/315.0	10.39
52	575.0/290.0	54.29
53	575.0/320.0	10.82
54	585.0/325.0	9.765

Data points
	220.0	225.0	230.0	235.0	240.0	245.0	250.0	255.0	260.0	265.0	270.0	275.0	280.0	285.0	290.0	295.0	300.0	305.0	310.0	315.0	320.0	325.0	330.0	335.0	340.0	345.0	350.0	355.0	360.0	365.0	370.0	375.0	380.0	385.0	390.0	395.0	400.0	405.0	410.0	415.0	420.0	425.0	430.0	435.0	440.0	445.0	450.0	455.0	460.0	465.0	470.0	475.0	480.0	485.0	490.0	495.0	500.0	505.0	510.0	515.0	520.0	525.0	530.0	535.0	540.0	545.0	550.0	555.0	560.0	565.0	570.0	575.0	580.0	585.0	590.0	595.0	600.0
230.0	148.0	2453	3898	784.4	25.36	7.374	5.633	4.628	4.175	3.631	3.155	2.835	2.622	2.372	1.860	1.723	1.583	1.189	1.204	1.130	0.954	0.808	0.808	0.748	0.723	0.661	0.599	0.657	0.680	0.595	0.556	0.524	0.436	0.457	0.436	0.430	0.402	0.398	0.404	0.415	0.636	0.836	0.703	0.425	0.342	0.481	3.153	9.930	12.48	6.926	1.905	0.436	0.275	0.252	0.235	0.265	0.256	0.240	0.249	0.271	0.246	0.275	0.231	0.242	0.258	0.257	0.241	0.249	0.241	0.235	0.230	0.245	0.229	0.243	0.247	0.249	0.241
235.0	201.5	706.7	2852	3294	528.2	35.90	7.531	5.304	3.815	3.907	3.368	3.188	3.184	2.584	2.380	1.674	1.707	1.314	1.288	1.046	1.032	0.850	0.826	0.770	0.785	0.692	0.671	0.792	0.713	0.582	0.574	0.571	0.415	0.477	0.390	0.414	0.394	0.385	0.384	0.339	0.406	0.554	0.717	0.866	0.700	0.514	0.969	2.669	5.571	8.627	10.61	9.313	3.464	0.709	0.237	0.249	0.274	0.282	0.265	0.278	0.240	0.243	0.242	0.201	0.256	0.249	0.245	0.220	0.235	0.243	0.218	0.230	0.227	0.273	0.234	0.279	0.274
240.0	282.1	263.1	955.8	3367	2946	382.9	17.72	6.568	4.737	4.358	4.334	3.260	2.986	2.409	2.083	2.005	1.632	1.275	1.154	1.051	0.979	0.960	0.969	0.670	0.865	0.716	0.684	0.781	0.597	0.665	0.625	0.531	0.468	0.518	0.504	0.425	0.385	0.350	0.384	0.401	0.396	0.408	0.579	0.711	1.029	0.943	0.697	0.990	1.528	2.861	7.110	14.59	14.46	8.365	2.727	0.477	0.248	0.291	0.275	0.252	0.244	0.249	0.263	0.247	0.300	0.210	0.316	0.224	0.258	0.221	0.282	0.219	0.252	0.329	0.242	0.264	0.309
245.0	235.1	320.1	291.5	1371	3938	2637	272.1	9.658	6.055	4.505	5.085	3.982	3.557	2.690	2.099	2.150	1.652	1.374	1.322	0.885	0.946	0.920	0.878	0.711	0.730	0.708	0.688	0.768	0.628	0.605	0.686	0.483	0.486	0.517	0.445	0.423	0.483	0.465	0.408	0.403	0.381	0.366	0.420	0.460	0.679	1.019	1.256	0.879	0.639	0.814	1.983	5.798	13.00	18.29	16.41	6.070	1.289	0.390	0.285	0.244	0.275	0.274	0.268	0.280	0.297	0.281	0.254	0.237	0.213	0.275	0.241	0.259	0.228	0.320	0.286	0.227	0.324
250.0	94.75	251.2	324.0	403.4	1463	3497	3642	863.2	37.45	6.574	5.807	4.646	4.257	2.963	2.409	2.160	1.973	1.585	1.363	1.109	1.013	1.020	0.878	0.790	0.741	0.774	0.732	0.689	0.645	0.627	0.643	0.458	0.521	0.529	0.465	0.401	0.476	0.415	0.396	0.405	0.392	0.379	0.397	0.384	0.481	0.602	0.742	1.086	1.054	0.927	0.887	1.603	3.404	6.723	12.15	15.70	17.58	14.63	6.262	1.303	0.371	0.269	0.261	0.301	0.285	0.269	0.271	0.225	0.226	0.312	0.268	0.237	0.256	0.284	0.261	0.268	0.332
255.0	46.82	89.89	278.3	386.1	406.0	990.8	3873	4884	296.3	32.82	7.616	6.140	4.935	3.499	2.719	2.113	1.876	1.774	1.646	1.186	1.164	0.932	0.999	0.780	0.805	0.801	0.734	0.756	0.789	0.766	0.662	0.608	0.628	0.578	0.466	0.408	0.475	0.433	0.378	0.361	0.400	0.465	0.375	0.380	0.447	0.393	0.429	0.499	0.665	1.169	1.599	1.490	1.227	1.780	3.040	4.189	7.990	19.72	28.23	22.35	8.496	1.478	0.338	0.411	0.283	0.305	0.301	0.258	0.310	0.272	0.324	0.247	0.302	0.235	0.292	0.281	0.279
260.0	39.96	42.26	124.3	369.1	340.1	283.9	1356	5199	4700	242.0	16.63	7.666	5.832	3.969	3.180	2.673	2.240	1.856	1.501	1.456	1.347	0.978	0.963	0.975	0.953	0.812	0.756	0.858	0.773	0.642	0.698	0.583	0.623	0.542	0.473	0.591	0.483	0.404	0.445	0.378	0.393	0.413	0.431	0.380	0.408	0.354	0.393	0.346	0.386	0.594	1.199	2.106	1.806	1.095	1.059	1.246	2.238	5.722	14.86	29.11	30.59	19.50	6.076	0.853	0.333	0.329	0.272	0.285	0.289	0.262	0.285	0.256	0.303	0.287	0.308	0.293	0.299
265.0	35.71	30.83	45.49	192.8	441.4	248.4	363.7	2111	6690	2037	176.1	10.93	6.952	4.937	3.851	2.730	2.615	2.002	1.940	1.674	1.519	1.261	0.994	1.178	0.966	0.911	0.740	0.741	0.840	0.727	0.617	0.593	0.608	0.484	0.590	0.473	0.557	0.444	0.361	0.334	0.427	0.374	0.441	0.376	0.375	0.363	0.379	0.288	0.313	0.332	0.560	1.260	2.249	2.108	1.466	0.896	0.851	1.718	3.849	9.775	23.21	39.57	30.74	18.54	2.873	0.439	0.342	0.358	0.330	0.299	0.297	0.304	0.344	0.346	0.312	0.227	0.330
270.0	41.52	35.67	33.27	75.60	268.2	457.5	308.5	547.9	2463	5298	4837	727.6	35.41	7.337	5.177	3.789	3.286	2.540	1.774	1.753	1.452	1.293	1.211	1.208	0.909	0.923	0.782	0.798	0.872	0.818	0.704	0.670	0.627	0.631	0.644	0.541	0.523	0.481	0.452	0.407	0.462	0.385	0.449	0.431	0.341	0.482	0.348	0.359	0.306	0.321	0.352	0.561	1.062	1.417	2.207	2.195	1.858	1.252	1.363	2.582	5.883	12.90	23.87	41.41	36.20	31.63	11.87	2.825	0.448	0.335	0.327	0.331	0.339	0.318	0.321	0.297	0.317
275.0	69.97	56.59	39.72	50.88	119.2	290.3	582.0	338.5	596.7	1458	5662	9224	974.6	29.02	7.880	5.307	4.008	2.834	2.585	2.028	1.682	1.566	1.372	1.177	1.107	0.968	0.908	0.856	1.023	0.889	0.776	0.727	0.680	0.772	0.692	0.550	0.597	0.534	0.474	0.463	0.455	0.438	0.466	0.465	0.510	0.500	0.429	0.442	0.402	0.321	0.371	0.417	0.572	0.742	1.005	1.506	2.790	3.336	2.239	1.162	1.716	3.193	5.722	10.20	14.87	36.79	59.48	31.51	17.49	2.530	0.453	0.413	0.346	0.358	0.370	0.394	0.371
280.0	96.14	86.74	62.26	55.84	80.91	156.4	452.0	568.2	247.7	372.5	1833	9558	7981	142.5	14.65	6.844	5.089	3.660	3.124	1.885	2.044	1.831	1.562	1.163	1.314	1.058	0.944	0.880	1.041	0.874	0.900	0.923	0.676	0.864	0.735	0.727	0.688	0.630	0.597	0.516	0.599	0.476	0.502	0.524	0.525	0.626	0.504	0.528	0.377	0.351	0.349	0.451	0.529	0.569	0.661	0.804	1.459	2.719	3.498	2.765	1.456	1.187	1.700	2.706	3.785	10.08	26.63	52.61	68.65	29.05	12.28	1.411	0.428	0.380	0.307	0.397	0.412
285.0	144.6	123.5	86.11	63.48	70.28	106.7	224.2	593.5	327.6	152.7	469.6	3416	9999.9	5351	103.3	10.13	6.577	4.328	3.476	2.508	1.994	1.781	1.735	1.203	1.143	1.182	0.972	1.014	1.057	0.954	0.807	0.826	0.760	0.941	0.778	0.731	0.707	0.752	0.670	0.540	0.634	0.558	0.615	0.582	0.608	0.619	0.565	0.687	0.503	0.451	0.377	0.482	0.432	0.563	0.622	0.710	0.911	1.252	2.205	3.571	3.512	1.711	0.978	1.068	1.324	2.681	6.590	16.17	40.88	68.11	70.47	25.30	7.018	0.737	0.368	0.469	0.397
290.0	190.9	168.9	129.0	76.31	72.37	87.82	120.2	260.3	530.6	424.8	219.4	852.9	3396	7076	5568	426.9	26.09	6.810	4.446	3.244	2.724	2.151	1.749	1.544	1.355	1.363	1.137	1.111	1.117	1.010	0.936	0.865	0.872	1.019	0.863	0.965	0.969	0.927	0.817	0.677	0.678	0.662	0.724	0.666	0.723	0.778	0.793	0.723	0.664	0.564	0.487	0.517	0.470	0.543	0.640	0.610	0.758	0.800	1.022	1.564	2.414	3.212	3.071	2.239	1.194	1.242	2.114	4.227	9.972	20.45	37.53	54.29	48.55	51.98	17.36	6.984	0.941
295.0	249.4	244.9	189.1	121.4	95.33	101.7	108.0	146.6	261.8	660.3	532.2	341.5	876.3	1840	5641	6494	616.1	24.84	7.239	4.170	3.631	2.859	2.355	1.974	1.784	1.390	1.358	1.196	1.240	1.008	1.047	1.023	0.918	1.050	0.946	1.082	1.033	1.105	0.923	0.809	0.701	0.766	0.805	0.808	0.869	0.965	0.853	0.835	0.817	0.595	0.612	0.681	0.654	0.549	0.673	0.627	0.733	0.776	0.833	0.919	1.188	1.540	2.305	3.870	3.892	2.386	1.455	1.782	3.146	5.349	9.172	12.95	16.62	44.85	82.60	85.32	28.02
300.0	368.7	380.4	301.2	200.3	161.9	173.1	189.2	236.5	291.4	573.9	1015	628.5	522.6	656.3	1836	7590	5693	88.69	15.63	6.332	4.199	3.217	2.535	2.234	1.893	1.692	1.351	1.096	1.409	1.139	1.146	0.905	0.864	1.198	1.182	1.273	1.270	1.293	1.016	0.912	0.946	1.019	0.872	0.959	1.251	1.208	1.014	1.219	1.084	0.887	0.875	0.971	0.830	0.821	0.940	0.969	1.014	1.176	1.151	1.294	1.390	1.640	2.138	2.844	4.591	5.544	4.250	2.769	2.678	2.846	3.733	4.333	5.118	12.15	31.25	70.73	99.75
305.0	655.7	662.1	528.4	373.7	303.8	325.6	417.2	529.2	686.7	923.8	1408	1518	1044	806.8	975.5	2955	9893	4467	73.29	10.25	5.658	4.085	3.096	2.600	2.073	1.854	1.598	1.555	1.447	1.290	1.244	1.004	1.016	1.337	1.453	1.459	1.855	1.631	1.541	1.497	1.372	1.530	1.455	1.478	1.572	1.780	1.586	1.827	1.900	1.461	1.235	1.463	1.283	1.284	1.440	1.579	1.735	2.227	2.368	2.658	3.042	3.388	4.029	4.574	5.032	6.837	8.258	7.982	5.759	5.219	4.767	4.785	4.742	6.235	10.19	20.86	47.56
310.0	928.0	994.1	824.5	583.6	486.0	513.1	639.8	804.2	978.0	1252	1562	1947	1859	1266	1053	1272	3715	6584	5753	306.0	21.05	5.811	4.156	3.214	2.585	2.208	1.952	1.769	1.643	1.485	1.334	1.122	1.079	1.292	1.564	1.756	1.928	1.940	2.066	1.978	1.917	1.980	1.995	1.961	2.064	2.521	2.515	2.833	2.693	2.190	1.930	2.181	1.923	2.004	2.014	2.210	2.621	3.230	3.542	4.012	4.187	4.830	5.608	6.063	6.303	7.242	8.061	9.272	10.12	9.344	7.620	6.418	5.891	6.002	6.505	8.234	14.25
315.0	1207	1378	1173	825.8	653.5	647.1	801.3	949.3	1085	1355	1634	1887	2032	1813	1255	977.0	1463	1913	5136	7482	477.4	19.26	5.563	4.455	3.201	2.490	2.138	1.934	1.889	1.710	1.511	1.317	1.255	1.389	1.598	1.879	2.216	2.128	2.252	2.280	2.319	2.345	2.235	2.512	2.742	3.169	3.493	3.782	3.636	3.007	2.459	2.652	2.624	2.370	2.633	2.691	3.118	3.868	4.353	4.418	4.456	5.361	5.905	6.403	6.952	7.756	8.153	8.858	9.067	9.660	10.39	9.772	7.793	7.248	6.324	5.990	6.832
320.0	1420	1603	1413	964.9	744.3	718.9	867.0	1008	1121	1390	1658	1903	1914	1936	1546	975.2	990.9	779.2	1509	6630	4229	374.3	11.31	5.268	4.174	3.035	2.605	2.116	2.024	1.753	1.557	1.288	1.196	1.277	1.628	1.786	2.159	2.476	2.196	2.305	2.374	2.576	2.469	2.826	3.025	3.618	3.962	4.659	3.985	3.454	2.912	3.144	2.914	2.641	2.892	2.995	3.547	4.130	4.489	4.716	4.555	5.442	6.001	6.439	7.054	7.789	8.242	9.205	9.191	9.047	9.411	10.82	10.00	9.205	6.768	5.773	5.818
325.0	1584	1845	1658	1148	813.4	743.6	849.2	985.5	1068	1308	1569	1790	1787	1701	1671	1053	852.6	516.8	442.8	2103	7191	3776	58.53	8.141	5.200	3.519	2.646	2.459	2.212	2.051	1.677	1.319	1.333	1.293	1.589	1.833	2.117	2.405	2.224	2.405	2.648	2.656	2.632	3.053	3.266	4.159	4.384	5.180	4.578	3.919	3.477	3.843	3.219	2.902	3.032	3.142	3.438	4.283	4.365	4.628	4.569	4.891	5.780	6.295	6.627	7.448	7.564	8.341	8.606	8.635	8.315	8.711	9.169	9.765	8.380	6.372	5.208
330.0	1784	2164	2146	1645	1137	837.6	821.9	916.8	980.3	1167	1420	1625	1638	1510	1412	1181	879.9	462.1	236.8	549.6	2262	5358	5015	1116	18.63	4.919	3.540	2.841	2.798	2.339	1.722	1.543	1.424	1.426	1.652	1.723	2.108	2.200	2.278	2.348	2.529	2.762	2.947	3.249	3.761	4.711	5.231	6.129	5.786	5.302	4.831	5.244	4.495	3.923	3.399	3.220	3.379	3.872	4.025	4.341	4.230	4.474	5.208	5.627	6.135	6.675	7.097	7.698	8.158	7.874	7.736	7.609	7.516	7.977	7.612	6.933	6.791
335.0	1958	2485	2583	2242	1639	1041	843.5	877.0	907.9	1057	1287	1492	1533	1417	1256	1049	1021	559.8	244.4	245.7	593.3	1335	4121	7115	415.1	18.46	4.798	3.713	3.206	2.763	2.052	1.659	1.530	1.523	1.639	1.736	2.301	2.245	2.289	2.510	2.609	2.801	3.007	3.586	4.233	5.301	5.826	6.839	7.051	6.714	6.371	7.404	6.655	5.550	4.319	3.656	3.824	3.785	3.947	4.147	3.856	4.391	4.713	5.539	5.511	6.174	6.372	6.877	7.310	7.285	7.533	7.173	7.233	7.210	6.509	6.232	6.619
340.0	1975	2490	2703	2415	1752	1067	802.2	815.6	831.8	954.9	1149	1336	1394	1298	1130	904.8	898.6	681.0	283.9	185.4	230.1	375.3	1162	5705	5981	337.2	9.866	4.530	3.770	2.922	2.384	1.749	1.576	1.529	1.557	1.857	2.120	2.107	2.265	2.315	2.595	2.830	2.950	3.369	4.075	5.244	5.848	7.371	7.400	6.966	6.995	7.589	6.908	6.024	4.627	3.655	3.681	3.483	3.553	3.732	3.901	4.192	4.166	4.775	4.917	5.717	5.773	6.146	6.600	7.193	6.791	6.501	6.664	6.589	5.562	5.510	5.430
345.0	1876	2386	2582	2306	1704	1026	735.5	739.7	731.4	837.7	1008	1163	1223	1148	996.2	788.9	701.7	641.3	383.7	183.9	152.2	164.1	324.1	1720	6406	3263	51.56	6.490	4.606	3.246	2.425	2.002	1.620	1.722	1.657	1.784	2.133	2.046	1.919	2.163	2.370	2.708	2.942	3.154	4.028	4.971	5.367	6.867	6.881	6.736	6.552	7.456	6.583	5.895	4.387	3.629	3.393	3.226	3.332	3.201	3.564	3.677	3.871	4.054	4.282	4.915	5.263	5.554	5.960	5.817	6.231	5.666	5.731	6.019	5.014	4.797	4.742
350.0	1741	2191	2380	2240	1691	989.5	688.2	653.3	651.9	731.3	863.2	983.8	1038	991.6	866.8	693.5	588.3	482.3	428.3	288.1	160.4	127.7	147.1	433.3	1890	4302	4288	1052	17.30	4.478	2.984	2.236	1.752	1.645	1.723	1.747	1.848	1.906	1.836	2.053	2.191	2.513	2.706	2.966	3.580	4.433	4.976	6.215	6.471	6.353	6.345	7.304	6.477	5.704	4.534	3.242	3.105	3.029	2.892	3.077	3.121	3.105	3.396	3.610	3.832	4.052	4.660	4.766	5.163	4.969	5.201	4.997	5.135	5.031	4.664	4.235	4.204
355.0	1514	1918	2110	2016	1599	935.1	633.3	590.2	576.9	641.8	738.4	834.7	876.0	850.8	743.4	607.6	514.7	395.5	323.2	353.7	242.2	132.4	112.4	153.4	450.2	1026	3216	6419	391.9	18.11	4.398	2.805	1.990	1.793	1.725	1.861	1.867	1.903	1.933	2.016	1.948	2.238	2.329	2.850	3.090	3.948	4.284	5.420	5.720	5.901	5.806	6.734	6.190	5.471	4.223	3.268	2.913	2.735	2.798	2.687	2.755	2.682	2.858	3.142	3.147	3.822	3.837	3.806	4.310	4.262	4.550	4.588	4.388	4.328	4.270	3.932	3.744
360.0	1356	1669	1847	1777	1421	868.2	589.9	533.0	534.8	578.5	641.7	719.6	753.7	723.3	648.1	540.1	453.8	347.9	265.8	286.4	312.7	170.1	107.3	91.54	134.6	251.6	855.5	4987	6015	333.6	8.675	3.335	2.445	1.955	1.844	1.841	1.910	1.798	1.852	1.801	1.801	2.028	2.364	2.734	2.928	3.508	3.953	4.755	4.940	5.199	5.034	6.131	5.730	5.120	3.744	2.873	2.727	2.699	2.674	2.516	2.527	2.607	2.558	2.923	2.954	3.324	3.320	3.530	3.684	3.797	3.846	4.104	3.937	3.936	3.743	3.566	3.139
365.0	1205	1468	1641	1593	1270	786.3	558.3	495.9	494.3	517.8	580.0	629.8	664.5	641.5	576.3	488.0	410.1	318.0	249.2	222.3	288.4	246.9	121.5	80.93	68.25	83.05	211.9	1472	6101	3140	47.45	5.165	2.787	2.318	2.063	1.848	1.799	1.847	1.690	1.736	1.794	1.854	2.233	2.273	2.640	3.041	3.366	4.153	4.491	4.435	4.491	5.488	5.097	4.615	3.549	2.684	2.661	2.476	2.484	2.189	2.398	2.432	2.471	2.772	2.753	2.767	2.965	3.188	3.123	3.249	3.351	3.597	3.433	3.597	3.246	3.102	2.952
370.0	1030	1248	1395	1368	1136	731.4	509.5	463.7	452.7	474.6	518.5	554.1	577.1	560.4	504.4	434.8	371.6	300.0	240.1	203.0	209.0	252.4	203.7	102.4	63.32	53.72	75.04	351.5	1761	4151	3945	866.0	14.12	3.123	2.351	2.024	1.942	1.732	1.610	1.516	1.709	1.662	1.888	2.105	2.413	2.784	2.872	3.603	3.835	3.893	3.852	4.643	4.358	4.086	3.319	2.577	2.336	2.229	2.285	2.143	2.241	2.262	2.310	2.401	2.652	2.654	2.675	2.845	2.850	2.965	3.022	3.234	2.929	3.174	2.770	2.831	2.640
375.0	868.5	1037	1157	1134	985.8	672.0	473.7	434.2	427.7	436.7	477.0	496.9	508.8	490.7	441.2	384.0	336.4	279.2	228.7	198.2	179.4	182.5	230.2	179.8	81.62	58.75	56.21	109.9	416.8	993.5	2966	4467	327.7	13.94	2.855	2.242	2.157	1.838	1.626	1.477	1.498	1.601	1.785	1.831	2.124	2.287	2.681	3.125	3.287	3.197	3.242	3.956	3.491	3.631	3.086	2.362	2.213	2.155	2.072	2.168	1.976	2.121	2.178	2.159	2.381	2.511	2.430	2.355	2.697	2.708	2.596	2.780	2.743	2.776	2.461	2.469	2.354
380.0	803.8	915.6	1008	1014	871.0	620.7	449.3	416.4	404.5	412.9	444.6	458.4	465.3	444.1	402.6	352.8	313.1	265.8	222.3	196.2	170.5	160.8	185.0	223.2	123.6	69.23	59.85	66.30	123.9	248.6	821.4	3365	2766	260.5	5.977	2.565	2.454	2.022	1.574	1.441	1.381	1.621	1.525	1.757	1.936	2.208	2.450	2.794	2.933	2.617	2.900	3.584	3.289	3.312	2.816	2.240	2.005	2.094	2.087	2.032	1.932	1.990	2.123	2.200	2.253	2.519	2.163	2.275	2.553	2.440	2.736	2.396	2.528	2.463	2.343	2.150	2.203
385.0	733.2	826.0	895.9	885.9	779.7	588.5	429.4	399.5	385.6	391.7	415.6	425.0	438.9	413.3	370.3	325.8	288.4	252.0	219.2	196.7	170.8	155.6	153.7	195.7	183.0	92.16	66.98	61.10	62.82	84.63	215.7	1006	3254	2404	38.01	3.869	2.649	2.152	1.612	1.534	1.536	1.636	1.444	1.678	1.884	2.075	2.004	2.246	2.572	2.294	2.447	3.080	3.031	2.895	2.683	2.145	1.945	1.971	1.926	1.947	1.821	2.085	2.036	2.028	1.962	2.247	2.238	2.079	2.323	2.220	2.325	2.528	2.275	2.249	2.216	2.098	2.081
390.0	630.9	729.2	772.4	769.6	682.4	538.1	409.2	373.6	365.3	371.4	381.6	392.0	395.4	376.4	334.2	297.4	270.8	240.9	213.8	191.7	172.6	156.9	144.0	148.8	177.0	154.1	89.69	64.01	53.62	53.29	78.62	250.1	954.4	2368	2266	589.2	11.72	2.708	1.986	1.625	1.502	1.585	1.592	1.592	1.745	1.890	1.797	2.102	2.204	2.035	2.242	2.597	2.689	2.698	2.339	1.937	1.872	1.898	1.851	1.892	1.766	1.998	1.938	1.868	1.938	1.998	2.203	2.022	2.087	2.060	2.171	2.255	2.097	2.009	2.133	2.070	1.956
395.0	578.2	636.0	677.1	677.4	614.5	494.8	396.3	361.7	343.2	358.5	365.5	366.3	363.3	348.8	304.3	275.9	254.6	231.4	204.1	190.0	174.0	159.7	146.9	135.4	131.8	167.6	148.4	81.32	59.95	51.72	52.85	82.90	229.8	566.6	1616	2808	269.0	9.171	2.325	1.814	1.713	1.570	1.554	1.482	1.611	1.751	1.636	1.856	1.998	1.878	1.965	2.346	2.452	2.398	2.017	1.771	1.834	1.944	1.882	1.804	1.669	2.009	1.846	1.821	1.835	1.875	1.969	2.028	2.017	1.844	1.979	2.082	1.876	2.043	2.077	1.942	2.060
400.0	518.2	585.2	608.4	610.0	558.3	467.5	387.1	351.5	339.9	339.7	354.3	351.8	347.8	325.8	291.7	264.7	243.9	226.4	203.3	190.9	175.1	163.5	150.9	134.8	123.8	139.0	173.0	115.8	68.20	56.55	51.96	50.35	69.87	138.7	444.6	2119	2205	201.6	3.869	2.140	1.786	1.575	1.398	1.428	1.691	1.709	1.566	1.828	1.915	1.660	1.687	2.283	2.313	2.298	1.963	1.687	1.797	1.754	1.664	1.767	1.749	1.788	1.758	1.701	1.721	1.761	1.797	1.882	1.820	1.886	1.777	1.920	1.689	1.875	1.963	1.744	1.922
405.0	495.8	553.8	571.4	573.4	524.5	442.5	373.8	343.5	326.3	331.4	346.0	340.9	334.0	315.5	276.3	256.8	234.8	219.0	200.5	187.5	172.5	160.4	152.8	139.3	124.3	120.2	153.1	156.9	89.47	61.60	55.23	45.92	36.50	44.29	109.6	628.8	2382	1841	32.14	2.833	1.954	1.660	1.463	1.509	1.547	1.571	1.529	1.765	1.876	1.646	1.666	2.104	1.983	2.156	1.964	1.720	1.616	1.655	1.686	1.644	1.530	1.715	1.748	1.668	1.813	1.712	1.806	1.664	1.783	1.910	1.825	1.640	1.713	1.806	1.841	1.662	1.721
410.0	464.4	507.0	520.8	512.2	484.2	415.9	358.3	337.8	318.1	316.3	323.8	322.4	310.7	292.3	262.2	237.8	220.7	207.9	191.1	181.3	168.1	158.3	151.1	137.3	125.0	114.2	119.9	144.1	130.7	77.22	57.60	45.43	31.20	25.69	35.65	149.4	705.5	1783	1528	145.9	8.707	2.013	1.655	1.496	1.515	1.705	1.392	1.656	1.642	1.634	1.586	1.867	1.868	2.014	1.790	1.708	1.626	1.648	1.690	1.636	1.615	1.678	1.708	1.657	1.664	1.603	1.615	1.539	1.656	1.772	1.763	1.701	1.624	1.661	1.723	1.610	1.540
415.0	447.5	475.1	476.4	465.0	437.8	391.3	350.3	326.2	308.3	305.0	310.9	303.1	285.0	267.7	246.5	220.2	205.0	195.9	182.7	172.8	163.9	154.6	146.0	136.5	125.7	113.4	108.8	107.6	128.9	114.7	66.72	45.28	31.65	23.37	21.09	42.54	164.3	427.3	1103	1776	225.1	6.923	2.032	1.550	1.508	1.645	1.452	1.557	1.600	1.378	1.382	1.872	1.676	1.817	1.682	1.550	1.625	1.586	1.558	1.669	1.511	1.478	1.642	1.594	1.610	1.636	1.624	1.504	1.448	1.530	1.513	1.604	1.721	1.647	1.765	1.505	1.624
