Sample:	'1
File name:	Default_20220328_140035.FD3
Run date:	'13:54:14, 03/28/2022
Operator:	user
Comment:	'

Instrument
Model:	F-2700 FL Spectrophotometer
Serial number:	2190-003
ROM Version:	4J14000 07

Instrument parameters
Measurement type:	3-D scan
Data mode:	Fluorescence
EX  Start WL:	220.0 nm
EX  End WL:	600.0 nm
EX Sampling interval:	5.0 nm
EM  Start WL:	230.0 nm
EM  End WL:	650.0 nm
EM Sampling interval:	5.0 nm
Scan speed:	12000 nm/min
EX Slit:	5.0 nm
EM Slit:	5.0 nm
PMT Voltage:	700 V
Response:	Auto 
Corrected spectra:	Off
Contour interval:	50.000

Peak integration
Integration method:	Rectangular
Sensitivity:	1
Threshold:	1.000

Peaks
No.	ApexEX/EM(nm)	Height(Data)
1	225.0/400.0	342.9
2	225.0/485.0	167.0
3	230.0/500.0	155.2
4	235.0/255.0	388.2
5	235.0/510.0	143.7
6	240.0/260.0	448.2
7	240.0/520.0	135.6
8	245.0/535.0	123.1
9	250.0/545.0	153.3
10	255.0/280.0	 1238
11	255.0/555.0	178.3
12	260.0/285.0	 1700
13	260.0/565.0	206.2
14	265.0/290.0	 1886
15	265.0/580.0	217.2
16	270.0/295.0	 2105
17	270.0/590.0	183.1
18	275.0/305.0	 1872
19	275.0/605.0	135.9
20	280.0/615.0	89.72
21	285.0/315.0	961.5
22	290.0/320.0	782.9
23	290.0/405.0	365.0
24	290.0/640.0	40.31
25	300.0/335.0	421.2
26	305.0/340.0	417.7
27	310.0/345.0	340.9
28	315.0/350.0	247.3
29	320.0/360.0	253.8
30	325.0/365.0	248.9
31	330.0/370.0	194.1
32	335.0/375.0	201.2
33	340.0/385.0	197.8
34	345.0/390.0	161.1
35	350.0/395.0	155.7
36	355.0/405.0	148.4
37	360.0/410.0	125.7
38	365.0/415.0	119.6
39	370.0/425.0	107.2
40	375.0/430.0	83.82
41	380.0/435.0	78.17
42	385.0/445.0	67.63
43	390.0/290.0	21.84
44	390.0/450.0	52.88
45	395.0/455.0	46.84
46	400.0/465.0	41.78
47	405.0/470.0	31.86
48	410.0/475.0	28.42
49	415.0/485.0	25.86
50	420.0/490.0	20.97
51	425.0/290.0	17.60
52	425.0/495.0	18.53
53	430.0/505.0	17.41
54	435.0/510.0	13.56
55	440.0/515.0	12.25
56	445.0/525.0	10.59
57	450.0/530.0	8.459
58	455.0/540.0	7.162
59	460.0/545.0	6.587
60	470.0/255.0	1.510
61	470.0/560.0	3.457
62	475.0/260.0	2.035
63	485.0/265.0	2.740
64	485.0/580.0	1.555
65	495.0/270.0	2.619
66	505.0/275.0	4.909
67	510.0/280.0	6.353
68	520.0/285.0	7.485
69	530.0/290.0	8.199
70	535.0/295.0	9.401
71	545.0/300.0	8.376
72	550.0/305.0	7.710
73	555.0/310.0	5.368
74	570.0/315.0	4.132
75	575.0/320.0	3.970
76	580.0/325.0	3.533
77	590.0/330.0	2.454

Data points
	220.0	225.0	230.0	235.0	240.0	245.0	250.0	255.0	260.0	265.0	270.0	275.0	280.0	285.0	290.0	295.0	300.0	305.0	310.0	315.0	320.0	325.0	330.0	335.0	340.0	345.0	350.0	355.0	360.0	365.0	370.0	375.0	380.0	385.0	390.0	395.0	400.0	405.0	410.0	415.0	420.0	425.0	430.0	435.0	440.0	445.0	450.0	455.0	460.0	465.0	470.0	475.0	480.0	485.0	490.0	495.0	500.0	505.0	510.0	515.0	520.0	525.0	530.0	535.0	540.0	545.0	550.0	555.0	560.0	565.0	570.0	575.0	580.0	585.0	590.0	595.0	600.0
230.0	35.66	682.2	 3382	 1646	64.72	-4.437	-4.160	-4.229	-3.952	-3.838	-3.202	-3.061	-2.188	-2.220	-1.867	-1.443	-1.505	-1.115	-1.053	-1.049	-0.970	-0.952	-0.802	-0.783	-0.736	-0.761	-0.696	-0.717	-0.683	-0.756	-0.652	-0.667	-0.604	-0.558	-0.457	-0.388	-0.394	-0.478	-0.394	-0.398	-0.171	0.405	0.600	-0.017	-0.348	-0.343	1.045	7.907	13.60	8.934	2.168	-0.158	-0.343	-0.388	-0.377	-0.417	-0.404	-0.396	-0.479	-0.451	-0.445	-0.486	-0.483	-0.464	-0.515	-0.495	-0.483	-0.492	-0.525	-0.471	-0.546	-0.523	-0.621	-0.553	-0.571	-0.508	-0.563
235.0	178.3	188.2	 1334	 2755	574.3	70.57	-3.587	-3.429	-4.387	-3.302	-3.711	-3.119	-1.560	-2.068	-2.069	-1.223	-1.489	-0.932	-1.092	-1.036	-1.118	-0.829	-0.736	-0.704	-0.516	-0.665	-0.648	-0.775	-0.778	-0.879	-0.544	-0.680	-0.730	-0.723	-0.410	-0.440	-0.496	-0.479	-0.413	-0.382	-0.355	-0.167	0.028	0.607	0.485	-0.205	0.036	1.594	4.356	7.858	9.576	8.105	2.240	-0.038	-0.388	-0.388	-0.427	-0.369	-0.495	-0.412	-0.514	-0.480	-0.438	-0.519	-0.494	-0.494	-0.438	-0.619	-0.555	-0.478	-0.529	-0.587	-0.508	-0.526	-0.498	-0.508	-0.523
240.0	227.9	190.0	341.1	 1500	 2616	470.8	31.96	-4.492	-3.857	-3.161	-3.623	-3.037	-2.318	-2.129	-1.477	-1.436	-1.282	-1.106	-1.075	-0.972	-0.953	-0.815	-0.771	-0.628	-0.737	-0.678	-0.538	-0.574	-0.677	-0.834	-0.583	-0.489	-0.660	-0.717	-0.470	-0.490	-0.341	-0.404	-0.440	-0.435	-0.313	-0.396	-0.300	0.075	0.717	0.625	0.404	0.178	0.768	1.948	5.018	10.71	10.64	5.981	1.064	-0.436	-0.430	-0.359	-0.417	-0.527	-0.548	-0.495	-0.476	-0.519	-0.586	-0.543	-0.446	-0.512	-0.514	-0.479	-0.467	-0.567	-0.631	-0.565	-0.539	-0.541	-0.547
245.0	102.5	272.1	182.8	399.3	 1804	 2585	373.2	5.190	-2.850	-3.186	-2.540	-2.172	-2.700	-1.879	-1.639	-1.494	-1.305	-0.981	-1.172	-0.984	-0.886	-0.911	-0.842	-0.640	-0.769	-0.613	-0.554	-0.661	-0.607	-0.788	-0.647	-0.762	-0.585	-0.573	-0.482	-0.517	-0.491	-0.525	-0.338	-0.403	-0.417	-0.391	-0.389	-0.234	0.016	0.414	0.934	0.841	0.105	0.233	0.955	3.444	7.862	12.41	9.874	3.629	0.167	-0.429	-0.468	-0.483	-0.448	-0.450	-0.468	-0.443	-0.482	-0.458	-0.393	-0.489	-0.529	-0.462	-0.548	-0.592	-0.554	-0.552	-0.638	-0.534	-0.627
250.0	16.75	135.8	288.7	244.1	483.4	 1561	 2307	 1173	92.89	-0.801	-1.681	-1.563	-1.834	-1.698	-1.519	-1.403	-1.240	-1.051	-0.917	-1.030	-0.825	-0.767	-0.813	-0.670	-0.742	-0.715	-0.554	-0.743	-0.637	-0.677	-0.646	-0.589	-0.555	-0.551	-0.507	-0.555	-0.457	-0.472	-0.393	-0.349	-0.337	-0.438	-0.384	-0.395	-0.326	-0.154	0.216	0.741	0.952	0.728	0.404	0.540	1.607	3.846	6.470	9.267	10.81	7.681	2.913	0.105	-0.401	-0.415	-0.487	-0.506	-0.457	-0.441	-0.511	-0.530	-0.496	-0.506	-0.488	-0.561	-0.442	-0.527	-0.515	-0.539	-0.580
255.0	-6.852	25.77	122.7	388.2	294.2	369.3	962.4	 2812	 1785	104.1	0.060	-1.153	-1.103	-1.507	-1.147	-1.373	-1.034	-1.150	-0.875	-0.828	-0.708	-0.655	-0.716	-0.782	-0.796	-0.690	-0.634	-0.762	-0.601	-0.623	-0.655	-0.592	-0.538	-0.471	-0.475	-0.466	-0.541	-0.548	-0.465	-0.435	-0.369	-0.389	-0.413	-0.369	-0.347	-0.313	-0.206	-0.131	0.182	0.835	1.510	1.355	0.419	0.645	1.314	1.968	4.258	9.578	15.13	12.36	3.760	-0.046	-0.356	-0.497	-0.469	-0.437	-0.542	-0.458	-0.527	-0.582	-0.557	-0.466	-0.490	-0.489	-0.525	-0.492	-0.542
260.0	-9.223	2.696	29.97	231.6	448.2	183.8	246.4	 1417	 3288	 1423	45.29	1.075	-0.805	-0.990	-0.946	-1.088	-0.916	-0.905	-0.821	-0.799	-0.806	-0.818	-0.601	-0.822	-0.693	-0.607	-0.606	-0.726	-0.669	-0.680	-0.719	-0.486	-0.454	-0.502	-0.518	-0.380	-0.464	-0.461	-0.438	-0.436	-0.344	-0.307	-0.329	-0.354	-0.396	-0.319	-0.249	-0.188	-0.149	0.026	0.771	2.035	2.015	0.780	0.209	0.164	0.715	2.476	7.480	14.86	17.07	9.875	2.052	-0.401	-0.485	-0.409	-0.462	-0.499	-0.475	-0.532	-0.485	-0.426	-0.516	-0.547	-0.541	-0.502	-0.603
265.0	41.12	10.62	12.29	80.48	373.6	403.1	118.8	409.0	 1972	 3569	288.8	14.44	0.630	-0.244	-0.605	-1.038	-0.661	-1.002	-0.936	-0.958	-0.741	-0.500	-0.685	-0.654	-0.539	-0.774	-0.658	-0.661	-0.641	-0.707	-0.757	-0.227	-0.216	0.003	-0.081	0.032	-0.075	0.043	0.000	0.284	0.366	0.261	0.167	-0.097	-0.223	-0.238	-0.270	-0.240	-0.229	-0.240	-0.020	0.543	1.779	2.740	1.083	-0.028	0.080	0.396	1.641	4.905	11.37	18.50	18.27	6.004	0.293	-0.480	-0.499	-0.461	-0.481	-0.455	-0.483	-0.516	-0.490	-0.529	-0.540	-0.498	-0.543
270.0	615.4	402.3	277.1	163.2	196.7	468.9	534.4	330.3	729.8	 2033	 3189	 1099	75.84	2.212	0.088	-0.457	-0.499	-0.744	-0.751	-0.740	-0.564	-0.519	-0.507	-0.677	-0.637	-0.637	-0.607	-0.609	-0.637	-0.584	-0.398	0.662	3.091	4.431	3.984	3.489	3.194	3.595	3.759	4.341	4.501	4.455	3.713	2.801	1.719	1.392	1.029	0.975	0.737	0.428	0.333	0.234	0.560	1.401	2.204	2.619	2.025	1.116	1.023	1.797	3.647	6.569	11.88	15.31	16.08	11.32	3.933	-0.029	-0.420	-0.440	-0.330	-0.387	-0.364	-0.407	-0.374	-0.407	-0.491
275.0	 1855	 1462	920.9	544.0	267.8	315.1	718.2	944.8	725.8	977.6	 1572	 3825	 1613	83.20	1.598	0.982	0.025	-0.513	-0.348	-0.526	-0.647	-0.527	-0.399	-0.714	-0.499	-0.594	-0.338	-0.448	-0.630	-0.383	-0.227	1.732	7.057	11.03	11.06	9.691	9.279	8.833	8.982	10.16	10.89	10.64	9.655	8.682	6.295	6.035	5.133	4.691	3.615	2.310	1.526	1.107	0.829	0.768	1.136	1.980	3.655	4.909	3.478	2.630	3.317	3.283	4.551	5.287	7.447	15.01	22.62	15.49	3.963	-0.126	-0.252	-0.224	-0.156	-0.213	-0.218	-0.169	-0.222
280.0	 2930	 2394	 1649	789.1	365.4	309.7	569.5	 1238	 1181	953.3	998.0	 2006	 4338	 1216	38.89	1.653	0.563	0.279	-0.191	-0.592	-0.276	-0.611	-0.516	-0.514	-0.547	-0.649	-0.354	-0.466	-0.440	-0.529	-0.115	2.709	9.583	16.41	16.95	14.94	13.51	12.11	12.61	13.92	15.02	14.70	14.31	12.19	10.40	10.27	9.087	7.847	6.335	3.961	2.501	1.881	1.233	0.792	1.161	1.481	2.430	4.575	6.353	5.528	4.323	3.429	3.700	4.078	3.425	5.505	11.57	21.01	23.06	10.74	1.677	-0.014	0.078	0.074	-0.035	0.036	-0.019
285.0	 3746	 3180	 2230	 1114	479.6	348.7	520.8	 1037	 1700	 1275	 1070	 1034	 2470	 4221	810.5	11.99	1.464	0.442	0.231	-0.416	-0.204	-0.317	-0.572	-0.478	-0.337	-0.614	-0.384	-0.418	-0.502	-0.438	-0.066	3.300	10.70	18.69	20.93	19.25	16.29	14.66	14.23	15.85	16.92	17.35	17.20	15.53	13.54	13.48	11.76	10.76	8.276	5.205	3.331	2.292	1.453	1.112	1.255	1.716	2.192	3.328	5.185	7.436	7.485	5.472	4.691	4.630	3.351	3.463	4.248	7.486	16.17	23.84	19.70	5.819	0.628	0.194	0.199	0.186	0.281
290.0	 4091	 3547	 2483	 1216	524.5	366.4	501.8	845.4	 1445	 1886	 1486	 1010	 1008	 2056	 3114	 1502	44.77	1.800	0.750	0.247	-0.086	-0.264	-0.447	-0.437	-0.363	-0.485	-0.284	-0.457	-0.425	-0.493	-0.123	2.949	10.40	18.90	21.84	20.32	17.19	15.51	14.87	15.42	16.65	17.60	17.28	16.02	15.28	14.89	13.10	12.12	9.053	5.787	3.859	2.523	1.719	1.332	1.231	1.768	2.047	2.949	3.656	5.054	6.881	7.967	8.199	6.689	4.489	3.937	3.636	3.484	4.834	8.168	14.24	17.14	17.15	11.75	4.239	0.665	0.122
295.0	 3921	 3454	 2401	 1176	510.2	353.0	472.7	740.6	 1140	 1600	 2105	 1298	763.7	666.1	 1070	 3159	 2205	55.48	1.955	0.779	0.389	-0.088	-0.190	-0.409	-0.294	-0.412	-0.216	-0.303	-0.343	-0.303	-0.260	2.408	8.411	16.81	19.65	18.90	16.15	13.78	12.83	13.55	14.42	15.87	15.68	15.51	14.62	14.51	11.98	11.65	8.675	5.597	3.625	2.589	1.476	1.447	1.198	1.627	1.924	2.563	3.463	4.095	5.078	5.545	7.200	9.401	7.890	5.399	4.147	3.017	2.455	2.695	3.622	4.317	7.687	17.07	24.29	15.18	3.328
300.0	 3499	 3113	 2125	 1041	457.7	332.8	432.1	675.9	972.5	 1322	 1903	 1768	799.1	393.9	335.4	 1288	 3637	724.9	35.14	1.456	0.502	0.216	-0.245	-0.315	-0.232	-0.418	-0.280	-0.301	-0.338	-0.396	-0.273	1.917	7.250	14.05	17.47	16.46	14.09	11.91	11.29	11.51	12.02	13.49	13.71	13.60	13.08	12.91	10.92	10.70	7.776	5.265	3.327	2.669	1.511	1.368	1.174	1.486	1.859	2.438	3.070	3.580	4.328	4.568	5.600	6.930	8.370	8.376	5.822	3.469	1.938	1.601	1.380	1.342	1.994	5.247	12.94	22.84	22.88
305.0	 2981	 2647	 1846	910.2	425.1	304.1	394.2	586.1	867.2	 1130	 1448	 1872	 1096	367.5	186.2	363.7	 1771	 3377	563.5	12.90	1.101	0.513	0.051	-0.052	-0.263	-0.232	-0.188	-0.253	-0.347	-0.467	-0.051	1.437	5.850	11.64	14.98	13.70	11.48	9.872	9.298	9.322	10.26	11.13	11.53	11.76	11.19	11.19	10.04	9.228	6.643	4.463	2.945	2.143	1.312	1.166	0.911	1.269	1.547	2.316	2.699	3.403	3.854	4.190	4.851	5.289	6.076	7.331	7.710	5.131	2.264	1.311	1.040	0.590	0.777	1.552	3.382	8.186	17.82
310.0	 2310	 2058	 1434	722.0	350.3	263.1	336.4	491.6	717.8	935.4	 1124	 1296	 1291	695.0	213.2	165.1	472.6	 1550	 2539	 1233	33.44	1.622	0.596	0.142	-0.011	-0.069	-0.198	-0.230	-0.451	-0.521	-0.201	0.937	4.169	8.559	11.09	10.17	9.052	7.594	7.090	6.860	7.467	8.458	8.626	8.875	8.706	8.494	7.575	7.030	5.280	3.226	2.272	1.550	1.200	0.958	0.894	1.048	1.331	1.796	2.116	2.604	3.268	3.237	3.990	4.207	4.186	4.722	5.157	5.368	4.452	3.113	1.632	0.807	0.605	0.671	0.967	1.991	4.390
315.0	 1782	 1549	 1040	553.3	289.6	228.3	279.3	402.7	577.6	755.0	902.6	940.5	863.1	961.5	490.3	150.9	171.4	382.0	816.1	 2586	 1802	44.72	1.155	0.735	0.459	0.103	-0.126	-0.191	-0.314	-0.441	-0.022	0.698	2.983	5.802	7.992	7.627	6.578	5.409	4.874	4.953	5.092	5.840	6.466	6.420	6.450	6.527	5.556	4.899	3.645	2.434	1.605	1.263	0.887	0.773	0.803	0.868	1.231	1.387	1.508	2.020	2.420	2.579	3.096	3.397	3.355	3.527	3.230	3.122	3.238	3.991	4.132	2.499	1.044	0.590	0.548	0.656	1.002
320.0	 1479	 1244	836.6	441.3	252.6	195.6	248.2	342.9	486.2	649.0	770.9	796.7	662.4	706.7	782.9	271.7	115.3	127.7	209.4	 1045	 2922	518.9	28.22	1.285	0.617	0.097	-0.153	-0.143	-0.192	-0.325	-0.182	0.357	1.893	4.324	6.004	5.717	4.989	4.062	3.520	3.679	3.930	4.439	4.868	5.287	5.256	5.270	4.336	3.694	2.700	1.711	1.129	1.035	0.760	0.729	0.660	0.654	1.095	1.099	1.358	1.556	1.837	2.389	2.767	2.704	2.850	3.021	2.685	2.531	2.260	2.479	3.363	3.970	2.921	1.176	0.547	0.384	0.229
325.0	 1225	 1038	688.7	382.6	222.2	179.8	223.6	306.7	422.9	552.9	665.1	690.4	579.1	487.5	685.9	533.5	126.2	72.52	71.17	263.6	 1423	 2618	433.7	12.42	0.952	0.306	0.235	-0.040	-0.096	-0.237	-0.143	0.203	1.515	3.374	4.503	4.372	3.576	2.944	2.725	2.904	2.835	3.535	3.923	4.177	4.305	4.235	3.661	3.054	2.245	1.370	0.930	0.754	0.729	0.623	0.537	0.598	0.765	1.023	1.135	1.304	1.812	2.048	2.223	2.450	2.238	2.432	2.265	2.208	1.710	1.738	1.888	2.640	3.533	2.771	1.394	0.280	0.204
330.0	968.3	835.3	559.0	317.6	199.6	171.6	200.6	257.1	354.5	460.8	556.8	592.3	505.3	400.3	400.1	515.7	382.8	88.80	43.52	78.06	351.3	 1216	 2044	 1167	28.22	1.471	0.475	-0.007	0.016	-0.172	-0.162	0.139	1.147	2.313	3.016	3.041	2.594	2.240	1.888	2.036	2.279	2.540	2.974	3.268	3.540	3.145	2.785	2.410	1.851	1.092	0.746	0.675	0.425	0.374	0.494	0.449	0.712	0.745	0.994	1.090	1.462	1.513	1.841	2.116	1.813	1.920	1.886	1.795	1.721	1.286	1.228	1.409	1.822	2.224	2.454	2.064	0.982
335.0	790.2	696.9	438.8	262.3	172.3	156.2	174.1	225.8	308.8	388.8	470.3	500.6	453.7	363.7	294.1	273.7	421.2	327.9	66.49	37.74	94.77	286.1	673.2	 2267	 1652	38.79	1.237	0.259	0.005	0.077	-0.146	0.067	0.858	1.405	1.871	2.226	1.838	1.671	1.269	1.588	1.517	2.199	2.308	2.786	2.690	2.654	2.363	1.751	1.459	0.826	0.591	0.548	0.437	0.273	0.423	0.236	0.598	0.707	0.571	1.013	1.125	1.346	1.455	1.529	1.274	1.604	1.499	1.650	1.339	1.154	1.054	1.237	0.957	1.071	1.165	1.801	2.562
340.0	665.7	575.8	382.6	242.7	165.4	143.0	165.0	203.3	261.7	345.3	407.6	437.5	396.7	328.0	254.9	193.0	240.2	417.7	191.0	35.52	38.44	78.99	166.3	935.4	 2699	434.8	26.55	0.929	0.522	0.188	-0.054	0.096	0.457	1.148	1.580	1.952	1.344	1.175	0.913	1.164	1.261	1.739	1.777	2.103	2.026	2.229	1.884	1.534	1.213	0.728	0.599	0.482	0.369	0.315	0.316	0.170	0.493	0.641	0.586	0.776	0.883	1.060	1.194	1.357	1.392	1.369	1.365	1.516	1.318	1.088	1.131	0.987	0.718	0.735	0.645	0.673	1.454
345.0	572.3	516.4	355.9	224.9	156.8	133.9	143.3	182.3	228.0	296.5	358.4	391.2	359.7	299.4	231.4	163.4	141.8	277.7	340.9	74.58	27.68	33.02	50.66	232.9	 1367	 2374	387.9	11.18	0.812	0.447	0.056	0.180	0.312	0.887	1.211	1.353	1.173	0.727	0.854	0.971	0.982	1.481	1.476	1.694	1.698	1.875	1.447	1.329	1.139	0.591	0.448	0.537	0.367	0.263	0.315	0.284	0.504	0.495	0.532	0.501	0.702	0.827	1.002	1.348	1.077	1.049	1.073	1.087	1.060	0.982	0.926	0.742	0.724	0.607	0.384	0.287	0.381
350.0	472.8	424.4	304.9	202.1	146.0	125.7	132.2	159.2	201.0	260.0	304.1	331.0	309.9	267.5	206.0	149.9	111.2	128.3	245.1	247.3	85.80	26.83	27.33	65.53	338.8	 1142	 2067	889.5	24.99	0.949	0.534	0.282	0.399	0.639	0.874	1.017	0.892	0.793	0.660	0.636	0.950	0.995	1.109	1.474	1.438	1.419	1.173	1.221	0.881	0.496	0.435	0.349	0.383	0.265	0.181	0.256	0.322	0.442	0.497	0.577	0.520	0.658	0.816	0.870	0.922	1.031	0.946	0.778	0.840	0.746	0.644	0.673	0.514	0.406	0.234	0.136	0.093
355.0	386.5	357.1	254.9	177.6	142.6	119.4	122.2	142.9	176.6	222.3	252.1	275.7	270.2	240.4	190.4	140.4	104.3	86.58	106.4	206.7	238.4	56.71	25.00	30.95	88.42	266.1	743.6	 2017	 1354	33.39	1.220	0.424	0.213	0.551	0.561	0.791	0.596	0.543	0.345	0.486	0.527	0.742	0.821	1.119	1.221	1.103	0.939	0.937	0.663	0.474	0.366	0.393	0.328	0.225	0.097	0.282	0.229	0.281	0.271	0.522	0.433	0.518	0.674	0.725	0.739	0.783	0.596	0.605	0.648	0.775	0.501	0.499	0.324	0.376	0.153	0.086	0.013
360.0	339.7	303.4	233.9	164.8	135.9	121.3	121.0	132.6	159.9	191.7	226.2	244.5	251.1	216.4	181.7	139.1	104.1	84.42	72.48	111.6	253.8	163.7	37.07	24.16	34.07	70.71	180.6	899.7	 2352	400.4	20.53	1.112	0.587	0.596	0.623	0.532	0.575	0.565	0.498	0.433	0.556	0.607	0.741	0.912	1.182	0.952	0.732	0.872	0.559	0.631	0.420	0.485	0.291	0.148	0.126	0.158	0.280	0.257	0.182	0.273	0.354	0.529	0.657	0.496	0.518	0.558	0.672	0.665	0.631	0.601	0.554	0.365	0.389	0.393	0.313	0.170	0.113
365.0	318.2	285.2	229.3	174.5	141.3	122.2	117.9	123.3	146.7	179.2	209.6	230.5	237.4	212.9	184.8	145.3	116.3	89.83	74.29	74.40	155.9	248.9	68.33	27.97	24.41	29.21	50.26	224.5	 1271	 2221	334.9	7.327	0.851	0.736	0.778	0.569	0.635	0.590	0.508	0.414	0.539	0.718	0.654	0.894	0.875	0.954	0.760	0.673	0.715	0.507	0.498	0.430	0.227	0.274	0.174	0.101	0.345	0.219	0.124	0.190	0.287	0.375	0.518	0.463	0.485	0.512	0.555	0.652	0.505	0.580	0.567	0.375	0.418	0.460	0.240	0.234	0.063
370.0	296.4	283.5	232.1	185.1	150.2	123.3	113.6	111.7	135.1	163.6	193.7	217.0	229.2	221.5	203.1	169.9	144.4	115.6	92.31	75.58	86.63	165.0	194.1	87.43	29.45	23.02	23.50	59.75	316.8	 1150	 1844	804.0	19.71	1.330	0.940	0.981	0.900	0.734	0.708	0.552	0.564	0.600	0.683	0.752	0.785	0.827	0.735	0.691	0.666	0.434	0.347	0.469	0.256	0.304	0.121	0.183	0.233	0.181	0.037	0.158	0.211	0.390	0.273	0.377	0.348	0.394	0.478	0.532	0.561	0.526	0.561	0.504	0.520	0.634	0.357	0.454	0.349
375.0	285.5	286.8	246.6	200.3	157.6	125.1	109.7	111.7	124.8	146.1	180.6	211.1	229.5	235.7	233.1	210.3	181.2	152.7	120.8	89.76	74.55	86.07	151.1	201.2	58.94	25.24	20.57	25.61	79.92	266.2	716.5	 2071	 1073	24.68	1.468	1.125	1.083	0.898	0.977	0.616	0.712	0.641	0.658	0.661	0.747	0.699	0.844	0.571	0.575	0.471	0.596	0.633	0.405	0.308	0.200	0.165	0.223	0.166	0.164	0.025	0.100	0.242	0.271	0.267	0.270	0.281	0.420	0.644	0.682	0.605	0.654	0.670	0.681	0.632	0.671	0.584	0.472
380.0	290.6	298.3	262.7	220.3	176.6	127.8	110.1	110.1	123.0	140.6	179.1	204.7	238.7	258.7	258.3	243.0	218.8	186.2	141.2	105.4	80.72	70.21	89.53	192.3	150.8	42.14	22.42	19.49	28.80	67.82	174.2	 1018	 2171	327.3	13.63	1.396	1.488	1.103	1.412	0.896	0.936	0.744	0.751	0.735	0.931	0.722	1.020	0.718	0.715	0.545	0.548	0.551	0.477	0.349	0.242	0.250	0.180	0.129	0.117	0.018	0.127	0.141	0.223	0.285	0.213	0.409	0.501	0.567	0.761	0.641	0.616	0.936	0.923	0.726	0.800	0.786	0.731
385.0	297.1	304.1	291.6	247.3	183.0	134.0	104.7	106.1	116.4	141.7	170.7	212.6	256.7	278.2	285.5	277.1	251.0	213.9	166.6	119.9	88.61	70.21	68.14	119.1	197.8	95.60	29.07	20.19	19.60	25.88	47.50	258.9	 1342	 1839	249.4	4.408	1.866	1.530	1.460	1.278	0.763	0.822	0.765	0.764	0.866	0.802	0.957	0.875	0.749	0.677	0.644	0.793	0.508	0.326	0.212	0.214	0.047	0.140	0.070	0.166	0.159	0.239	0.359	0.191	0.394	0.510	0.651	0.603	0.560	0.828	1.134	1.061	1.070	1.133	0.991	0.965	0.950
390.0	301.1	316.8	297.1	259.5	205.4	137.2	108.1	103.6	114.6	138.0	176.0	221.7	267.8	304.1	323.2	316.1	289.8	246.4	189.7	136.4	97.22	75.76	65.63	73.79	127.1	161.1	81.81	28.61	20.82	19.12	21.42	65.92	344.5	 1072	 1498	562.5	16.13	2.282	1.952	1.574	1.159	0.891	1.019	0.885	0.950	0.865	0.896	0.962	0.852	0.836	0.693	0.711	0.578	0.447	0.239	0.140	0.064	0.071	0.054	0.098	0.066	0.241	0.217	0.332	0.361	0.522	0.701	0.611	0.795	0.996	1.168	1.162	1.266	1.413	1.201	1.245	1.239
395.0	308.9	330.9	304.1	275.5	217.6	146.7	113.1	104.1	111.9	133.3	169.2	226.8	276.3	321.9	351.3	338.6	319.7	272.6	206.7	144.2	103.7	81.53	69.19	65.05	73.29	115.9	155.7	55.76	26.49	20.49	17.18	24.37	83.55	247.4	683.1	 1685	764.6	18.69	2.208	1.932	1.364	1.245	1.063	1.074	0.812	1.065	0.914	1.002	0.864	0.914	0.910	0.591	0.656	0.280	0.201	0.054	0.251	0.070	0.107	0.076	0.068	0.169	0.207	0.290	0.291	0.458	0.535	0.696	0.755	1.146	1.043	1.376	1.602	1.616	1.656	1.112	1.608
400.0	323.5	342.9	328.1	288.5	225.6	140.3	110.0	98.62	109.5	132.7	166.5	222.5	278.3	334.0	361.4	357.7	328.7	283.5	218.0	150.0	108.1	83.99	72.06	63.83	60.51	72.32	140.7	124.2	43.67	23.21	18.59	16.46	26.13	61.03	168.7	935.2	 1698	259.3	9.732	2.354	1.576	1.548	1.154	1.154	0.886	1.014	0.981	1.029	0.929	0.841	0.836	0.661	0.472	0.472	0.328	0.176	0.196	0.129	0.143	0.129	0.221	0.143	0.180	0.273	0.371	0.341	0.592	0.834	0.804	1.043	1.294	1.276	1.603	1.485	1.442	1.634	1.307
