Sample:	'1
File name:	g04008¿µÈðÒ©ÒµÑ­»·Ë®.FD3
Run date:	'13:49:53, 08/02/2024
Operator:	horiz
Comment:	'

Instrument
Model:	F-2700 FL Spectrophotometer
Serial number:	23B8-004
ROM Version:	4J14000 07

Instrument parameters
Measurement type:	3-D scan
Data mode:	Fluorescence
EX  Start WL:	220.0 nm
EX  End WL:	600.0 nm
EX Sampling interval:	5.0 nm
EM  Start WL:	230.0 nm
EM  End WL:	650.0 nm
EM Sampling interval:	5.0 nm
Scan speed:	12000 nm/min
EX Slit:	5.0 nm
EM Slit:	5.0 nm
PMT Voltage:	700 V
Response:	Auto 
Corrected spectra:	Off
Contour interval:	50.000

Peak integration
Integration method:	Rectangular
Sensitivity:	1
Threshold:	1.000

Peaks
No.	ApexEX/EM(nm)	Height(Data)
1	225.0/345.0	663.9
2	225.0/490.0	238.5
3	230.0/340.0	685.3
4	230.0/500.0	216.5
5	235.0/510.0	182.6
6	240.0/260.0	417.9
7	240.0/525.0	173.0
8	245.0/270.0	400.4
9	245.0/535.0	149.3
10	250.0/275.0	482.7
11	250.0/550.0	124.8
12	255.0/280.0	642.5
13	255.0/560.0	121.4
14	260.0/285.0	622.0
15	260.0/575.0	99.34
16	265.0/585.0	100.6
17	270.0/300.0	932.5
18	270.0/595.0	86.27
19	275.0/305.0	1010
20	275.0/610.0	74.91
21	280.0/310.0	888.8
22	280.0/620.0	64.56
23	285.0/315.0	844.2
24	285.0/635.0	49.86
25	290.0/325.0	765.0
26	295.0/330.0	539.2
27	300.0/335.0	468.3
28	305.0/345.0	393.5
29	310.0/350.0	321.6
30	315.0/355.0	303.4
31	320.0/360.0	292.3
32	325.0/370.0	244.8
33	330.0/375.0	231.4
34	335.0/380.0	232.2
35	345.0/395.0	162.8
36	350.0/400.0	168.9
37	355.0/405.0	155.2
38	360.0/410.0	128.5
39	365.0/420.0	123.0
40	370.0/425.0	113.9
41	375.0/430.0	91.70
42	380.0/435.0	81.75
43	385.0/445.0	74.98
44	390.0/450.0	59.66
45	395.0/455.0	52.30
46	400.0/465.0	46.36
47	405.0/470.0	36.78
48	410.0/475.0	31.72
49	415.0/485.0	29.07
50	420.0/490.0	23.70
51	425.0/495.0	20.84
52	430.0/505.0	19.17
53	435.0/510.0	15.63
54	440.0/515.0	13.67
55	445.0/525.0	11.96
56	455.0/540.0	8.187
57	470.0/560.0	4.266
58	480.0/575.0	2.660
59	485.0/580.0	2.394
60	495.0/270.0	2.584
61	505.0/275.0	3.664
62	510.0/280.0	3.878
63	520.0/285.0	4.308
64	530.0/290.0	3.976
65	540.0/295.0	5.322
66	545.0/300.0	5.946
67	550.0/305.0	5.545
68	560.0/310.0	4.976
69	570.0/315.0	5.215
70	580.0/320.0	5.069
71	585.0/325.0	5.053

Wavelength data
No.	EX/EM(nm)	Height(Data)	

Data points
	220.0	225.0	230.0	235.0	240.0	245.0	250.0	255.0	260.0	265.0	270.0	275.0	280.0	285.0	290.0	295.0	300.0	305.0	310.0	315.0	320.0	325.0	330.0	335.0	340.0	345.0	350.0	355.0	360.0	365.0	370.0	375.0	380.0	385.0	390.0	395.0	400.0	405.0	410.0	415.0	420.0	425.0	430.0	435.0	440.0	445.0	450.0	455.0	460.0	465.0	470.0	475.0	480.0	485.0	490.0	495.0	500.0	505.0	510.0	515.0	520.0	525.0	530.0	535.0	540.0	545.0	550.0	555.0	560.0	565.0	570.0	575.0	580.0	585.0	590.0	595.0	600.0
230.0	117.0	899.7	4581	2686	194.6	15.03	10.99	9.649	7.324	6.715	5.341	4.826	4.426	4.019	3.492	2.737	2.327	1.975	1.983	1.794	1.606	1.551	1.436	1.441	1.420	1.347	1.313	1.260	1.249	1.194	1.243	1.168	1.121	1.089	1.036	0.927	0.940	0.917	0.827	0.832	0.844	1.147	1.244	1.044	0.824	0.761	1.052	5.601	13.93	14.76	7.773	2.129	0.733	0.561	0.578	0.571	0.583	0.573	0.558	0.556	0.554	0.574	0.518	0.526	0.545	0.565	0.536	0.538	0.559	0.521	0.524	0.517	0.543	0.536	0.496	0.562	0.528
235.0	250.3	297.1	1825	4203	2550	252.1	13.18	11.89	8.953	8.002	6.230	5.448	4.468	3.995	3.757	2.728	2.473	2.093	1.741	1.879	1.652	1.564	1.498	1.357	1.340	1.389	1.221	1.329	1.271	1.216	1.189	1.138	1.015	0.981	1.078	0.951	0.892	0.850	0.860	0.933	0.795	0.904	1.051	1.251	1.249	0.970	0.812	1.788	4.329	8.015	13.07	16.08	11.06	3.312	0.823	0.628	0.623	0.549	0.584	0.604	0.552	0.556	0.538	0.524	0.514	0.580	0.577	0.506	0.528	0.553	0.544	0.559	0.541	0.547	0.508	0.569	0.553
240.0	277.9	250.3	495.6	2294	4723	2221	143.3	14.27	9.275	8.877	7.634	6.422	5.588	3.846	3.803	2.693	2.586	2.113	2.096	1.837	1.867	1.438	1.548	1.352	1.348	1.333	1.334	1.350	1.319	1.326	1.422	1.080	1.116	1.069	1.083	0.981	0.872	0.882	1.008	0.930	0.827	0.851	0.927	0.966	1.206	1.279	1.189	1.069	1.474	2.434	4.932	13.00	21.04	19.12	9.327	2.235	0.640	0.621	0.574	0.579	0.527	0.522	0.557	0.573	0.489	0.566	0.598	0.485	0.487	0.505	0.524	0.564	0.597	0.529	0.498	0.569	0.650
245.0	170.1	314.5	251.2	638.9	3160	4595	1572	62.72	11.93	10.82	8.218	7.122	5.493	4.459	3.783	3.105	2.516	2.290	1.994	1.894	1.793	1.443	1.548	1.497	1.537	1.396	1.555	1.450	1.319	1.247	1.323	1.137	1.104	0.953	1.194	0.907	0.999	0.952	0.935	0.818	0.900	0.865	0.833	0.804	0.904	1.135	1.480	1.563	1.194	1.090	1.549	3.845	10.10	20.14	24.92	17.20	6.785	1.316	0.646	0.602	0.589	0.548	0.520	0.610	0.536	0.529	0.599	0.566	0.495	0.487	0.516	0.608	0.575	0.572	0.489	0.550	0.625
250.0	98.41	185.2	330.9	321.9	866.6	2960	4358	1639	145.7	14.12	10.29	8.067	6.817	4.836	4.358	3.473	2.684	2.549	2.228	2.190	1.816	1.603	1.654	1.661	1.618	1.491	1.413	1.462	1.447	1.344	1.376	1.214	1.080	1.034	1.049	0.884	0.917	0.908	0.894	0.868	0.909	0.867	0.850	0.779	0.775	0.883	0.999	1.341	1.678	1.438	1.261	1.521	2.805	5.722	10.99	17.51	24.74	24.12	14.98	5.974	1.341	0.688	0.567	0.597	0.616	0.601	0.554	0.558	0.552	0.545	0.500	0.619	0.586	0.571	0.557	0.574	0.531
255.0	69.61	87.38	176.8	392.1	365.7	710.8	2210	7683	2396	174.5	16.46	10.61	8.077	5.928	5.369	3.948	3.254	2.586	2.517	2.241	2.090	1.864	1.876	1.685	1.607	1.469	1.485	1.568	1.534	1.315	1.371	1.267	1.300	1.047	1.040	1.081	0.972	0.969	1.024	0.847	0.927	0.789	0.791	0.757	0.852	0.815	0.730	0.977	1.040	1.235	1.773	2.206	1.712	1.954	3.038	4.579	7.445	15.94	32.53	31.50	23.07	6.764	1.051	0.685	0.597	0.601	0.591	0.608	0.665	0.528	0.601	0.643	0.605	0.592	0.593	0.579	0.536
260.0	73.87	52.47	77.14	272.8	417.9	262.8	591.7	4615	8125	1862	109.2	13.00	8.967	6.889	6.294	4.213	3.191	2.818	2.583	2.435	2.173	1.786	1.912	1.775	1.617	1.589	1.617	1.478	1.569	1.393	1.516	1.303	1.233	0.987	0.979	0.935	0.986	0.834	1.014	0.743	0.904	0.879	0.873	0.831	0.746	0.698	0.662	0.716	0.779	0.741	1.118	2.043	2.570	1.829	1.396	1.607	2.254	4.375	11.59	26.53	46.95	30.82	17.98	3.707	0.796	0.643	0.555	0.680	0.708	0.528	0.577	0.588	0.621	0.567	0.652	0.536	0.530
265.0	67.30	46.00	45.34	116.0	392.4	352.1	194.8	1291	5965	8413	1425	45.25	11.05	8.470	6.828	4.695	3.572	2.861	2.771	2.566	2.182	2.158	1.895	1.752	1.711	1.784	1.672	1.650	1.617	1.621	1.486	1.365	1.266	1.025	1.051	1.060	1.012	0.849	1.002	0.932	0.895	0.988	0.862	0.839	0.801	0.700	0.712	0.678	0.709	0.620	0.731	1.140	2.010	2.796	2.342	1.222	1.105	1.581	3.196	7.446	20.23	37.68	54.57	28.41	12.41	1.629	0.725	0.682	0.675	0.579	0.630	0.615	0.654	0.568	0.563	0.632	0.586
270.0	83.07	51.14	40.95	50.92	161.0	400.4	349.0	366.9	1654	5711	9149	3608	81.56	12.64	9.760	5.936	4.399	3.916	3.294	2.797	2.498	2.110	1.890	1.966	1.859	1.834	1.541	1.688	1.759	1.625	1.570	1.412	1.348	1.165	1.171	0.980	1.090	1.016	1.004	0.934	0.875	0.976	0.931	0.876	0.818	0.798	0.710	0.758	0.711	0.602	0.627	0.756	1.010	1.530	2.159	2.584	2.469	1.566	1.451	2.327	5.196	10.50	22.40	35.41	47.84	42.89	18.13	8.710	1.663	0.638	0.659	0.615	0.617	0.629	0.572	0.626	0.672
275.0	109.0	82.34	49.91	38.52	58.29	153.6	482.7	404.9	434.4	1361	4705	9999.9	1395	92.73	14.72	7.739	5.439	4.760	3.600	2.974	2.642	2.495	2.194	2.009	1.933	1.799	1.630	1.757	1.634	1.612	1.674	1.365	1.401	1.243	1.291	1.105	1.136	1.035	0.980	0.869	0.908	0.931	0.995	0.934	0.988	0.947	0.812	0.757	0.750	0.636	0.654	0.605	0.722	0.833	0.995	1.379	2.670	3.664	3.073	1.751	1.862	2.892	5.661	8.707	13.29	26.07	51.83	68.64	28.08	9.668	1.163	0.687	0.610	0.635	0.633	0.601	0.672
280.0	145.6	106.1	70.31	48.81	37.55	64.69	256.2	642.5	313.3	369.0	1264	7552	9999.9	1073	51.52	10.54	6.502	5.465	3.990	3.788	2.943	2.562	2.283	2.309	1.975	2.039	1.929	1.782	1.732	1.738	1.591	1.537	1.419	1.353	1.284	1.304	1.163	1.191	1.101	0.987	1.045	0.976	1.071	0.988	1.168	1.175	0.885	0.891	0.758	0.757	0.627	0.671	0.664	0.737	0.707	0.840	1.320	2.383	3.878	3.635	2.182	1.443	2.048	2.661	3.781	6.837	17.33	43.22	73.97	66.57	22.57	4.991	0.824	0.653	0.651	0.669	0.683
285.0	188.3	164.0	97.25	65.23	42.98	43.90	105.8	466.4	622.0	222.1	366.1	2191	9999.9	9121	770.3	19.94	8.862	6.056	4.717	4.072	3.557	2.668	2.638	2.540	2.310	2.050	1.747	1.859	1.757	1.742	1.667	1.612	1.536	1.295	1.290	1.344	1.225	1.357	1.116	1.141	1.145	1.019	1.105	1.079	1.195	1.111	1.028	0.994	0.784	0.804	0.654	0.796	0.696	0.683	0.672	0.741	0.864	1.283	2.091	3.694	4.308	3.025	1.701	1.414	1.608	2.292	4.792	11.33	28.49	56.93	79.68	32.74	16.25	2.410	0.695	0.726	0.753
290.0	263.4	240.7	168.2	103.3	68.68	58.34	73.44	189.3	533.9	534.8	258.4	619.3	2825	8512	9999.9	2399	40.92	9.296	6.134	4.878	4.120	3.261	2.928	2.706	2.569	2.175	1.978	1.870	1.793	1.755	1.809	1.656	1.532	1.335	1.452	1.378	1.368	1.522	1.280	1.251	1.175	1.193	1.223	1.133	1.207	1.246	1.132	1.202	1.081	0.884	0.798	0.895	0.802	0.750	0.722	0.827	0.827	1.008	1.117	1.785	2.748	3.827	3.976	3.097	1.898	1.555	2.084	3.600	7.428	14.75	28.62	41.47	60.79	49.12	44.26	12.28	2.768
295.0	330.8	308.3	234.6	150.1	100.7	84.56	86.99	120.9	235.3	592.0	759.0	335.2	790.8	2077	8066	9999.9	734.0	42.71	9.055	6.956	5.255	4.130	3.571	3.006	2.818	2.602	2.358	2.276	1.891	2.028	1.883	1.835	1.597	1.535	1.456	1.542	1.446	1.656	1.543	1.422	1.404	1.232	1.325	1.405	1.407	1.358	1.400	1.438	1.294	1.075	0.923	1.042	1.042	0.767	0.940	0.882	0.957	0.959	1.021	1.215	1.516	1.820	2.508	4.555	5.322	3.536	2.162	2.058	2.889	4.424	7.458	10.26	15.69	23.00	62.00	87.98	34.27
300.0	385.0	358.6	291.2	190.3	127.1	104.3	115.6	128.6	176.5	355.5	932.5	623.8	395.2	607.9	2171	8697	9999.9	580.5	23.03	8.913	6.601	4.477	3.786	3.452	2.984	2.923	2.548	2.280	2.190	2.052	1.942	1.950	1.714	1.621	1.611	1.454	1.540	1.666	1.541	1.497	1.550	1.459	1.367	1.411	1.483	1.516	1.557	1.570	1.413	1.209	0.948	1.114	1.045	0.900	0.981	1.013	1.020	1.080	1.185	1.267	1.417	1.479	1.753	2.695	4.443	5.946	4.562	2.531	2.262	2.301	2.943	3.447	4.438	6.241	17.84	43.13	73.40
305.0	402.4	391.8	330.1	232.3	151.9	131.7	143.6	155.8	192.9	275.4	635.7	1010	466.6	328.1	619.1	2531	9999.9	5351	81.20	13.03	8.688	5.729	4.790	3.942	3.361	3.177	2.578	2.642	2.285	2.189	2.070	1.891	1.806	1.683	1.678	1.580	1.680	1.867	1.773	1.477	1.550	1.501	1.538	1.617	1.557	1.749	1.562	1.674	1.631	1.282	1.231	1.119	1.153	1.048	1.063	1.153	1.172	1.215	1.422	1.319	1.371	1.509	1.713	1.924	2.491	3.943	5.545	5.272	3.185	2.115	2.317	1.999	2.118	2.540	5.022	10.95	24.12
310.0	427.9	451.2	362.4	266.4	189.3	163.6	173.3	186.9	226.7	283.6	427.2	776.3	888.8	441.0	308.4	662.6	2836	7430	7961	1642	27.33	7.911	6.282	4.934	4.201	3.583	3.022	2.809	2.593	2.517	2.310	2.104	1.856	1.716	1.649	1.558	1.600	1.694	1.735	1.698	1.522	1.541	1.545	1.556	1.688	1.711	1.657	1.758	1.778	1.495	1.360	1.296	1.288	1.240	1.225	1.308	1.345	1.295	1.498	1.447	1.692	1.684	1.749	1.901	2.167	2.639	3.489	4.360	4.976	4.869	3.682	2.342	1.846	1.867	2.282	3.448	6.281
315.0	463.2	476.3	414.0	299.6	216.4	187.6	191.2	213.0	250.6	301.3	389.7	520.9	740.8	844.2	345.6	263.6	700.7	1767	5730	9999.9	514.4	26.07	8.550	6.276	5.293	4.032	3.283	3.071	2.984	2.678	2.507	2.184	2.017	1.832	1.787	1.791	1.752	1.796	1.819	1.752	1.620	1.633	1.645	1.666	1.752	1.720	1.869	1.932	1.757	1.586	1.435	1.467	1.449	1.270	1.352	1.408	1.438	1.444	1.572	1.730	1.681	1.782	1.865	2.061	2.220	2.365	2.620	2.932	3.217	3.748	5.215	4.795	3.162	2.095	1.841	1.863	2.538
320.0	469.5	547.3	474.9	331.5	224.5	200.2	213.2	236.4	268.7	316.9	406.8	471.6	557.3	825.6	599.4	211.7	233.5	445.9	1513	8289	9744	407.4	14.67	7.757	6.591	4.802	3.887	3.521	3.172	2.583	2.581	2.242	2.108	2.036	1.684	1.651	1.811	1.895	1.742	1.907	1.739	1.699	1.733	1.751	1.804	1.894	1.999	2.210	1.966	1.638	1.578	1.638	1.561	1.337	1.407	1.436	1.560	1.541	1.675	1.731	1.800	1.868	1.949	2.235	2.323	2.433	2.492	2.588	2.725	2.991	3.785	4.861	5.069	3.679	2.227	1.457	1.574
325.0	528.3	611.2	567.4	389.7	242.1	209.9	220.1	243.9	287.0	331.0	416.8	475.3	507.6	590.7	765.0	336.8	141.6	158.8	381.2	2430	9999.9	3957	60.19	11.48	8.065	6.000	4.597	4.082	3.586	3.066	2.555	2.276	2.071	2.020	1.707	1.736	1.859	1.968	1.834	1.846	1.640	1.750	1.870	1.883	1.922	1.991	2.100	2.486	2.376	1.875	1.638	1.670	1.618	1.457	1.447	1.443	1.579	1.577	1.630	1.719	1.912	1.865	1.945	2.227	2.372	2.461	2.489	2.696	2.745	2.706	2.903	3.137	4.230	5.053	4.026	2.344	1.446
330.0	543.1	657.4	624.2	439.7	275.8	230.6	224.9	251.1	289.6	341.1	422.6	474.8	493.8	468.9	534.8	539.2	262.9	108.1	134.3	581.6	2905	6282	6715	1343	23.01	8.292	5.896	4.727	4.043	3.355	3.036	2.494	2.513	2.107	1.894	1.936	1.988	2.084	1.945	1.747	1.752	1.729	1.826	1.996	1.931	2.233	2.254	2.586	2.411	2.065	1.780	1.787	1.667	1.547	1.481	1.495	1.611	1.589	1.731	1.746	1.986	1.976	2.090	2.250	2.402	2.429	2.349	2.707	2.759	2.693	2.907	2.745	2.808	3.280	3.575	3.905	3.200
335.0	553.8	660.2	667.2	461.4	302.5	243.9	235.3	259.2	291.2	345.7	423.8	473.2	490.2	434.5	383.5	383.8	468.3	206.8	91.56	173.1	681.0	1497	5354	9785	432.1	25.83	7.537	5.951	4.433	4.108	3.484	2.815	2.770	2.147	2.132	1.938	1.861	2.162	1.881	1.799	1.802	1.893	1.849	1.997	1.940	2.320	2.326	2.619	2.670	2.091	1.871	1.791	1.867	1.756	1.647	1.475	1.519	1.661	1.810	1.769	1.905	2.074	2.233	2.357	2.389	2.475	2.508	2.779	2.551	2.714	2.812	2.561	2.483	2.509	2.401	2.717	3.042
340.0	549.8	658.1	685.3	477.4	311.0	258.3	242.9	258.9	286.8	342.5	416.2	464.6	471.4	422.8	351.3	285.3	386.5	373.7	120.3	89.00	191.9	366.1	1436	7484	9343	379.2	13.79	7.291	5.663	4.397	4.032	3.305	2.755	2.445	2.263	2.084	2.089	2.108	2.129	1.965	1.777	1.834	1.819	1.991	2.063	2.238	2.252	2.779	2.682	2.232	1.972	1.994	1.872	1.761	1.630	1.453	1.629	1.689	1.741	1.777	1.940	1.800	2.060	2.238	2.536	2.259	2.462	2.593	2.451	2.501	2.590	2.605	2.442	2.237	2.165	2.050	2.241
345.0	540.7	663.9	655.5	477.7	328.7	270.5	246.1	255.2	287.9	331.3	396.6	443.0	451.5	407.9	342.9	257.9	250.9	393.5	246.1	83.07	89.72	118.2	351.3	2206	9744	7652	53.51	10.09	6.618	5.355	4.470	3.645	2.953	2.473	2.336	2.144	2.065	1.998	1.957	1.840	1.824	1.845	1.865	1.894	1.986	2.179	2.270	2.624	2.579	2.128	1.868	1.941	1.869	1.731	1.678	1.564	1.711	1.640	1.789	1.799	1.983	2.063	1.999	2.071	2.282	2.347	2.216	2.330	2.515	2.421	2.546	2.482	2.359	2.282	2.226	1.957	1.910
350.0	492.3	603.4	600.8	465.3	342.5	288.6	263.6	262.7	284.0	320.6	373.8	412.3	423.7	385.6	328.4	248.2	201.4	245.2	321.6	206.1	89.63	72.65	116.2	524.3	2830	7023	5788	1261	21.44	7.110	5.271	4.104	3.362	2.730	2.501	2.363	2.068	2.027	1.956	1.864	1.782	1.753	1.741	1.905	2.039	2.124	2.166	2.478	2.430	2.120	1.767	1.946	1.809	1.662	1.704	1.690	1.679	1.727	1.790	1.830	1.800	2.049	1.972	2.126	2.184	2.246	2.208	2.207	2.368	2.466	2.386	2.340	2.302	2.143	1.994	1.940	1.879
355.0	486.2	549.4	554.9	456.1	355.4	318.3	280.9	286.8	297.8	316.5	354.8	392.9	401.6	365.3	324.9	251.5	197.4	183.1	209.6	303.4	189.3	76.81	73.35	154.9	658.6	1650	4449	8612	405.3	24.99	6.844	5.234	4.319	2.994	2.595	2.327	2.201	2.203	2.057	1.934	1.898	1.709	1.710	1.922	1.867	1.954	2.077	2.303	2.234	2.009	1.735	1.898	1.802	1.824	1.923	1.769	1.748	1.857	1.882	2.174	1.857	1.853	1.881	2.100	2.117	2.300	2.182	2.128	2.193	2.541	2.192	2.416	2.193	2.101	2.021	1.756	1.824
360.0	434.7	504.4	526.9	441.8	372.4	322.2	297.5	294.5	307.8	319.6	350.9	376.8	382.1	353.3	311.7	253.0	203.6	174.6	165.5	234.7	292.3	130.0	71.49	78.34	179.9	394.1	1175	6337	8094	374.9	16.07	6.487	5.042	3.644	3.152	2.496	2.351	2.322	2.085	1.845	1.948	1.781	1.944	1.868	1.752	2.099	1.910	2.201	2.080	1.817	1.792	2.010	1.916	1.812	1.896	1.733	1.919	1.928	1.813	1.890	1.931	1.920	1.939	2.134	2.267	2.074	2.156	2.070	2.040	2.335	2.257	2.206	2.248	2.120	1.920	1.831	1.848
365.0	418.9	494.1	493.4	427.9	371.9	342.7	314.0	311.3	305.5	319.0	345.2	364.1	362.3	339.1	308.7	254.3	208.8	182.0	159.6	171.0	273.7	233.0	93.49	67.78	77.75	118.4	287.0	1821	7878	7176	298.2	9.881	6.050	4.316	3.504	2.551	2.505	2.207	2.110	1.858	1.798	1.765	1.957	1.792	1.703	2.012	1.857	2.079	2.104	1.860	1.830	1.929	1.967	1.764	1.862	1.810	1.940	1.912	1.651	1.982	1.881	1.948	2.014	1.999	2.101	2.123	2.077	2.178	1.964	2.178	2.271	2.176	2.114	2.098	1.900	1.851	1.925
370.0	392.1	470.1	476.1	427.2	373.8	360.8	330.2	312.2	312.7	318.5	338.8	350.9	345.5	327.3	296.0	253.7	217.1	191.6	170.0	159.4	185.0	244.8	197.7	89.63	64.55	62.06	92.15	429.7	2226	6135	5599	1272	21.34	6.050	4.542	3.449	2.931	2.568	2.289	2.087	1.937	1.860	1.832	1.756	1.710	1.961	1.822	1.956	1.992	1.779	1.715	1.957	1.937	1.875	1.913	1.842	2.033	1.954	1.767	1.962	1.945	1.980	1.958	2.005	2.145	1.957	2.013	2.050	1.992	2.082	2.219	2.009	2.018	1.973	1.821	1.833	2.040
375.0	372.0	440.5	443.1	413.2	380.4	359.0	341.5	319.7	310.3	318.8	321.3	338.1	327.9	312.6	288.0	249.1	220.5	198.2	181.9	164.4	155.2	169.6	231.4	183.4	79.24	57.23	54.72	122.5	517.0	1431	3886	8176	1950	25.06	6.065	4.515	3.408	2.889	2.455	2.228	1.990	2.025	1.999	1.924	1.750	1.804	1.897	1.845	1.944	1.742	1.752	1.857	2.059	1.936	1.922	1.842	2.006	1.865	1.876	1.890	1.894	1.968	1.976	1.993	1.998	1.853	1.910	1.981	2.029	2.027	1.955	1.938	1.979	2.028	1.930	1.766	1.914
380.0	351.3	420.8	422.1	407.0	390.1	363.3	348.1	315.4	316.5	317.1	318.2	322.2	320.6	299.0	279.2	246.1	221.2	201.4	185.0	166.7	155.3	144.3	177.0	232.2	128.3	62.73	50.48	56.96	139.5	339.1	1004	5533	8107	329.8	15.80	5.314	4.293	3.278	2.696	2.297	2.179	2.148	2.039	1.923	1.822	1.825	1.816	1.999	1.901	1.756	1.727	1.831	1.971	1.980	1.912	1.943	1.986	1.886	1.869	1.931	1.874	1.872	1.859	2.031	1.893	1.773	1.808	1.914	2.043	1.905	1.930	1.929	1.923	1.954	2.011	1.729	1.903
385.0	349.5	398.3	403.9	387.4	385.4	363.5	344.5	319.2	309.3	309.1	311.7	315.5	309.6	292.5	266.8	240.1	222.0	202.4	186.4	170.6	155.7	138.7	139.3	197.6	195.6	88.14	53.85	46.60	58.54	96.84	243.0	1514	6815	6431	271.5	9.274	5.103	4.033	3.047	2.535	2.289	2.244	1.971	1.849	1.867	1.792	1.834	2.034	1.795	1.762	1.627	1.855	1.977	1.976	1.899	1.957	1.903	1.931	1.845	1.880	2.039	1.969	1.897	1.978	1.946	1.878	1.781	1.909	1.865	1.875	1.937	1.914	1.833	1.991	1.958	1.953	1.925
390.0	341.2	381.6	375.3	384.3	379.2	361.1	338.8	318.0	305.9	304.3	299.6	301.5	289.3	276.2	253.8	232.1	217.3	201.7	186.3	172.3	157.0	141.9	130.0	140.0	180.8	161.1	80.02	50.96	45.81	48.13	74.60	354.2	1829	4761	4375	1127	19.55	5.144	3.910	3.128	2.654	2.461	2.158	1.986	1.985	1.888	1.744	1.960	1.822	1.707	1.567	2.000	1.894	2.006	2.003	1.933	1.993	1.997	2.022	1.786	1.980	1.865	1.900	1.863	1.810	1.778	1.799	1.768	1.760	1.735	1.981	1.805	1.863	1.900	1.869	1.793	1.799
395.0	312.0	372.9	380.1	369.3	362.0	354.2	336.2	311.6	297.9	290.2	289.5	284.3	275.4	261.4	244.3	225.9	211.0	197.6	181.9	170.8	158.4	143.6	129.8	122.4	126.1	162.8	150.2	72.15	48.02	40.85	40.38	96.61	422.1	1091	2565	6804	1922	26.22	5.328	3.515	3.082	2.670	2.397	2.156	2.125	1.886	1.960	1.966	1.957	1.742	1.519	1.816	1.945	2.002	1.994	1.942	2.086	1.891	1.897	1.865	1.712	1.827	1.692	1.737	1.734	1.743	1.683	1.750	1.772	1.769	1.868	1.771	1.835	1.779	1.682	1.846	1.779
400.0	323.3	359.3	359.6	360.3	347.0	344.1	326.4	307.8	292.3	284.3	277.8	278.4	258.4	248.8	240.4	215.8	205.0	190.7	179.7	168.3	156.9	144.5	130.9	118.2	110.8	123.3	168.9	115.7	56.49	43.10	35.36	41.94	109.7	256.8	634.6	3843	6620	1501	19.17	4.226	3.612	2.803	2.488	2.390	2.078	1.922	2.014	1.902	1.782	1.817	1.581	1.831	1.880	1.933	1.886	1.824	2.013	1.935	1.892	2.030	1.752	1.987	1.853	1.693	1.890	1.728	1.721	1.750	1.744	1.650	1.783	1.737	1.810	1.658	1.650	1.705	1.859
405.0	302.8	350.3	351.2	349.2	342.4	335.4	325.1	306.7	294.8	275.9	272.5	264.9	254.1	239.6	229.2	205.7	196.8	184.0	176.6	164.9	154.5	144.8	130.7	119.5	108.1	101.5	135.3	155.2	79.33	46.49	36.41	31.12	41.79	70.92	152.9	977.9	4493	5923	274.1	11.30	4.051	3.156	2.821	2.511	2.229	2.194	1.975	1.877	1.830	1.733	1.678	1.671	1.902	1.873	1.875	1.758	1.919	1.931	2.035	1.998	1.790	1.875	1.864	1.730	1.744	1.619	1.735	1.640	1.603	1.617	1.666	1.698	1.576	1.569	1.668	1.605	1.780
