Sample:	'1
File name:	章丘二厂6.23 10.00 鲁洪对面西 100倍.FD3
Run date:	'09:42:59, 06/24/2025
Operator:	Administrator
Comment:	'

Instrument
Model:	F-2700 FL Spectrophotometer
Serial number:	23B8-004
ROM Version:	4J14000 07

Instrument parameters
Measurement type:	3-D scan
Data mode:	Fluorescence
EX  Start WL:	220.0 nm
EX  End WL:	600.0 nm
EX Sampling interval:	5.0 nm
EM  Start WL:	230.0 nm
EM  End WL:	650.0 nm
EM Sampling interval:	5.0 nm
Scan speed:	12000 nm/min
EX Slit:	5.0 nm
EM Slit:	5.0 nm
PMT Voltage:	700 V
Response:	Auto 
Corrected spectra:	Off
Contour interval:	50.000

Peak integration
Integration method:	Rectangular
Sensitivity:	1
Threshold:	1.000

Peaks
No.	ApexEX/EM(nm)	Height(Data)
1	225.0/305.0	2807
2	225.0/600.0	219.6
3	230.0/505.0	180.3
4	235.0/515.0	164.9
5	240.0/525.0	141.8
6	245.0/535.0	146.7
7	250.0/550.0	127.1
8	255.0/280.0	734.5
9	255.0/565.0	113.4
10	260.0/575.0	116.5
11	265.0/590.0	123.0
12	270.0/300.0	1566
13	270.0/600.0	127.3
14	275.0/305.0	1464
15	275.0/610.0	97.65
16	280.0/625.0	67.42
17	285.0/635.0	38.86
18	290.0/325.0	501.6
19	295.0/330.0	365.9
20	300.0/335.0	338.2
21	305.0/340.0	284.1
22	310.0/350.0	222.3
23	315.0/355.0	204.7
24	320.0/360.0	204.8
25	325.0/370.0	155.6
26	330.0/375.0	147.3
27	335.0/380.0	155.0
28	340.0/385.0	124.5
29	345.0/395.0	108.7
30	350.0/400.0	116.4
31	355.0/405.0	98.34
32	365.0/420.0	88.11
33	370.0/425.0	77.36
34	380.0/440.0	62.44
35	385.0/445.0	52.91
36	390.0/300.0	6.714
37	395.0/460.0	38.55
38	400.0/465.0	31.85
39	410.0/480.0	22.34
40	415.0/485.0	19.73
41	425.0/500.0	14.97
42	430.0/505.0	13.45
43	440.0/520.0	9.735
44	445.0/525.0	9.114
45	455.0/305.0	6.992
46	455.0/540.0	6.381
47	460.0/545.0	5.295
48	470.0/560.0	3.108
49	485.0/580.0	1.767
50	505.0/275.0	4.123
51	510.0/280.0	4.427
52	520.0/285.0	4.394
53	530.0/290.0	5.001
54	540.0/295.0	7.523
55	545.0/300.0	8.524
56	550.0/305.0	8.196
57	560.0/310.0	6.367
58	570.0/315.0	4.599
59	580.0/320.0	3.788
60	585.0/325.0	3.457

Data points
	220.0	225.0	230.0	235.0	240.0	245.0	250.0	255.0	260.0	265.0	270.0	275.0	280.0	285.0	290.0	295.0	300.0	305.0	310.0	315.0	320.0	325.0	330.0	335.0	340.0	345.0	350.0	355.0	360.0	365.0	370.0	375.0	380.0	385.0	390.0	395.0	400.0	405.0	410.0	415.0	420.0	425.0	430.0	435.0	440.0	445.0	450.0	455.0	460.0	465.0	470.0	475.0	480.0	485.0	490.0	495.0	500.0	505.0	510.0	515.0	520.0	525.0	530.0	535.0	540.0	545.0	550.0	555.0	560.0	565.0	570.0	575.0	580.0	585.0	590.0	595.0	600.0
230.0	800.1	9999.9	9999.9	1843	43.84	16.94	12.90	9.612	8.063	6.737	5.800	4.810	4.009	3.122	2.998	2.214	2.047	1.640	1.322	1.324	1.172	1.051	0.950	0.839	0.932	0.832	0.744	0.685	0.742	0.743	0.636	0.547	0.587	0.503	0.450	0.444	0.428	0.406	0.410	0.444	0.786	1.023	0.902	0.552	0.502	1.103	19.64	59.03	55.69	19.39	3.604	0.675	0.285	0.332	0.269	0.313	0.343	0.297	0.232	0.272	0.254	0.282	0.223	0.248	0.290	0.245	0.250	0.334	0.292	0.248	0.284	0.244	0.278	0.279	0.262	0.266	0.201
235.0	389.1	3187	9999.9	9999.9	606.8	57.00	15.36	11.64	9.435	7.669	6.560	5.791	4.013	3.169	2.998	2.382	2.152	1.502	1.416	1.507	1.214	0.978	1.030	0.901	0.815	0.946	0.812	0.636	0.795	0.761	0.629	0.690	0.540	0.548	0.471	0.498	0.410	0.506	0.508	0.425	0.536	0.707	1.010	0.999	0.828	0.711	4.720	15.53	31.94	50.27	52.80	21.87	8.714	1.143	0.339	0.343	0.326	0.290	0.341	0.266	0.269	0.351	0.238	0.271	0.265	0.207	0.377	0.244	0.319	0.236	0.224	0.329	0.222	0.233	0.301	0.269	0.246
240.0	421.3	865.2	4381	9999.9	9999.9	461.3	30.43	14.76	11.50	9.134	7.693	5.670	4.680	3.169	3.494	2.738	1.998	1.634	1.668	1.484	1.452	1.166	1.023	1.029	0.900	0.950	0.969	0.523	0.651	0.715	0.596	0.616	0.574	0.498	0.433	0.472	0.444	0.473	0.488	0.444	0.385	0.476	0.712	0.865	1.160	1.117	1.742	3.834	7.880	17.65	43.19	74.16	65.32	19.71	5.100	0.660	0.353	0.291	0.324	0.252	0.287	0.370	0.312	0.228	0.276	0.265	0.309	0.183	0.308	0.224	0.228	0.266	0.239	0.288	0.235	0.241	0.258
245.0	311.6	494.8	1104	6503	9999.9	9999.9	310.8	21.03	14.52	11.42	7.810	6.638	5.422	4.457	3.438	2.678	2.248	1.795	1.510	1.438	1.442	1.219	1.176	1.104	1.068	0.919	0.898	0.861	0.683	0.633	0.582	0.632	0.602	0.461	0.556	0.499	0.415	0.471	0.542	0.609	0.443	0.440	0.601	0.612	0.858	1.122	1.722	1.669	2.168	4.254	10.94	33.28	70.83	88.58	28.01	15.98	3.215	0.452	0.384	0.304	0.292	0.375	0.263	0.314	0.213	0.299	0.342	0.206	0.257	0.247	0.267	0.234	0.277	0.263	0.243	0.342	0.268
250.0	129.1	326.8	536.6	1625	5973	9999.9	9999.9	1315	75.77	16.57	11.39	8.826	6.831	5.001	3.847	3.438	2.532	1.910	1.802	1.607	1.672	1.255	1.179	1.156	1.103	0.903	0.860	0.910	0.771	0.681	0.710	0.571	0.637	0.496	0.501	0.481	0.405	0.443	0.471	0.477	0.452	0.410	0.456	0.440	0.597	0.577	0.891	1.484	1.615	1.808	2.901	7.862	18.21	35.62	50.79	74.68	68.44	55.64	12.73	3.434	0.469	0.368	0.288	0.301	0.302	0.318	0.293	0.243	0.296	0.252	0.344	0.253	0.245	0.246	0.234	0.277	0.304
255.0	70.69	116.7	354.8	707.5	1445	3319	9999.9	9999.9	1883	58.39	16.16	11.66	8.892	6.723	4.467	3.953	3.048	2.024	1.795	1.801	1.600	1.301	1.104	1.133	1.131	1.063	0.808	1.015	1.062	0.775	0.753	0.611	0.711	0.559	0.454	0.533	0.460	0.549	0.404	0.564	0.481	0.499	0.475	0.567	0.505	0.454	0.506	0.678	0.928	1.455	2.030	3.036	4.583	8.281	11.77	19.35	39.21	90.53	115.3	30.93	17.82	2.692	0.428	0.444	0.392	0.365	0.299	0.344	0.305	0.276	0.360	0.214	0.363	0.285	0.204	0.301	0.264
260.0	54.39	61.87	147.5	482.7	623.4	842.8	4481	9999.9	9999.9	266.5	31.08	14.69	11.63	7.387	5.293	4.355	3.302	2.269	2.067	1.953	1.645	1.464	1.210	1.453	1.022	1.249	0.812	1.114	0.963	0.861	0.851	0.663	0.681	0.623	0.445	0.482	0.468	0.503	0.549	0.447	0.509	0.544	0.445	0.591	0.585	0.419	0.531	0.504	0.591	0.714	1.257	2.386	2.598	2.684	3.134	4.858	9.487	26.28	64.78	104.2	105.2	28.16	12.71	1.231	0.429	0.322	0.285	0.395	0.306	0.317	0.355	0.276	0.334	0.284	0.239	0.252	0.303
265.0	57.19	53.40	63.10	251.8	557.1	438.2	1127	6177	9999.9	9999.9	205.6	23.19	16.16	9.794	6.494	5.509	3.902	2.782	2.661	2.215	1.955	1.465	1.437	1.607	1.290	1.280	1.032	1.254	1.036	0.940	0.978	0.799	0.926	0.630	0.553	0.537	0.551	0.460	0.488	0.440	0.481	0.458	0.562	0.492	0.540	0.477	0.485	0.446	0.484	0.429	0.652	1.342	2.514	2.896	2.010	1.742	2.717	6.492	15.66	36.42	77.38	111.1	101.3	23.77	5.745	0.566	0.369	0.389	0.420	0.406	0.322	0.255	0.294	0.337	0.243	0.251	0.313
270.0	74.50	54.10	51.69	111.2	339.1	573.2	537.3	1526	5888	9999.9	9999.9	832.2	56.53	14.54	9.587	7.432	4.786	3.512	2.943	2.455	2.345	1.819	1.687	1.630	1.312	1.491	1.229	1.101	0.986	0.862	0.961	0.843	0.754	0.800	0.690	0.700	0.563	0.587	0.592	0.488	0.503	0.498	0.576	0.632	0.545	0.504	0.555	0.439	0.508	0.392	0.463	0.685	1.161	1.908	2.548	2.815	2.718	2.604	4.265	8.817	18.76	36.65	64.55	83.23	63.75	62.27	15.63	6.089	0.743	0.507	0.389	0.333	0.353	0.369	0.304	0.303	0.304
275.0	129.1	106.4	84.33	89.11	177.9	375.1	726.9	622.6	1401	3035	9999.9	9999.9	1207	55.21	15.84	10.31	6.160	4.592	3.472	3.121	2.981	1.902	1.921	1.679	1.452	1.677	1.452	1.377	1.403	1.178	1.218	0.892	0.872	0.983	0.979	0.765	0.669	0.723	0.656	0.600	0.723	0.449	0.559	0.715	0.666	0.564	0.611	0.530	0.595	0.524	0.478	0.581	0.765	1.079	1.461	1.926	3.125	4.123	3.315	2.966	4.590	8.733	15.02	19.88	26.38	68.43	109.3	105.1	24.20	5.567	0.641	0.494	0.597	0.399	0.323	0.406	0.317
280.0	278.5	267.0	205.8	120.8	142.2	235.5	544.8	734.5	498.8	791.6	3719	9999.9	9999.9	853.0	31.97	16.33	8.163	5.074	4.075	3.538	3.576	2.440	2.089	2.004	1.598	1.733	1.327	1.237	1.443	1.418	1.107	0.976	1.261	1.386	1.369	1.207	0.845	0.806	0.805	0.734	0.759	0.662	0.945	0.903	0.944	0.864	0.965	0.975	0.928	0.698	0.593	0.575	0.664	0.887	0.970	1.219	1.907	3.084	4.427	3.644	2.352	2.691	3.904	5.155	6.709	18.11	45.83	101.5	113.8	33.80	18.80	2.124	0.619	0.416	0.365	0.464	0.499
285.0	710.7	718.0	541.4	257.7	154.7	189.9	313.1	722.5	659.3	387.3	1087	5035	9999.9	8797	122.1	24.45	11.74	6.717	5.256	4.235	3.672	2.795	2.164	2.330	1.876	1.791	1.608	1.370	1.549	1.270	1.032	1.224	1.663	1.839	2.308	2.146	1.385	1.200	1.093	0.881	1.100	1.300	1.365	1.485	1.567	1.953	1.853	1.872	1.951	1.293	1.089	0.810	0.852	0.900	0.879	1.167	1.280	1.586	2.543	4.249	4.394	2.957	2.011	2.251	2.626	5.409	11.85	29.44	58.83	89.44	102.3	28.77	10.73	1.194	0.506	0.474	0.534
290.0	1470	1557	1188	521.1	209.9	185.2	240.9	433.9	844.7	871.5	766.0	1599	5075	9999.9	9999.9	2488	35.98	9.948	6.964	5.639	4.599	3.344	3.213	2.544	2.052	2.127	1.631	1.669	1.700	1.285	1.239	1.425	2.454	3.391	4.199	3.781	2.578	1.910	1.641	1.380	1.795	1.994	2.288	2.559	3.173	3.856	3.848	4.256	3.669	2.651	1.892	1.360	1.128	0.904	0.898	1.071	1.118	1.260	1.598	2.340	3.441	4.614	5.001	4.124	3.457	3.718	5.261	9.076	15.55	26.40	46.54	55.80	66.74	62.96	18.86	8.786	1.532
295.0	2174	2412	1760	763.6	264.3	183.6	237.5	346.2	607.8	1181	1261	1003	1590	2743	9999.9	9999.9	698.2	30.80	10.35	7.886	6.078	4.126	3.693	3.054	2.565	2.245	2.027	1.802	1.586	1.479	1.445	1.838	2.959	4.956	6.022	5.057	3.595	2.470	2.167	2.004	2.033	2.615	3.112	3.627	4.524	5.600	5.519	6.106	5.276	3.861	2.683	1.970	1.303	1.005	0.861	1.162	1.307	1.237	1.549	1.866	2.431	3.279	4.257	6.140	7.523	5.606	5.016	5.317	6.395	8.433	12.12	13.59	19.45	42.52	69.68	84.80	32.04
300.0	2423	2777	2004	879.3	284.4	186.3	231.4	346.7	547.9	950.3	1566	1137	854.9	807.4	3045	9999.9	9999.9	516.8	17.34	9.691	7.059	4.931	4.104	3.568	2.830	2.412	2.188	2.156	1.836	1.647	1.646	2.034	3.480	5.302	6.714	5.718	4.274	2.663	2.283	2.136	2.336	2.771	3.428	4.154	5.182	6.005	6.167	6.853	6.129	4.324	3.009	2.384	1.402	1.077	0.948	1.117	1.384	1.353	1.539	1.945	2.292	2.724	3.413	4.776	6.876	8.524	7.084	5.492	4.792	4.596	4.572	4.317	5.232	10.82	23.85	55.83	94.89
305.0	2424	2807	1999	882.3	287.1	181.0	225.4	343.0	523.7	788.7	1294	1464	766.4	380.0	757.1	3987	9999.9	5270	75.54	14.06	8.953	5.408	4.548	3.893	3.062	2.871	2.503	2.086	1.953	1.806	1.593	2.089	3.608	5.543	6.598	5.549	3.993	2.742	2.475	2.083	2.469	3.083	3.071	4.231	5.145	5.887	6.394	6.992	5.963	4.231	2.939	2.137	1.443	1.050	0.860	1.012	1.295	1.245	1.562	2.039	2.442	2.658	3.303	4.071	5.103	6.805	8.196	7.592	5.171	3.869	3.000	2.245	2.044	3.048	6.091	14.63	36.04
310.0	2182	2452	1767	777.6	260.1	169.2	210.4	314.3	474.6	662.1	913.5	1165	1025	368.3	240.9	951.3	3505	9326	8754	1738	28.18	9.219	6.469	5.394	3.744	3.555	2.806	2.344	2.027	1.853	1.633	2.119	3.368	4.999	6.031	5.360	3.717	2.642	2.326	2.145	2.339	2.660	3.060	3.705	4.376	5.475	5.556	6.222	5.394	3.860	2.638	1.927	1.310	1.085	0.957	1.048	1.135	1.241	1.556	1.858	2.206	2.583	3.001	3.651	4.084	4.729	5.486	5.892	6.367	5.673	3.712	2.075	1.343	1.313	2.042	3.923	8.856
315.0	1743	1909	1389	638.5	230.9	153.6	194.7	273.1	405.3	549.3	685.6	732.7	787.9	661.9	166.1	260.6	819.9	2241	7104	9999.9	530.9	28.49	10.02	7.085	4.480	4.256	3.115	2.814	2.564	1.930	1.794	2.002	3.003	4.224	4.992	4.826	3.234	2.441	1.940	1.929	2.041	2.471	2.466	3.029	3.520	4.211	4.496	4.810	4.151	3.225	2.344	1.840	1.226	0.919	0.985	1.030	1.102	1.352	1.440	1.576	1.811	2.187	2.759	2.934	3.307	3.704	3.602	3.856	3.984	3.862	4.599	4.208	2.167	1.073	1.141	1.498	2.643
320.0	1441	1573	1155	527.2	213.0	150.8	184.1	250.3	348.9	474.5	559.1	555.1	517.8	602.5	383.5	128.0	223.2	534.0	1920	9691	9999.9	437.2	18.64	10.13	6.152	5.024	3.412	2.991	2.960	2.276	1.993	2.058	2.625	3.952	4.508	4.034	2.631	2.163	1.764	1.923	1.709	2.079	2.340	2.695	3.403	3.454	3.861	4.333	3.603	2.779	2.094	1.508	1.021	0.975	1.018	0.994	1.227	1.139	1.342	1.601	1.689	1.971	2.268	2.654	2.942	3.243	2.921	2.967	2.890	2.755	2.928	3.708	3.788	2.415	1.434	1.037	1.200
325.0	1187	1283	942.6	441.4	190.8	144.3	175.7	229.1	318.9	407.1	475.9	466.3	385.7	355.5	501.6	218.0	95.22	152.3	458.7	2865	9999.9	8904	62.49	14.90	7.778	6.459	3.812	3.571	2.903	2.258	1.956	1.893	2.628	3.463	3.833	3.478	2.456	1.930	1.774	1.656	1.474	1.814	2.102	2.202	2.668	3.115	3.079	3.486	2.996	2.402	1.661	1.331	1.023	0.847	0.981	0.912	1.112	1.061	1.165	1.433	1.481	1.804	1.954	2.291	2.483	2.498	2.621	2.426	2.440	2.297	1.946	1.996	2.965	3.457	2.894	1.655	1.026
330.0	951.8	986.9	737.7	356.9	170.5	135.0	166.0	208.1	272.7	338.0	391.2	386.9	310.6	221.6	286.4	365.9	180.1	76.71	130.4	666.5	3040	8272	8150	1577	24.43	8.817	5.449	4.656	3.484	2.653	2.143	2.022	2.426	2.920	3.196	2.789	2.087	1.853	1.629	1.568	1.422	1.663	1.766	1.815	2.273	2.580	2.532	2.903	2.334	1.923	1.435	1.187	0.946	0.831	0.838	1.013	1.035	1.127	1.160	1.218	1.399	1.625	1.763	2.020	2.185	2.181	2.245	2.228	2.049	1.879	1.663	1.474	1.608	1.897	2.387	2.514	2.453
335.0	790.7	801.6	594.8	300.3	165.1	139.7	160.8	194.4	240.8	285.7	330.2	321.8	263.5	185.0	159.0	211.7	338.2	152.1	60.80	173.7	698.8	1929	6310	9999.9	2261	29.03	7.603	6.102	4.430	3.259	2.582	2.367	2.573	2.576	2.955	2.319	1.981	1.741	1.455	1.381	1.465	1.575	1.523	1.699	1.819	2.139	2.062	2.260	2.102	1.657	1.227	1.110	0.912	0.862	0.935	0.937	0.970	1.030	1.162	1.251	1.427	1.391	1.558	1.738	1.776	1.799	1.946	1.827	1.622	1.520	1.493	1.253	1.377	1.246	1.315	1.398	1.900
340.0	648.4	660.6	494.1	268.2	155.8	136.5	150.4	179.5	219.0	258.1	292.3	283.5	240.0	172.6	126.5	123.8	249.2	284.1	74.96	64.03	177.8	449.0	1645	8638	9999.9	399.3	15.01	7.048	5.573	3.994	2.856	2.348	2.472	2.518	2.442	2.244	1.901	1.613	1.260	1.300	1.391	1.467	1.580	1.545	1.735	1.851	1.754	1.933	1.861	1.374	1.139	0.974	0.915	0.856	0.847	0.897	1.075	0.945	1.276	1.315	1.345	1.435	1.369	1.701	1.482	1.879	1.863	1.676	1.487	1.555	1.476	1.119	1.128	1.047	1.036	1.008	1.154
345.0	589.1	546.5	421.8	246.8	150.3	133.7	148.5	166.7	203.9	231.3	259.1	252.8	217.2	161.5	119.5	96.53	130.3	278.3	185.9	49.92	60.64	118.6	386.6	2465	9286	9159	55.02	9.134	6.826	4.712	2.834	2.629	2.630	2.466	2.254	2.072	1.677	1.503	1.158	1.122	1.329	1.410	1.471	1.468	1.471	1.458	1.634	1.748	1.571	1.218	1.101	0.938	1.010	0.850	0.924	0.877	0.835	0.991	1.202	1.253	1.252	1.402	1.372	1.535	1.442	1.604	1.435	1.582	1.463	1.465	1.370	1.117	1.115	0.960	0.953	0.933	0.936
350.0	501.7	454.3	339.2	211.4	140.2	134.1	140.6	155.1	188.8	211.0	225.4	222.3	196.1	153.0	117.2	90.56	85.28	138.4	222.3	134.9	49.39	46.00	104.1	568.3	2603	8231	6079	1326	21.64	5.963	3.970	3.201	2.628	2.359	2.154	2.021	1.553	1.495	1.232	1.239	1.106	1.271	1.274	1.375	1.295	1.500	1.447	1.415	1.221	1.176	0.936	0.914	0.938	0.781	0.821	0.835	0.988	0.915	1.128	1.031	1.230	1.323	1.274	1.402	1.314	1.389	1.390	1.332	1.355	1.315	1.315	1.053	1.000	0.881	0.971	0.853	0.812
355.0	423.3	390.4	288.7	199.4	134.1	128.3	132.5	150.2	172.2	187.7	201.6	192.7	178.7	143.6	112.1	86.82	73.78	79.20	114.0	204.7	128.7	37.89	42.28	143.5	593.8	1914	4535	9883	2027	22.33	5.282	3.897	3.014	2.418	2.203	2.108	1.444	1.610	1.400	1.173	1.163	1.037	1.143	1.120	1.400	1.328	1.239	1.308	1.214	0.927	0.911	0.804	0.816	0.825	0.791	0.881	0.969	0.897	1.000	0.976	1.081	1.157	1.134	1.244	1.330	1.193	1.288	1.375	1.281	1.132	1.027	1.070	1.058	0.917	0.870	0.811	0.759
360.0	371.0	337.6	262.6	177.7	130.9	125.9	127.8	146.4	157.8	175.2	187.3	181.2	165.8	135.6	108.8	88.60	73.26	68.55	71.60	136.6	204.8	65.44	32.04	50.50	147.2	441.5	1179	7281	9402	363.2	11.52	4.786	3.898	2.633	2.591	1.977	1.661	1.462	1.313	1.220	1.101	1.078	1.179	1.063	1.235	1.150	1.179	1.119	1.128	0.949	0.695	0.797	0.806	0.704	0.721	0.892	0.852	0.990	1.229	1.022	1.000	1.039	1.095	1.232	1.227	1.172	1.211	1.240	1.192	1.047	0.996	1.038	1.151	0.906	0.857	0.857	0.707
365.0	330.3	314.0	234.1	165.3	125.2	120.5	126.9	138.7	156.2	165.2	174.6	172.4	155.6	132.4	109.0	87.70	74.95	66.18	61.15	79.41	173.8	153.1	44.46	30.75	48.83	112.8	277.6	2090	9037	6739	50.42	7.593	4.566	3.188	2.792	2.129	1.520	1.532	1.288	1.249	1.063	0.938	1.132	1.135	1.108	1.133	1.140	1.139	1.008	0.872	0.730	0.871	0.761	0.745	0.769	0.888	0.869	0.885	1.020	1.019	1.067	1.044	1.123	1.270	1.116	1.132	1.256	1.203	1.152	1.097	1.023	0.949	1.025	0.983	0.923	1.034	0.714
370.0	312.6	277.9	216.6	152.8	123.3	117.1	118.2	132.6	149.3	158.6	163.2	162.7	144.2	124.0	107.6	89.72	77.27	68.65	62.86	62.27	91.94	155.6	127.6	42.72	29.68	40.38	74.87	480.1	2575	6154	5070	1166	17.19	4.386	3.359	2.366	1.703	1.612	1.396	1.337	1.169	1.039	1.071	1.083	1.000	1.118	1.067	1.025	0.941	0.834	0.676	0.829	0.745	0.689	0.664	0.717	0.852	0.816	0.887	0.991	1.034	1.069	1.064	1.103	1.219	1.150	1.068	1.106	1.066	1.032	1.053	1.027	0.976	0.884	0.835	0.949	0.816
375.0	288.8	261.6	191.9	134.2	120.6	114.3	116.1	128.3	140.4	146.8	154.3	147.0	136.4	120.5	103.2	89.66	79.28	72.59	65.92	61.31	63.00	82.47	147.3	114.7	35.04	25.90	29.90	118.5	584.2	1440	3748	7427	1596	18.04	4.440	2.908	2.182	1.880	1.484	1.160	1.198	1.207	1.040	1.059	1.005	1.124	1.001	0.989	0.920	0.809	0.545	0.792	0.742	0.673	0.729	0.731	0.801	0.879	0.893	0.971	0.993	1.032	1.038	0.989	1.052	1.028	1.108	0.945	1.020	0.927	1.020	1.016	1.013	0.898	0.816	0.915	0.816
380.0	248.5	232.3	180.0	138.1	112.6	107.3	117.0	122.8	129.6	138.9	142.5	138.6	132.5	117.9	99.26	86.66	79.93	75.10	68.73	62.41	57.99	58.94	97.23	155.0	60.40	26.77	20.27	38.53	141.2	331.6	983.8	5466	6367	297.5	9.189	3.522	2.382	2.353	1.628	1.215	1.314	1.381	1.078	1.149	1.040	1.037	0.989	0.891	0.857	0.716	0.596	0.746	0.770	0.737	0.836	0.718	0.856	0.843	0.933	0.816	0.884	0.896	0.884	0.920	1.127	0.854	1.164	0.915	0.847	1.016	0.929	1.082	0.868	0.910	0.785	0.817	0.832
385.0	232.5	212.2	163.1	137.5	109.9	100.0	108.6	119.1	128.9	127.0	138.8	136.8	126.6	112.4	98.94	85.84	81.80	76.39	68.91	64.68	58.63	54.13	63.61	123.1	124.5	42.27	20.70	22.05	43.55	84.11	230.0	1561	5945	2714	40.86	5.096	2.798	2.685	1.657	1.236	1.308	1.304	1.040	1.019	1.056	1.042	1.137	0.900	0.774	0.742	0.626	0.754	0.694	0.783	0.856	0.632	0.842	0.708	0.898	0.937	0.803	0.991	0.922	0.980	1.037	0.826	1.131	0.933	0.947	0.913	0.948	1.064	1.021	0.938	0.867	0.782	0.863
390.0	224.4	194.9	163.5	122.8	108.3	104.6	107.1	113.8	123.9	125.1	130.1	127.7	119.9	106.8	96.30	87.84	81.94	76.31	71.07	66.68	62.16	54.45	52.20	69.35	114.5	102.1	37.90	20.79	22.62	30.20	61.12	358.6	1687	3772	4232	870.0	13.07	3.319	2.136	1.775	1.438	1.321	1.132	1.054	1.017	1.060	1.009	0.906	0.882	0.733	0.679	0.766	0.742	0.686	0.772	0.644	0.821	0.825	0.834	0.858	0.896	0.856	0.960	1.063	0.959	0.868	0.921	0.956	0.885	0.838	0.964	0.872	0.990	0.964	1.082	0.920	0.804
395.0	234.7	183.2	152.1	125.5	104.6	103.6	101.3	103.4	114.1	122.8	125.0	123.7	113.3	102.2	93.19	85.86	80.35	75.01	71.66	68.00	61.80	56.48	50.64	50.47	63.90	108.7	93.57	31.69	20.40	20.54	25.02	89.01	383.9	888.6	3272	5112	285.0	12.92	2.518	2.149	1.779	1.300	1.206	1.118	1.165	1.102	1.094	0.942	0.851	0.714	0.611	0.753	0.695	0.648	0.781	0.767	0.730	0.741	0.938	0.810	0.907	0.843	0.911	0.891	0.799	0.907	0.890	0.818	0.953	0.803	0.823	0.775	0.934	0.944	0.886	1.048	1.135
400.0	206.9	174.3	150.1	117.9	102.8	99.71	99.25	105.6	109.1	116.3	116.8	115.4	110.1	100.3	90.09	83.69	79.11	73.47	71.90	67.76	62.44	56.54	51.52	46.38	47.58	70.30	116.4	55.05	24.41	19.17	17.58	30.38	94.35	206.0	882.9	3937	3681	238.2	5.613	2.478	1.911	1.536	1.301	1.274	1.181	1.100	0.947	0.980	0.900	0.755	0.679	0.751	0.770	0.664	0.735	0.749	0.781	0.725	0.817	0.852	0.900	0.759	0.829	0.889	0.839	0.835	0.915	0.793	0.909	0.965	0.798	0.727	0.859	0.802	0.804	0.920	1.187
405.0	202.8	170.2	144.3	116.7	97.90	97.86	100.5	100.2	107.0	110.7	112.3	114.7	104.9	97.60	85.05	80.43	77.19	73.76	70.69	66.79	62.46	57.23	53.79	47.51	43.51	47.85	88.66	98.34	40.48	20.46	17.07	18.59	29.87	53.49	205.2	1162	3739	2295	34.79	3.451	2.160	1.775	1.507	1.366	1.184	1.149	0.867	0.913	0.910	0.732	0.656	0.765	0.709	0.602	0.713	0.707	0.824	0.742	0.839	0.806	0.785	0.784	0.871	0.796	0.784	0.764	0.858	0.821	0.955	0.765	0.750	0.756	0.762	0.815	0.696	0.851	1.036
410.0	190.4	162.7	139.3	111.9	95.69	92.35	91.11	98.09	101.5	107.9	108.7	107.9	101.0	90.60	81.74	75.80	73.42	71.37	68.11	64.18	61.22	56.79	53.12	48.42	44.14	41.82	52.35	86.03	82.55	35.93	19.53	16.49	17.29	20.31	52.80	266.3	1086	3046	2680	643.0	10.72	2.134	1.677	1.504	1.203	1.142	0.975	0.922	0.876	0.720	0.687	0.718	0.699	0.659	0.719	0.615	0.802	0.800	0.772	0.773	0.720	0.681	0.792	0.804	0.714	0.814	0.742	0.763	0.883	0.741	0.811	0.756	0.733	0.809	0.737	0.834	0.804
