Sample:	'1
File name:	Default_20230506_103922.FD3
Run date:	'10:33:01, 05/06/2023
Operator:	user
Comment:	'

Instrument
Model:	F-2700 FL Spectrophotometer
Serial number:	2190-003
ROM Version:	4J14000 07

Instrument parameters
Measurement type:	3-D scan
Data mode:	Fluorescence
EX  Start WL:	220.0 nm
EX  End WL:	600.0 nm
EX Sampling interval:	5.0 nm
EM  Start WL:	230.0 nm
EM  End WL:	650.0 nm
EM Sampling interval:	5.0 nm
Scan speed:	12000 nm/min
EX Slit:	5.0 nm
EM Slit:	5.0 nm
PMT Voltage:	700 V
Response:	Auto 
Corrected spectra:	Off
Contour interval:	50.000

Peak integration
Integration method:	Rectangular
Sensitivity:	1
Threshold:	1.000

Peaks
No.	ApexEX/EM(nm)	Height(Data)
1	225.0/565.0	67.84
2	225.0/600.0	61.56
3	225.0/630.0	53.48
4	230.0/550.0	67.80
5	230.0/560.0	58.47
6	230.0/590.0	62.77
7	230.0/625.0	52.24
8	230.0/635.0	53.45
9	235.0/580.0	61.12
10	235.0/640.0	51.43
11	240.0/555.0	72.66
12	240.0/600.0	49.43
13	245.0/265.0	208.3
14	245.0/530.0	158.5
15	245.0/610.0	44.96
16	245.0/625.0	46.16
17	245.0/635.0	50.17
18	250.0/365.0	 2074
19	250.0/540.0	139.8
20	250.0/580.0	48.65
21	255.0/280.0	363.4
22	255.0/555.0	130.9
23	260.0/235.0	20.48
24	260.0/285.0	492.7
25	260.0/565.0	129.5
26	265.0/290.0	574.9
27	265.0/580.0	108.6
28	265.0/625.0	71.44
29	270.0/245.0	21.75
30	270.0/590.0	113.6
31	275.0/305.0	 1306
32	275.0/330.0	 1092
33	275.0/605.0	107.8
34	275.0/645.0	67.54
35	280.0/310.0	 1308
36	280.0/615.0	108.7
37	285.0/315.0	 1236
38	285.0/625.0	86.38
39	290.0/320.0	 1094
40	305.0/340.0	626.2
41	310.0/345.0	576.2
42	320.0/360.0	512.3
43	325.0/365.0	515.7
44	335.0/380.0	488.1
45	340.0/385.0	486.1
46	350.0/400.0	433.1
47	355.0/405.0	437.2
48	370.0/425.0	346.1
49	430.0/505.0	54.25
50	440.0/515.0	40.31
51	450.0/530.0	27.89
52	460.0/545.0	19.46
53	475.0/565.0	9.167
54	500.0/365.0	9.458
55	510.0/280.0	3.291
56	520.0/285.0	3.630
57	540.0/325.0	5.043
58	550.0/305.0	5.691
59	560.0/310.0	5.244
60	570.0/315.0	4.801
61	575.0/320.0	5.414

Data points
	220.0	225.0	230.0	235.0	240.0	245.0	250.0	255.0	260.0	265.0	270.0	275.0	280.0	285.0	290.0	295.0	300.0	305.0	310.0	315.0	320.0	325.0	330.0	335.0	340.0	345.0	350.0	355.0	360.0	365.0	370.0	375.0	380.0	385.0	390.0	395.0	400.0	405.0	410.0	415.0	420.0	425.0	430.0	435.0	440.0	445.0	450.0	455.0	460.0	465.0	470.0	475.0	480.0	485.0	490.0	495.0	500.0	505.0	510.0	515.0	520.0	525.0	530.0	535.0	540.0	545.0	550.0	555.0	560.0	565.0	570.0	575.0	580.0	585.0	590.0	595.0	600.0
230.0	47.02	97.93	868.5	928.7	112.9	28.60	25.74	20.15	18.81	17.98	14.43	14.33	13.71	10.67	9.580	8.746	6.624	6.776	5.924	5.193	4.569	4.439	3.790	3.363	3.709	2.773	3.264	3.102	3.136	2.825	2.732	2.273	2.598	2.300	2.162	1.987	1.889	1.789	1.910	1.775	1.926	1.691	1.835	1.655	1.424	1.482	1.408	2.194	3.379	3.907	2.384	1.352	1.226	1.373	1.248	1.372	1.300	1.185	1.191	1.273	1.344	1.202	1.291	1.264	1.157	1.093	1.200	1.173	1.215	1.355	1.150	1.209	1.108	0.963	1.166	1.154	1.167
235.0	55.78	68.42	356.0	 1527	 1390	152.8	26.09	17.38	20.48	14.44	15.28	15.78	14.93	12.68	8.993	7.450	5.889	6.597	5.507	4.001	4.080	4.197	4.323	2.959	3.841	3.233	2.681	3.343	3.284	2.347	2.390	2.202	2.525	2.148	1.877	2.033	2.220	1.559	1.811	1.667	1.551	1.746	1.639	1.560	1.223	1.735	1.365	1.680	1.676	3.067	5.701	6.350	4.118	1.992	1.288	1.031	1.297	1.436	1.069	1.015	1.417	1.201	1.189	1.303	1.047	1.291	1.274	1.134	1.216	1.337	1.027	0.988	1.373	1.146	1.216	1.238	1.592
240.0	56.52	65.43	117.5	760.4	 2471	 1367	102.8	22.16	17.71	16.66	14.44	16.26	13.20	10.78	8.481	8.051	6.566	6.717	5.324	4.590	4.784	3.790	4.339	3.194	3.219	3.428	3.218	2.706	2.944	2.379	2.088	2.350	2.642	2.322	2.113	2.283	1.882	2.002	1.770	2.345	1.578	1.394	1.321	1.645	1.524	1.583	1.271	1.700	1.338	1.478	3.192	7.551	10.00	8.357	3.000	1.670	1.307	1.137	1.040	1.242	1.117	1.157	1.119	1.316	1.215	1.220	1.121	1.129	1.291	1.436	0.855	1.015	1.261	1.157	1.273	1.259	1.290
245.0	49.57	61.14	73.63	225.1	 1469	 3243	 1195	55.21	16.08	16.18	21.75	15.59	11.92	11.57	10.64	8.043	6.502	7.114	4.751	4.732	5.212	4.640	3.675	4.034	3.507	2.724	3.714	3.477	3.209	2.759	2.616	2.266	2.495	2.220	1.787	2.209	1.987	2.254	1.982	2.027	1.918	1.637	1.750	1.723	1.564	1.347	1.448	1.548	1.504	1.167	1.574	3.212	6.139	11.56	12.58	6.575	2.728	1.457	1.315	1.505	1.268	1.047	1.242	1.430	0.879	1.150	1.105	0.928	1.170	1.299	1.205	1.219	1.626	1.215	1.295	1.278	1.403
250.0	53.71	57.48	77.91	111.7	395.9	 1638	 3527	 2731	409.8	20.79	18.99	16.96	12.20	12.34	11.82	8.041	7.332	6.648	4.870	6.406	4.988	4.286	4.330	3.364	3.054	2.946	3.558	3.497	3.340	2.349	2.298	2.565	2.208	2.414	1.965	2.050	1.683	1.810	1.525	2.154	1.833	1.826	2.017	1.687	1.589	1.458	1.498	1.466	1.505	1.498	1.257	1.541	2.336	4.409	7.725	11.58	14.58	13.57	7.375	2.488	1.254	1.228	1.299	1.225	1.240	0.990	1.272	1.037	1.204	1.117	1.140	1.260	1.414	1.362	1.245	1.225	1.307
255.0	67.77	57.17	54.54	109.0	188.4	409.1	 1245	 5063	 4983	494.7	19.92	16.60	17.55	12.59	10.38	10.20	6.968	5.610	6.678	6.190	5.519	3.620	3.979	4.034	3.639	3.353	3.460	3.745	3.818	2.253	3.101	2.215	2.051	2.308	1.952	1.931	1.417	1.505	1.786	1.699	1.805	1.901	1.679	1.567	1.814	1.360	1.167	1.291	1.450	1.349	1.536	1.614	1.559	2.140	2.686	3.591	6.118	13.05	21.99	22.66	10.26	2.819	1.147	0.826	1.236	1.230	1.098	1.119	1.178	1.207	1.155	1.208	1.619	1.341	1.279	1.100	1.282
260.0	54.32	52.88	55.39	80.74	189.8	166.4	317.4	 2179	 7511	 4695	271.9	19.58	17.32	14.00	12.85	9.803	8.595	6.943	6.255	6.110	5.583	5.082	4.676	3.978	3.805	3.563	3.669	2.953	3.286	2.540	2.972	3.103	2.378	2.322	2.601	2.244	1.909	1.826	2.331	1.850	1.668	1.793	1.897	1.890	1.790	1.366	1.274	1.528	1.269	1.247	1.376	1.421	1.669	1.639	1.663	2.016	2.313	4.028	9.411	23.43	32.00	22.53	6.160	1.419	1.211	1.113	1.052	1.256	1.085	1.152	1.138	1.006	1.227	1.215	1.533	1.307	1.265
265.0	63.78	51.68	46.43	63.64	131.8	208.3	131.4	554.3	 3547	 9366	 1208	120.9	20.63	15.09	13.36	9.476	9.707	6.265	7.398	6.147	5.243	4.978	4.855	3.110	3.699	4.211	3.192	3.265	2.663	2.461	3.318	2.444	2.620	1.938	2.416	1.721	1.812	1.970	2.274	1.700	1.537	1.931	1.887	1.895	1.591	1.839	1.287	1.440	1.179	1.241	1.287	1.383	1.669	2.073	1.846	1.425	1.587	2.075	3.294	8.550	18.15	33.24	35.48	17.33	2.985	1.525	1.026	1.265	1.194	1.230	1.158	1.313	1.070	1.129	1.253	1.165	1.284
270.0	62.14	59.19	52.38	57.65	61.93	175.1	249.9	213.9	877.6	 3926	 7463	 4459	391.2	20.63	14.88	11.14	9.835	7.670	6.772	5.740	5.116	5.721	4.538	3.645	4.029	3.548	3.028	3.241	2.541	2.437	3.015	2.568	2.498	2.666	2.035	1.925	2.071	2.052	2.092	1.704	1.720	1.760	2.030	1.758	1.467	1.867	1.347	1.556	1.257	1.299	1.194	1.346	1.357	1.597	1.896	2.236	2.211	1.846	1.903	2.877	5.234	10.50	19.46	29.74	34.43	27.46	12.62	2.687	1.341	1.396	1.235	1.126	1.134	1.203	1.241	1.125	1.296
275.0	60.44	55.68	62.31	61.42	47.09	77.60	199.2	332.2	285.8	921.7	 2292	 9826	 6881	498.3	19.26	13.34	12.43	9.357	8.046	6.666	5.951	4.279	4.307	4.509	3.635	3.337	3.093	4.098	2.611	3.122	3.408	2.832	2.759	2.569	2.164	2.137	2.083	1.828	1.843	1.709	1.420	2.178	1.732	1.809	1.304	1.915	1.737	1.401	1.408	1.192	1.363	1.379	1.155	1.206	1.411	1.464	2.397	2.781	2.055	1.702	2.317	3.328	5.514	7.904	12.39	28.98	51.02	41.62	13.62	2.013	1.054	1.270	1.604	1.116	1.322	1.560	1.085
280.0	62.60	68.36	66.58	69.19	45.78	59.03	98.02	363.4	348.7	283.2	595.7	 3480	9999.9	 5729	296.0	17.41	14.87	11.10	7.666	7.565	6.744	5.401	4.637	4.999	4.029	3.976	3.696	3.786	3.141	3.503	2.645	3.111	2.702	2.102	2.460	2.387	2.490	1.971	2.123	1.648	1.590	1.801	1.583	1.811	1.695	1.661	1.349	1.775	1.440	1.056	1.420	1.234	1.342	1.306	1.500	1.338	1.595	2.327	3.291	2.760	2.345	2.041	2.170	3.264	4.337	8.646	21.51	46.13	58.32	32.77	6.088	1.056	1.403	1.410	1.266	1.478	1.205
285.0	64.62	84.24	82.75	79.86	61.41	55.30	61.80	187.7	492.7	280.8	241.0	914.3	 4713	9999.9	 4207	120.2	17.32	11.27	8.017	7.713	6.414	5.682	5.578	4.497	3.710	4.236	3.063	3.995	3.862	3.161	2.916	2.937	2.641	2.190	2.661	2.081	2.329	1.915	2.030	1.768	1.652	1.931	1.605	1.574	1.562	1.466	1.590	1.596	1.342	1.354	1.436	1.526	1.340	1.455	1.459	1.364	1.551	1.961	2.299	2.950	3.630	2.491	1.786	1.866	2.235	3.542	6.305	14.67	36.28	60.70	50.96	18.70	2.833	1.562	1.305	1.301	1.231
290.0	58.96	82.56	112.9	103.5	77.03	69.13	78.29	130.1	316.2	574.9	417.8	419.2	 1281	 4783	9999.9	 7098	250.2	17.87	10.95	8.835	6.564	6.374	5.449	4.716	4.206	4.040	3.219	3.577	3.892	3.381	3.080	2.787	2.642	2.284	2.777	2.115	2.113	2.072	1.938	1.759	1.458	1.557	1.651	1.617	1.578	1.814	1.505	1.776	1.416	1.573	1.363	1.578	1.428	1.659	1.710	1.490	1.439	1.808	1.942	2.023	2.958	3.389	3.389	2.895	2.025	2.312	2.966	4.742	9.888	19.36	31.64	43.40	43.83	31.61	13.32	2.860	1.310
295.0	75.34	89.57	139.5	125.7	113.0	127.4	162.0	210.0	305.9	497.2	886.5	662.2	629.4	 1329	 2897	9999.9	9999.9	325.4	16.17	12.42	7.015	6.882	7.388	5.093	4.278	3.657	4.006	3.423	3.625	3.117	2.706	2.968	2.823	2.177	2.481	2.286	2.090	1.792	2.329	2.037	2.034	1.686	1.545	1.425	1.905	1.589	1.813	1.578	1.380	1.426	1.160	1.931	1.659	1.591	1.588	1.825	2.145	1.792	2.282	2.354	2.614	2.615	3.448	4.408	4.425	3.214	2.663	2.891	4.223	6.159	8.138	11.35	17.79	38.83	63.47	45.63	13.06
300.0	64.93	98.52	135.5	163.1	150.9	189.6	254.9	333.5	438.2	564.2	932.8	 1121	701.8	657.7	858.4	 3699	9999.9	 3444	212.6	15.86	10.01	7.255	7.045	5.977	5.107	5.003	4.651	3.513	3.293	3.662	3.025	2.735	3.100	2.340	3.204	1.626	2.195	2.138	1.856	1.753	1.677	1.606	1.493	1.392	1.894	1.550	1.344	1.810	1.633	1.556	1.648	1.513	1.722	1.762	1.760	1.875	2.260	2.426	2.717	2.614	2.859	3.076	3.323	3.898	4.808	5.278	4.331	2.973	3.023	3.431	3.795	4.237	5.595	11.50	30.49	58.00	66.87
305.0	70.25	113.6	165.6	169.0	178.1	237.0	332.8	447.1	576.3	685.0	867.7	 1306	 1013	629.9	469.9	991.4	 5049	9999.9	 2836	111.5	13.38	7.825	7.726	7.102	5.657	5.267	4.366	4.232	3.759	4.070	2.839	2.651	3.849	2.318	2.736	2.204	1.738	2.095	2.395	1.520	1.628	1.671	1.660	1.983	1.880	1.581	1.331	1.765	1.796	1.681	1.662	1.412	1.789	2.090	2.082	2.327	2.083	2.707	2.689	2.833	3.347	3.611	3.297	3.489	4.166	5.300	5.691	4.458	3.154	3.165	2.817	2.646	2.854	4.043	8.459	19.78	45.87
310.0	66.14	118.2	172.0	217.8	225.0	293.4	408.5	551.8	673.5	814.1	941.9	 1134	 1308	 1004	496.9	419.3	 1263	 4910	9999.9	 7198	177.4	15.33	10.21	7.915	5.584	5.670	4.721	3.954	4.376	4.036	3.235	2.941	3.438	2.357	2.414	2.406	1.877	2.157	2.336	1.977	1.609	1.778	1.699	1.733	1.690	1.581	1.455	1.525	1.688	1.663	1.608	1.845	1.819	2.016	2.503	2.620	2.997	3.206	3.199	3.554	3.474	3.861	3.978	3.939	4.118	4.376	5.120	4.814	5.244	4.287	3.008	2.656	2.324	2.595	3.297	5.817	12.10
315.0	71.03	117.3	180.9	241.6	261.9	322.1	476.6	617.0	773.5	911.1	 1006	 1111	 1112	 1236	758.7	370.9	417.6	 1172	 2915	9999.9	 9572	238.0	12.72	9.507	7.056	5.593	5.859	5.110	3.991	4.191	3.519	3.315	3.023	2.397	3.294	2.145	2.438	1.785	2.208	2.407	1.595	2.217	2.153	1.708	1.776	1.875	1.680	1.511	1.651	1.751	1.663	1.778	1.928	1.839	2.557	2.974	2.949	3.637	3.170	3.138	4.293	4.189	4.080	4.358	4.683	4.257	4.349	4.089	4.678	4.722	4.801	3.731	2.635	2.265	2.472	2.534	3.850
320.0	73.66	113.2	197.1	262.9	320.0	380.7	488.6	643.3	786.2	925.4	 1034	 1077	 1050	 1065	 1094	518.4	259.7	359.6	719.8	 3872	9999.9	 6842	161.0	11.15	9.560	6.543	5.425	5.182	4.657	4.017	3.485	3.836	3.113	2.659	3.017	2.289	2.404	1.969	1.940	2.337	2.010	1.839	1.793	1.948	1.514	1.549	1.442	1.740	1.847	1.749	1.842	1.914	2.070	2.566	3.011	2.814	3.213	3.564	3.491	3.784	4.034	4.097	3.978	4.613	4.256	4.259	4.346	4.331	3.784	3.786	4.743	5.414	4.019	2.457	2.368	2.460	2.018
325.0	90.91	151.6	217.8	307.7	366.7	408.8	547.9	674.6	804.7	922.7	 1012	 1091	 1035	973.4	986.7	773.3	302.9	202.0	241.5	949.3	 5097	9999.9	 2092	87.86	10.37	7.794	6.047	4.924	3.986	4.272	4.076	3.712	3.243	2.639	2.679	2.758	2.132	1.949	2.086	1.868	2.087	1.965	1.810	1.726	1.948	1.622	1.661	1.809	1.931	1.607	1.903	2.551	2.273	2.642	3.264	3.046	3.090	3.931	3.735	4.108	4.026	4.265	4.140	4.500	5.043	4.650	3.973	4.191	3.536	4.125	3.816	4.371	4.195	4.360	2.611	2.315	1.572
330.0	86.91	149.2	288.2	419.5	499.1	617.9	720.4	836.8	897.2	991.4	 1041	 1092	 1040	945.2	812.5	778.1	579.5	268.7	168.5	292.7	 1240	 4754	 9459	 5752	138.9	12.52	8.111	6.344	5.676	4.817	4.193	4.159	3.678	2.951	2.575	2.752	2.366	2.195	2.157	2.028	2.140	1.917	2.007	1.820	1.945	2.036	1.840	1.983	2.064	2.142	2.362	2.935	2.859	2.937	3.522	3.939	4.037	4.038	3.929	4.287	4.441	4.349	4.523	4.357	5.004	4.400	4.201	4.132	3.854	4.247	3.623	3.374	3.455	3.584	3.528	3.403	2.684
335.0	104.7	175.4	361.1	534.8	730.3	922.3	 1011	 1051	 1082	 1106	 1069	 1065	 1054	954.3	783.7	639.1	640.1	487.1	232.1	179.8	358.6	 1117	 2851	9999.9	 8046	192.2	11.47	7.625	6.519	5.075	4.930	3.810	3.940	3.184	2.669	2.469	2.536	2.361	2.011	2.059	2.121	1.825	2.443	2.031	1.791	1.834	1.708	2.170	2.360	2.385	2.945	3.454	3.712	4.237	4.439	4.846	4.938	4.979	4.433	5.347	5.033	4.635	4.877	4.386	4.758	4.197	4.236	4.240	4.218	4.898	4.148	3.406	3.248	3.103	3.198	3.477	3.668
340.0	99.16	181.2	415.5	681.3	925.2	 1145	 1328	 1279	 1241	 1201	 1121	 1040	 1030	946.4	805.0	620.3	522.0	626.2	398.7	191.4	178.7	326.1	698.3	 3839	9999.9	 5853	136.3	10.39	7.241	5.771	5.271	4.231	4.221	3.381	2.580	2.638	2.606	2.341	2.184	2.287	2.107	1.685	2.087	1.910	1.973	1.875	1.759	2.151	2.293	2.709	3.138	4.237	4.122	5.384	5.528	5.380	5.768	5.641	5.468	5.079	5.195	5.065	5.355	4.532	4.766	4.363	4.209	4.230	4.047	4.336	3.525	3.746	3.110	3.100	2.879	2.884	3.130
345.0	99.76	208.4	464.9	784.6	 1137	 1351	 1503	 1472	 1371	 1293	 1131	 1019	 1001	927.6	824.0	621.4	484.5	534.3	576.2	285.5	168.0	167.3	225.8	936.8	 5117	9999.9	 1696	76.35	9.885	6.435	5.076	4.496	4.156	3.305	2.943	2.839	2.180	2.928	2.343	2.520	1.532	1.760	1.528	2.101	1.602	1.943	1.972	2.120	2.397	3.012	3.592	3.965	4.811	6.372	5.975	5.972	6.714	6.445	6.239	5.960	5.681	5.570	6.095	4.592	4.167	4.176	4.326	4.000	4.358	4.062	3.315	3.857	3.885	2.894	2.711	2.934	2.913
350.0	96.61	230.1	498.5	895.6	 1310	 1622	 1776	 1673	 1510	 1359	 1147	 1003	953.6	920.2	807.1	631.7	502.4	456.0	501.8	463.5	273.6	169.2	151.7	286.0	 1260	 4799	 8314	 4775	119.9	10.74	6.870	5.796	4.891	4.202	3.216	3.217	2.080	2.805	2.512	2.394	1.729	2.110	1.862	1.909	1.788	1.966	2.093	2.901	2.715	3.284	3.833	4.455	5.535	6.518	7.154	6.868	7.211	7.395	6.745	6.191	6.172	5.950	5.886	4.569	4.640	4.070	4.018	4.096	4.103	4.200	3.776	3.764	3.435	2.999	2.551	3.279	2.891
355.0	113.7	219.9	505.7	 1025	 1481	 1824	 1954	 1824	 1589	 1417	 1149	945.4	909.6	879.7	807.7	654.9	529.4	471.4	430.0	478.4	485.5	257.6	173.3	169.7	363.0	 1127	 2722	 8895	 6501	161.5	9.945	7.018	5.733	4.394	3.819	2.712	2.427	2.673	2.114	2.424	2.232	2.274	2.261	2.000	1.983	2.094	2.255	2.517	2.593	3.358	3.950	5.217	5.848	6.897	7.768	7.627	8.251	8.261	7.063	6.772	6.445	5.863	6.365	4.976	4.072	3.853	4.020	3.875	3.518	3.841	3.872	3.544	3.356	3.214	2.681	3.320	2.539
360.0	114.0	227.8	523.4	 1006	 1531	 1909	 2073	 1904	 1613	 1447	 1138	913.1	889.4	856.4	791.8	678.2	566.4	505.4	446.7	417.9	512.3	400.8	219.7	167.9	180.4	327.1	669.6	 3675	9999.9	 4535	107.8	8.576	6.256	4.745	3.941	3.050	3.331	2.327	1.924	2.590	2.336	1.986	2.271	2.119	1.915	1.741	2.216	2.465	2.961	3.420	3.977	5.794	6.317	7.265	7.221	8.148	8.658	8.343	7.661	6.918	6.612	6.206	5.690	4.828	4.279	3.456	3.651	3.842	3.629	3.744	3.775	3.742	3.521	3.458	3.328	3.047	3.197
365.0	114.4	237.7	563.2	 1046	 1524	 1891	 2074	 1877	 1689	 1443	 1111	914.3	863.6	833.4	781.1	680.6	583.7	522.9	478.4	417.0	448.4	515.7	310.0	198.9	168.2	168.1	214.4	909.2	 4986	9999.9	 1453	54.24	7.389	5.268	3.982	3.508	3.252	3.107	2.447	2.453	2.843	1.983	2.480	1.675	1.651	2.375	2.375	2.740	2.521	3.094	3.988	5.915	7.040	7.261	7.795	8.565	9.458	8.296	6.871	6.682	6.533	6.313	5.684	5.251	3.977	3.777	3.750	3.420	3.790	4.067	3.414	3.325	3.447	3.510	3.256	2.981	3.272
370.0	109.7	240.4	521.6	 1006	 1507	 1896	 1996	 1835	 1607	 1408	 1084	876.4	841.9	809.4	766.7	696.3	601.2	552.2	503.3	453.4	434.3	461.8	454.6	313.1	208.8	162.4	144.2	267.0	 1230	 4692	 7641	 3999	91.00	7.918	5.463	4.448	3.670	3.181	2.641	2.550	2.610	2.008	2.318	1.850	1.971	2.243	2.110	2.419	2.933	2.946	3.973	5.578	6.634	6.987	7.689	8.056	8.512	7.808	7.567	6.457	6.168	5.621	5.715	5.196	4.448	3.855	3.648	3.671	3.384	3.666	3.438	3.414	3.058	3.721	3.050	3.414	3.112
375.0	90.67	201.3	514.4	946.3	 1347	 1781	 1895	 1775	 1521	 1327	 1065	851.4	823.3	783.0	752.9	687.1	606.8	570.6	554.0	485.4	460.5	420.7	442.9	471.2	305.6	204.2	159.7	153.3	344.3	 1093	 2726	 8350	 5054	117.4	7.607	5.023	3.894	3.137	2.657	2.691	2.596	2.215	2.457	2.027	2.086	1.791	2.197	2.885	2.836	3.010	3.772	5.472	6.363	6.671	7.236	7.737	8.802	7.609	6.691	6.273	6.136	5.600	5.378	4.960	4.170	3.530	3.315	3.708	3.649	3.386	3.866	3.453	3.320	3.432	2.769	3.339	3.295
380.0	93.76	201.4	468.2	931.5	 1331	 1651	 1795	 1657	 1452	 1287	989.4	840.9	773.3	777.3	738.4	682.3	612.3	595.0	562.5	525.0	488.8	446.0	425.5	488.1	421.7	253.9	188.1	145.0	163.1	302.3	663.2	 3794	 8922	 1312	73.09	5.879	3.966	3.500	2.609	3.290	2.834	2.097	2.081	2.679	1.841	2.208	2.237	2.603	2.514	2.916	3.956	5.123	5.718	6.795	6.945	7.796	7.852	7.694	6.432	6.095	5.787	5.180	5.066	4.162	4.179	3.264	3.406	3.481	3.313	3.605	3.903	3.269	3.466	3.250	3.391	3.237	3.403
385.0	116.4	206.9	442.7	859.3	 1249	 1598	 1612	 1558	 1352	 1201	966.3	798.8	753.2	731.2	718.5	672.5	615.8	604.4	573.2	532.4	507.3	460.6	433.3	439.7	486.1	342.9	224.1	168.4	138.7	140.7	202.3	948.7	 4992	 7597	 1066	22.61	5.634	4.186	3.121	3.114	2.504	2.222	2.203	2.344	2.179	1.975	2.148	2.313	2.352	2.652	3.591	4.933	4.997	6.199	7.365	7.369	6.887	6.890	6.737	5.760	5.759	4.719	5.154	4.460	4.068	3.592	3.312	3.392	3.433	3.274	3.137	3.603	3.307	3.513	2.902	3.543	3.137
390.0	105.1	182.2	424.7	749.3	 1095	 1389	 1510	 1387	 1214	 1104	912.1	772.1	726.5	713.9	697.0	662.0	626.2	605.7	582.3	549.9	526.5	489.9	458.5	428.2	440.7	440.6	312.7	217.4	162.9	136.6	121.9	263.3	 1255	 4060	 5857	 2386	64.99	5.567	4.223	3.160	2.890	2.319	2.418	2.150	2.180	1.911	1.994	2.111	2.425	2.785	2.999	4.402	5.128	5.557	6.133	6.556	6.506	6.679	5.648	5.443	5.155	4.267	4.694	4.181	3.686	3.475	3.779	3.420	3.390	3.235	3.092	3.428	2.990	3.380	3.241	3.404	3.293
395.0	81.20	181.6	371.5	686.7	992.4	 1228	 1340	 1235	 1111	 1015	836.2	720.4	712.8	680.3	689.4	640.0	618.8	596.6	590.6	574.5	542.1	516.3	484.4	447.5	424.3	420.7	426.9	302.1	210.0	163.6	128.1	130.0	330.8	942.7	 2361	 6434	 3279	79.29	5.888	4.058	3.102	2.854	3.230	2.221	2.165	2.272	2.165	2.316	2.532	2.473	3.025	4.133	4.880	5.346	5.254	6.364	5.820	5.239	5.282	4.919	4.639	4.283	3.992	4.086	3.378	3.204	3.044	3.695	3.168	3.567	3.307	3.402	3.397	3.153	3.487	3.211	3.153
400.0	99.65	161.2	337.7	604.4	896.2	 1112	 1170	 1149	 1044	935.4	798.5	705.6	689.1	683.9	667.8	622.7	606.3	599.4	591.8	573.5	557.8	518.3	496.9	473.3	425.8	403.9	433.1	395.4	247.4	194.1	146.2	113.4	134.2	251.8	577.9	 3300	 6544	 1041	44.15	5.007	3.327	2.785	2.789	2.861	2.430	2.276	2.070	2.264	2.121	2.180	3.056	3.771	4.002	5.011	5.096	5.431	5.696	5.040	5.434	4.327	4.575	4.505	4.087	3.915	3.569	3.436	3.359	3.561	2.682	3.590	3.255	3.192	3.615	3.037	3.040	3.458	3.735
405.0	91.44	150.0	306.4	563.1	786.0	 1005	 1068	 1018	971.1	861.3	766.4	686.1	684.8	660.9	665.5	621.3	584.5	590.7	581.3	560.9	550.8	525.1	506.2	472.3	444.8	412.1	404.6	437.2	324.4	221.9	166.0	122.0	103.3	106.2	165.9	842.0	 4049	 5529	811.8	16.70	4.287	3.858	2.908	3.078	2.280	2.515	2.279	2.257	2.622	2.419	2.690	4.224	3.918	4.874	4.801	5.099	5.503	4.808	4.813	4.470	4.527	4.352	3.845	3.560	3.667	3.553	3.300	3.299	2.966	3.385	3.070	3.056	3.144	3.149	2.858	3.601	3.203
410.0	83.90	131.5	276.9	499.8	683.9	879.3	923.3	916.0	847.7	822.1	723.7	660.6	651.7	634.5	631.8	601.1	569.6	568.8	563.9	554.5	539.2	529.8	510.7	477.4	448.6	417.9	392.9	399.4	390.8	293.1	201.8	150.5	114.4	91.33	83.07	219.1	 1037	 3235	 4378	 1718	52.88	4.655	3.510	3.107	2.184	2.270	2.213	2.397	2.133	2.388	2.670	3.289	3.863	4.345	4.305	4.756	4.789	4.549	4.758	4.322	4.265	4.030	3.680	3.510	3.265	3.079	3.179	3.131	3.266	3.029	2.980	3.079	3.458	2.915	2.956	2.962	3.149
