Sample:	'1
File name:	»´ºÓ´óÍ©½ÖÇÅÏÂ.FD3
Run date:	'11:18:23, 04/03/2024
Operator:	Administrator
Comment:	'

Instrument
Model:	F-2700 FL Spectrophotometer
Serial number:	23B8-004
ROM Version:	4J14000 07

Instrument parameters
Measurement type:	3-D scan
Data mode:	Fluorescence
EX  Start WL:	220.0 nm
EX  End WL:	600.0 nm
EX Sampling interval:	5.0 nm
EM  Start WL:	230.0 nm
EM  End WL:	650.0 nm
EM Sampling interval:	5.0 nm
Scan speed:	12000 nm/min
EX Slit:	5.0 nm
EM Slit:	5.0 nm
PMT Voltage:	700 V
Response:	Auto 
Corrected spectra:	Off
Contour interval:	50.000

Peak integration
Integration method:	Rectangular
Sensitivity:	1
Threshold:	1.000

Peaks
No.	ApexEX/EM(nm)	Height(Data)
1	230.0/315.0	774.8
2	230.0/400.0	460.1
3	230.0/595.0	49.85
4	230.0/630.0	39.84
5	235.0/395.0	458.7
6	235.0/410.0	452.3
7	235.0/510.0	197.3
8	240.0/415.0	452.2
9	240.0/520.0	167.3
10	245.0/405.0	458.4
11	245.0/530.0	146.5
12	250.0/415.0	450.6
13	250.0/545.0	121.0
14	255.0/280.0	439.2
15	255.0/560.0	107.1
16	260.0/285.0	368.8
17	260.0/570.0	86.54
18	265.0/435.0	424.6
19	265.0/585.0	86.31
20	270.0/300.0	849.5
21	270.0/600.0	83.51
22	275.0/305.0	1048
23	275.0/330.0	744.2
24	275.0/610.0	74.02
25	280.0/310.0	966.5
26	280.0/625.0	63.01
27	285.0/315.0	873.2
28	285.0/635.0	48.09
29	305.0/340.0	323.0
30	310.0/350.0	270.2
31	315.0/355.0	271.4
32	320.0/360.0	273.9
33	325.0/370.0	256.8
34	330.0/375.0	260.3
35	335.0/380.0	262.3
36	340.0/390.0	241.4
37	345.0/395.0	230.3
38	350.0/400.0	231.2
39	360.0/415.0	196.2
40	365.0/420.0	191.6
41	415.0/485.0	46.86
42	430.0/505.0	30.42
43	435.0/510.0	26.60
44	445.0/525.0	19.47
45	450.0/530.0	16.35
46	505.0/275.0	2.264
47	510.0/280.0	2.559
48	520.0/285.0	2.958
49	530.0/290.0	3.208
50	540.0/295.0	4.061
51	545.0/300.0	4.828
52	555.0/305.0	5.351
53	565.0/310.0	4.792
54	570.0/315.0	5.215
55	580.0/320.0	4.819
56	585.0/325.0	4.224

Data points
	220.0	225.0	230.0	235.0	240.0	245.0	250.0	255.0	260.0	265.0	270.0	275.0	280.0	285.0	290.0	295.0	300.0	305.0	310.0	315.0	320.0	325.0	330.0	335.0	340.0	345.0	350.0	355.0	360.0	365.0	370.0	375.0	380.0	385.0	390.0	395.0	400.0	405.0	410.0	415.0	420.0	425.0	430.0	435.0	440.0	445.0	450.0	455.0	460.0	465.0	470.0	475.0	480.0	485.0	490.0	495.0	500.0	505.0	510.0	515.0	520.0	525.0	530.0	535.0	540.0	545.0	550.0	555.0	560.0	565.0	570.0	575.0	580.0	585.0	590.0	595.0	600.0
230.0	27.97	955.7	3383	1370	54.81	4.704	3.405	2.768	2.042	2.375	2.102	2.673	2.109	1.934	1.751	1.367	1.327	1.329	1.162	1.152	1.092	0.949	0.849	0.803	0.819	0.678	0.647	0.614	0.673	0.571	0.555	0.575	0.523	0.486	0.490	0.443	0.366	0.329	0.322	0.315	0.359	0.464	0.418	0.425	0.308	0.280	1.067	6.249	12.51	9.779	3.804	0.756	0.237	0.214	0.204	0.183	0.175	0.193	0.175	0.124	0.132	0.135	0.119	0.121	0.121	0.126	0.082	0.073	0.072	0.088	0.068	0.061	0.062	0.054	0.057	0.068	0.068
235.0	77.99	252.4	1690	3566	621.1	96.79	5.396	4.428	3.011	2.698	2.497	2.528	1.855	2.513	1.604	1.508	1.392	1.362	1.384	1.130	1.012	0.932	0.766	0.821	0.854	0.684	0.893	0.642	0.569	0.582	0.545	0.607	0.472	0.493	0.558	0.391	0.355	0.373	0.331	0.296	0.347	0.378	0.385	0.556	0.514	0.428	0.539	1.709	4.181	7.698	11.96	13.69	7.066	1.547	0.283	0.193	0.186	0.148	0.183	0.208	0.154	0.133	0.111	0.130	0.143	0.127	0.118	0.121	0.048	0.096	0.065	0.090	0.069	0.104	0.088	0.054	0.105
240.0	109.1	131.0	453.3	2404	4026	527.4	49.65	5.979	4.313	3.770	3.277	3.006	2.607	2.387	1.881	1.710	1.758	1.471	1.297	1.313	1.331	0.915	0.807	0.769	0.827	0.710	0.842	0.770	0.539	0.526	0.538	0.552	0.560	0.419	0.452	0.436	0.390	0.435	0.374	0.378	0.310	0.345	0.280	0.437	0.545	0.609	0.568	0.667	1.139	2.183	5.474	15.15	20.02	15.22	5.584	0.962	0.259	0.196	0.189	0.183	0.150	0.114	0.135	0.178	0.165	0.111	0.069	0.109	0.116	0.080	0.036	0.054	0.073	0.103	0.063	0.144	0.055
245.0	67.39	159.5	161.3	713.4	3525	3985	409.7	20.21	6.455	3.837	3.926	3.128	2.929	2.709	2.250	1.734	1.691	1.337	1.354	1.321	1.320	1.091	0.968	0.917	0.920	0.924	0.773	0.859	0.783	0.625	0.517	0.578	0.528	0.393	0.511	0.450	0.529	0.371	0.373	0.367	0.322	0.405	0.327	0.322	0.389	0.569	0.692	0.816	0.594	0.718	1.431	4.482	11.62	21.84	24.56	14.39	4.031	0.456	0.278	0.178	0.185	0.198	0.172	0.177	0.170	0.105	0.099	0.089	0.108	0.068	0.058	0.076	0.088	0.137	0.055	0.094	0.057
250.0	27.51	94.98	180.8	242.4	997.2	3252	4393	1545	102.6	7.165	6.085	4.930	3.838	2.997	2.585	2.177	1.748	1.682	1.512	1.387	1.330	1.137	1.093	0.930	0.899	0.849	0.889	0.868	0.754	0.601	0.685	0.624	0.576	0.585	0.459	0.438	0.492	0.414	0.359	0.389	0.330	0.386	0.370	0.395	0.323	0.362	0.518	0.687	0.806	0.811	0.780	1.240	2.896	6.381	12.72	20.89	26.87	22.04	13.43	3.940	0.504	0.158	0.158	0.179	0.157	0.109	0.147	0.115	0.111	0.090	0.097	0.058	0.101	0.086	0.047	0.095	0.075
255.0	14.83	34.83	96.36	253.7	315.8	774.7	2638	7465	2183	122.0	9.761	7.414	4.757	4.011	3.500	2.442	2.346	2.170	1.768	1.531	1.483	1.099	1.220	1.112	1.128	0.929	0.820	0.818	0.943	0.670	0.708	0.700	0.622	0.603	0.548	0.506	0.480	0.392	0.324	0.421	0.361	0.385	0.306	0.376	0.352	0.297	0.420	0.403	0.419	0.685	1.095	1.174	1.197	1.618	3.011	4.983	8.629	19.93	39.70	32.22	20.54	4.257	0.349	0.174	0.202	0.162	0.140	0.154	0.135	0.050	0.136	0.044	0.121	0.076	0.089	0.132	0.075
260.0	15.52	17.95	35.56	168.7	272.2	228.8	700.5	4729	8745	1761	67.14	10.08	6.391	5.178	4.071	2.996	2.303	2.433	1.882	1.938	1.591	1.304	1.224	1.115	1.146	0.986	0.842	0.928	0.931	0.789	0.803	0.814	0.624	0.640	0.396	0.481	0.500	0.434	0.351	0.474	0.427	0.299	0.314	0.467	0.483	0.336	0.420	0.310	0.300	0.358	0.650	1.385	1.578	1.105	0.936	1.314	2.205	5.187	15.08	31.73	54.64	31.21	17.82	2.462	0.197	0.162	0.189	0.169	0.175	0.114	0.148	0.083	0.110	0.123	0.095	0.118	0.118
265.0	19.85	13.85	19.47	70.87	261.3	228.2	190.5	1349	7159	9978	1264	24.77	10.35	7.323	5.474	3.632	3.179	3.041	1.945	2.095	1.675	1.326	1.317	1.407	1.104	0.989	0.939	0.939	1.023	0.849	0.782	0.832	0.707	0.651	0.440	0.495	0.510	0.458	0.351	0.418	0.390	0.419	0.449	0.408	0.427	0.340	0.400	0.306	0.288	0.310	0.381	0.630	1.243	1.793	1.484	0.762	0.739	1.394	3.658	8.899	26.22	48.98	71.72	29.11	10.58	0.882	0.192	0.192	0.190	0.152	0.156	0.118	0.256	0.125	0.080	0.120	0.110
270.0	21.44	21.52	17.72	29.72	107.6	260.1	240.8	350.6	1985	7352	9999.9	4060	73.87	10.64	7.549	5.019	3.860	3.397	2.675	2.434	2.048	1.645	1.560	1.437	1.269	1.173	1.063	1.020	1.104	0.946	0.865	0.776	0.850	0.760	0.499	0.624	0.578	0.537	0.425	0.417	0.466	0.465	0.433	0.416	0.396	0.411	0.355	0.307	0.338	0.313	0.276	0.360	0.532	0.928	1.375	1.643	1.517	0.946	1.167	2.219	6.174	13.37	31.38	44.77	58.37	52.91	19.47	9.035	1.163	0.226	0.233	0.181	0.190	0.137	0.087	0.138	0.129
275.0	34.63	38.12	25.41	21.87	38.53	96.28	317.1	320.8	483.4	1719	5692	9999.9	1401	85.98	13.35	8.382	6.070	4.775	3.549	3.268	2.432	2.132	1.960	1.639	1.613	1.257	1.266	1.105	1.198	1.125	0.985	0.936	0.901	0.943	0.748	0.618	0.638	0.580	0.486	0.401	0.507	0.446	0.424	0.409	0.421	0.435	0.429	0.389	0.359	0.348	0.275	0.303	0.370	0.473	0.484	0.815	1.591	2.264	1.988	1.111	1.646	3.344	7.285	10.44	15.87	32.80	70.43	93.86	31.08	12.72	0.877	0.300	0.168	0.201	0.096	0.219	0.137
280.0	47.72	58.44	49.66	37.12	29.84	41.36	159.0	439.2	265.2	427.7	1477	8543	9999.9	1123	50.59	11.75	7.487	5.977	4.792	3.751	3.204	2.508	2.101	1.974	1.723	1.413	1.299	1.233	1.420	1.121	1.083	0.983	1.166	0.878	0.854	0.750	0.754	0.593	0.462	0.543	0.569	0.518	0.509	0.480	0.565	0.540	0.551	0.491	0.445	0.384	0.326	0.363	0.338	0.344	0.284	0.531	0.736	1.392	2.559	2.322	1.449	1.112	1.974	2.696	3.949	8.035	21.91	56.81	90.92	99.39	28.10	6.997	0.494	0.320	0.203	0.228	0.203
285.0	110.2	129.3	126.3	84.84	46.57	34.28	66.05	296.8	368.8	211.3	422.1	2400	9999.9	9692	795.7	24.72	10.29	8.381	5.567	4.301	3.660	2.956	2.147	2.131	1.794	1.667	1.330	1.438	1.517	1.368	1.258	1.084	0.992	0.966	0.993	0.993	0.789	0.784	0.609	0.702	0.619	0.665	0.559	0.680	0.693	0.693	0.667	0.796	0.776	0.606	0.530	0.498	0.470	0.419	0.314	0.437	0.469	0.622	1.254	2.200	2.958	1.881	1.144	1.113	1.432	2.335	5.511	14.17	32.38	78.47	111.6	37.43	22.43	3.798	0.349	0.289	0.258
290.0	221.2	284.3	302.8	211.0	104.1	59.52	60.54	141.3	365.8	456.0	347.0	741.5	2929	9999.9	9999.9	3031	47.58	12.97	7.956	6.424	4.967	3.512	2.729	2.595	2.169	1.869	1.718	1.707	1.598	1.534	1.245	1.176	1.129	1.245	1.215	1.171	1.072	1.027	0.867	0.879	0.744	0.786	0.780	0.966	0.906	1.004	1.176	1.305	1.370	1.056	0.970	0.903	0.677	0.608	0.455	0.466	0.582	0.586	0.748	1.049	1.814	2.427	3.208	2.568	1.755	1.645	2.330	4.215	8.364	19.65	37.16	50.20	84.20	69.20	68.01	16.24	5.572
295.0	346.6	456.8	505.6	351.6	163.2	88.43	82.74	123.7	219.0	502.8	752.3	531.4	930.6	2453	6454	9999.9	4350	57.79	12.71	9.629	6.733	4.361	3.525	3.569	2.726	2.337	2.018	1.987	1.852	1.670	1.351	1.294	1.563	1.282	1.382	1.491	1.271	1.256	1.068	0.996	0.935	0.943	1.061	1.133	1.251	1.466	1.664	1.880	2.018	1.624	1.467	1.425	0.939	0.655	0.598	0.637	0.590	0.647	0.732	0.932	1.139	1.304	2.285	3.264	4.061	3.447	2.359	2.605	3.417	5.933	9.456	12.20	20.25	27.43	79.32	128.3	112.9
300.0	421.1	584.5	619.9	435.7	213.4	122.5	109.4	140.5	219.9	383.5	849.5	765.3	564.1	776.7	1701	9661	9999.9	675.9	35.67	13.87	9.089	5.565	4.486	3.733	3.093	2.880	2.356	2.133	2.176	1.848	1.668	1.514	1.463	1.329	1.625	1.473	1.455	1.287	1.297	1.058	1.158	1.041	1.191	1.346	1.452	1.757	2.140	2.235	2.413	2.027	1.693	1.633	1.110	0.873	0.729	0.686	0.755	0.852	0.877	1.126	1.093	1.347	1.874	2.392	3.531	4.828	4.670	3.390	2.583	2.923	3.876	4.006	5.445	7.008	20.49	54.56	114.4
305.0	454.3	650.9	689.3	507.4	247.7	143.9	136.0	171.9	249.3	372.0	670.9	1048	664.4	457.7	529.8	2632	9999.9	9999.9	538.4	23.13	11.90	7.463	5.499	4.741	3.710	2.943	2.711	2.519	2.005	1.853	1.660	1.692	1.584	1.522	1.717	1.455	1.585	1.315	1.355	1.327	1.191	1.171	1.314	1.402	1.610	1.961	2.299	2.580	2.692	2.361	1.809	1.823	1.265	1.215	0.883	0.844	0.808	0.971	0.947	1.179	1.204	1.571	1.862	2.208	2.607	3.795	4.852	5.351	3.870	2.952	2.792	2.524	2.456	2.468	5.359	13.14	31.71
310.0	485.4	701.7	761.3	538.0	280.5	174.8	163.0	204.8	290.2	400.5	591.2	874.5	966.5	569.9	320.6	694.3	2853	9999.9	9999.9	2249	38.37	11.73	7.846	6.166	4.731	3.625	3.317	2.944	2.510	2.282	1.957	1.909	1.670	1.738	1.848	1.756	1.603	1.548	1.392	1.337	1.328	1.265	1.379	1.470	1.808	2.059	2.345	2.763	2.755	2.464	1.989	1.967	1.522	1.210	1.105	1.004	1.004	1.092	1.162	1.251	1.494	1.807	2.179	2.155	2.658	3.380	3.534	4.461	4.739	4.792	4.186	2.935	2.094	1.783	2.185	3.749	7.749
315.0	508.6	720.7	774.8	549.1	309.9	207.2	188.3	241.6	330.1	435.5	601.1	747.3	855.0	873.2	405.4	292.1	707.4	2320	6842	9999.9	3573	42.53	11.92	8.699	5.904	4.793	3.936	3.366	3.177	2.491	2.569	2.186	2.236	1.864	1.865	1.841	1.753	1.571	1.614	1.513	1.508	1.414	1.467	1.791	1.977	1.990	2.552	2.870	2.928	2.264	1.996	2.085	1.493	1.356	1.194	1.120	1.065	1.251	1.341	1.401	1.795	1.933	2.440	2.364	2.761	3.251	3.142	3.582	3.889	4.356	5.215	4.732	3.455	2.301	1.768	1.698	2.502
320.0	507.1	742.6	764.6	540.7	324.9	226.4	211.3	251.6	345.5	456.1	613.4	734.3	754.1	828.3	625.9	243.5	235.9	564.8	1719	9999.9	9999.9	507.6	29.44	11.93	8.070	6.013	4.577	4.115	4.091	2.901	2.716	2.327	2.328	2.155	1.931	1.972	1.819	1.577	1.652	1.489	1.486	1.633	1.575	1.887	1.942	2.188	2.738	2.854	2.986	2.456	2.040	2.183	1.534	1.395	1.231	1.249	1.204	1.364	1.450	1.622	1.792	2.127	2.280	2.375	2.850	3.318	3.257	3.654	3.588	3.744	3.940	4.475	4.819	3.912	2.378	1.492	1.458
325.0	514.1	731.9	764.4	555.8	341.1	238.7	228.2	268.3	363.6	463.1	629.1	735.3	737.9	684.6	695.9	364.5	143.4	179.1	423.9	2757	9999.9	9999.9	425.7	20.09	10.87	8.102	5.564	4.995	4.007	3.452	2.755	2.532	2.362	2.183	1.943	2.063	1.872	1.573	1.725	1.457	1.522	1.577	1.537	1.675	1.971	2.368	2.705	2.916	2.793	2.383	2.080	2.073	1.507	1.598	1.343	1.377	1.484	1.595	1.565	1.560	1.818	2.073	2.348	2.624	2.828	3.222	3.379	3.376	3.749	3.514	3.328	3.509	3.917	4.224	3.673	2.355	1.444
330.0	498.3	723.6	764.4	562.8	343.3	257.8	248.6	285.3	374.9	463.7	631.8	744.2	731.8	633.7	540.7	481.0	256.0	110.6	139.1	653.9	2942	9999.9	9999.9	1814	32.15	11.33	8.112	6.619	5.212	4.155	3.292	2.938	2.867	2.346	2.245	2.152	2.025	1.780	1.713	1.552	1.570	1.666	1.578	1.722	1.944	2.376	2.533	2.792	2.884	2.372	2.044	2.094	1.666	1.717	1.480	1.448	1.457	1.613	1.611	1.590	1.872	2.089	2.457	2.761	2.968	3.433	3.295	3.351	3.738	3.506	3.532	3.234	2.979	3.269	3.063	2.882	2.792
335.0	488.1	693.7	749.8	552.0	360.3	272.3	263.5	286.6	374.5	468.0	620.2	738.0	723.6	614.0	466.8	360.9	387.7	197.5	90.77	190.0	691.6	2305	6738	9999.9	3013	38.25	11.51	9.380	6.861	5.040	4.317	3.656	3.344	2.642	2.439	2.354	2.203	1.926	1.767	1.871	1.612	1.648	1.760	1.830	1.934	2.211	2.449	2.750	2.921	2.476	2.119	2.135	1.742	1.765	1.525	1.539	1.697	1.667	1.779	1.473	1.909	2.094	2.455	2.685	2.789	3.339	3.258	3.450	3.477	3.463	3.508	3.265	2.734	2.738	2.276	2.203	2.284
340.0	464.4	682.0	713.5	538.2	372.2	293.8	273.5	295.2	376.6	455.8	614.7	708.7	699.5	597.7	447.4	301.9	313.2	323.0	97.63	94.76	196.0	548.8	1724	9999.9	9999.9	2258	27.56	11.66	8.690	6.440	4.944	4.091	3.498	2.763	2.567	2.341	2.216	2.004	1.805	1.805	1.555	1.645	1.748	1.977	2.085	2.094	2.516	2.842	2.869	2.345	1.908	2.068	1.718	1.871	1.498	1.539	1.532	1.782	1.877	1.717	1.809	2.036	2.509	2.504	2.630	3.236	3.054	3.395	3.365	3.333	3.549	3.141	2.697	2.654	2.314	1.854	1.875
345.0	443.2	618.6	676.1	530.0	373.7	300.5	282.8	298.6	365.0	441.2	584.4	674.2	663.7	577.4	434.2	290.7	228.3	316.1	222.5	89.13	93.21	163.9	420.8	2808	9999.9	9999.9	388.1	18.72	10.89	7.686	5.575	4.598	3.942	2.917	2.708	2.222	2.291	2.090	1.859	1.648	1.530	1.462	1.533	1.812	1.959	2.121	2.369	2.670	2.600	2.299	2.017	2.035	1.758	1.680	1.578	1.592	1.607	1.714	1.676	1.696	1.784	2.119	2.430	2.358	2.550	3.157	3.068	3.192	3.201	3.183	3.443	2.976	2.700	2.645	2.385	1.912	1.641
350.0	420.1	573.6	614.7	497.5	376.4	310.7	292.3	303.2	357.4	416.7	544.3	619.1	613.1	542.3	418.8	286.1	209.1	215.0	270.2	197.2	98.09	91.95	139.1	666.2	3018	9999.9	9999.9	1645	30.40	10.51	7.332	5.550	4.522	3.502	2.945	2.503	2.284	2.125	1.865	1.707	1.373	1.508	1.546	1.723	1.798	2.119	2.126	2.571	2.470	2.103	2.006	2.016	1.911	1.632	1.653	1.545	1.685	1.675	1.749	1.649	1.769	1.989	2.149	2.216	2.492	2.830	2.844	3.022	3.027	2.921	3.054	2.705	2.677	2.544	2.229	1.798	1.694
355.0	403.7	524.9	573.2	482.7	379.9	325.1	304.7	309.8	354.9	406.8	514.3	573.3	565.6	506.2	401.8	290.0	216.9	188.2	198.2	271.4	190.1	99.92	89.37	198.0	711.1	2324	7235	9999.9	2850	35.87	10.99	7.626	5.726	3.937	3.205	2.695	2.544	2.285	1.930	1.818	1.420	1.399	1.569	1.718	1.666	2.011	2.114	2.325	2.227	2.092	1.865	1.890	1.781	1.801	1.661	1.595	1.661	1.761	1.705	1.564	1.905	1.965	2.138	2.249	2.390	2.714	2.585	2.770	2.698	2.609	2.523	2.668	2.540	2.513	2.129	1.963	1.643
360.0	367.6	478.4	530.6	462.6	389.8	329.0	311.8	319.7	351.0	399.3	484.0	544.0	531.1	485.8	394.2	294.3	228.3	194.0	180.4	225.4	273.9	148.0	93.63	105.2	206.0	555.9	1884	9999.9	9999.9	2231	26.35	9.959	6.929	4.669	3.654	3.043	2.538	2.168	2.171	1.848	1.486	1.504	1.680	1.618	1.714	1.883	2.021	2.229	2.288	2.030	1.840	2.004	1.779	1.836	1.629	1.592	1.719	1.684	1.704	1.740	1.937	2.219	2.129	2.254	2.242	2.431	2.578	2.730	2.658	2.573	2.573	2.456	2.394	2.387	1.914	2.006	1.801
365.0	350.2	470.5	530.2	444.8	394.6	343.5	323.5	331.8	354.5	395.6	472.1	516.3	503.7	462.8	386.0	297.6	242.0	211.2	190.3	192.0	260.6	237.3	120.8	94.78	103.9	169.0	458.3	2953	9999.9	9999.9	368.7	17.61	9.743	6.277	4.467	3.597	3.005	2.540	2.247	1.959	1.694	1.530	1.691	1.531	1.713	1.777	1.994	2.312	2.290	1.894	1.740	1.964	1.967	1.745	1.697	1.663	1.751	1.727	1.836	1.825	1.882	1.998	2.071	2.139	2.096	2.454	2.548	2.531	2.714	2.637	2.571	2.396	2.393	2.200	2.006	2.130	1.826
370.0	338.1	437.7	490.1	446.6	402.0	360.8	346.9	350.7	363.6	394.0	451.8	488.5	478.0	445.5	377.2	305.3	259.6	235.1	212.6	199.2	213.5	256.8	217.0	125.8	97.78	95.37	146.5	697.5	3160	9999.9	9999.9	1512	27.66	8.975	6.311	4.621	3.615	2.880	2.450	2.262	1.839	1.721	1.704	1.715	1.827	1.840	1.909	2.236	2.113	1.857	1.790	1.864	1.974	1.830	1.924	1.864	1.820	1.805	1.788	1.768	1.889	1.968	2.105	2.112	2.153	2.326	2.290	2.496	2.449	2.484	2.466	2.451	2.340	2.163	1.990	1.957	1.827
375.0	320.7	420.3	477.7	452.9	418.9	372.6	369.9	369.1	379.5	400.6	441.5	469.1	465.0	426.6	369.3	311.4	277.5	258.0	238.0	222.9	210.7	210.6	260.3	213.5	121.7	95.90	89.58	201.6	738.5	2347	7587	9999.9	2578	31.47	9.060	6.417	4.505	3.369	2.928	2.427	2.067	1.834	1.894	1.757	1.844	1.834	1.787	2.160	2.009	1.953	1.744	1.993	1.842	1.758	1.840	1.935	1.839	1.825	1.882	1.854	1.803	2.113	2.036	2.259	2.103	2.508	2.281	2.304	2.254	2.404	2.287	2.339	2.208	2.268	1.913	2.038	1.898
380.0	303.9	408.8	470.7	451.8	424.2	395.4	380.1	376.2	390.3	401.9	432.4	450.9	446.6	416.0	369.3	319.1	288.2	272.9	254.7	237.9	221.2	207.6	227.9	262.3	171.7	107.7	87.63	99.09	205.8	556.8	1985	9999.9	9999.9	1906	23.02	7.831	5.394	4.289	3.352	2.468	2.254	2.161	1.904	1.833	2.019	1.886	1.920	2.093	2.037	1.912	1.677	2.148	1.988	1.941	1.944	1.963	1.969	1.855	1.829	1.928	1.865	1.893	1.994	2.138	2.328	2.177	2.224	2.220	2.350	2.341	2.075	2.233	2.215	2.137	1.914	1.906	2.054
385.0	315.4	397.8	466.1	449.3	438.4	414.7	401.6	384.3	391.1	401.2	435.6	448.6	437.8	405.2	363.8	320.9	298.7	284.0	267.7	250.8	233.8	215.8	209.8	247.3	237.9	138.4	98.54	85.10	93.90	163.1	475.1	2912	9999.9	9999.9	307.2	13.90	6.957	5.342	4.102	2.953	2.360	2.353	2.107	1.991	2.052	1.905	1.884	2.051	2.077	1.888	1.758	2.124	2.122	1.999	1.965	1.914	2.015	2.034	1.971	2.098	1.964	2.037	2.091	2.042	2.229	1.996	2.164	2.208	2.065	2.305	2.195	2.148	2.197	2.131	2.006	1.861	2.049
390.0	308.2	393.2	457.0	455.8	447.0	427.7	416.9	402.6	405.1	409.4	435.8	438.6	424.9	402.1	361.3	326.4	310.8	295.3	285.5	269.2	250.5	235.0	217.8	216.1	241.4	209.2	130.6	96.44	82.26	85.38	143.3	680.8	3081	9880	9999.9	1199	22.05	7.382	5.261	3.842	2.975	2.561	2.425	2.242	1.963	2.010	2.036	2.219	2.129	1.912	1.805	2.052	2.072	2.093	1.967	2.101	2.137	2.071	2.201	2.108	2.130	2.230	2.189	2.056	2.163	2.121	2.122	2.181	2.124	2.013	2.185	2.099	2.116	2.038	2.127	1.872	2.035
395.0	313.2	390.2	453.5	458.7	442.5	435.0	438.0	423.0	422.0	416.4	432.4	432.8	417.2	396.3	357.7	336.8	315.6	308.6	296.3	284.4	266.0	251.2	233.6	216.1	211.6	230.3	198.8	123.5	94.44	79.69	78.40	187.5	713.5	2305	6543	9999.9	2131	27.57	7.009	5.060	3.633	3.174	2.671	2.497	2.197	2.189	2.037	2.499	2.201	1.997	1.785	2.195	2.084	2.059	2.129	2.088	2.180	2.101	2.261	2.083	2.075	2.036	2.137	2.229	2.155	2.070	2.044	2.239	2.159	1.945	2.176	2.057	2.135	2.132	2.075	2.170	1.995
400.0	314.2	402.8	460.1	451.9	447.1	445.4	446.1	434.0	421.1	423.6	430.3	424.8	410.5	391.3	358.4	333.9	319.4	312.1	301.4	289.9	275.2	259.7	242.7	224.3	206.6	208.3	231.2	165.7	108.8	87.56	71.27	82.09	189.6	538.0	1690	8632	9999.9	1669	20.62	6.212	4.719	3.472	3.080	2.461	2.231	2.149	2.189	2.540	2.166	2.088	1.965	2.162	2.228	2.026	2.146	2.193	2.146	2.246	2.355	2.182	2.219	2.273	2.106	2.042	2.255	2.078	2.174	2.118	2.247	2.137	2.068	2.092	2.342	2.172	2.045	1.878	2.008
405.0	307.0	397.9	443.3	450.7	444.2	458.4	441.7	446.9	427.5	419.3	427.1	418.1	407.9	383.7	358.5	331.5	321.4	311.8	306.6	295.7	280.1	266.8	249.2	230.2	212.7	194.9	215.2	207.8	135.2	98.15	77.30	63.84	77.61	147.0	399.4	2439	9723	9999.9	280.3	12.89	5.264	4.477	3.489	2.942	2.701	2.350	2.271	2.496	2.354	2.097	1.843	2.270	2.300	2.236	2.355	2.404	2.265	2.311	2.159	2.282	2.101	2.311	2.087	1.983	2.195	1.972	2.101	2.101	2.170	2.220	2.184	1.906	2.179	2.236	2.218	2.042	2.097
410.0	296.7	395.5	439.8	452.3	449.1	450.5	440.7	447.0	435.1	425.1	423.5	414.1	394.8	376.5	350.8	328.7	318.0	312.1	305.5	295.5	282.6	269.7	255.4	239.3	221.0	201.0	194.2	206.1	188.6	127.7	91.62	70.46	60.41	65.31	113.4	564.5	2649	7534	9520	1242	20.74	5.947	4.351	3.385	2.800	2.653	2.317	2.543	2.291	2.156	1.944	2.169	2.193	2.140	2.107	2.283	2.323	2.355	2.083	2.252	2.191	2.291	2.239	2.023	2.053	2.150	2.058	2.064	2.106	2.050	2.178	1.949	2.170	2.002	2.070	1.994	2.014
