Sample:	'1
File name:	Default_20230221_145107.FD3
Run date:	'14:44:46, 02/21/2023
Operator:	dsjg
Comment:	'

Instrument
Model:	F-2700 FL Spectrophotometer
Serial number:	2198-001
ROM Version:	4J14000 07

Instrument parameters
Measurement type:	3-D scan
Data mode:	Fluorescence
EX  Start WL:	220.0 nm
EX  End WL:	600.0 nm
EX Sampling interval:	5.0 nm
EM  Start WL:	230.0 nm
EM  End WL:	650.0 nm
EM Sampling interval:	5.0 nm
Scan speed:	12000 nm/min
EX Slit:	5.0 nm
EM Slit:	5.0 nm
PMT Voltage:	700 V
Response:	Auto 
Corrected spectra:	Off
Contour interval:	50.000

Peak integration
Integration method:	Rectangular
Sensitivity:	1
Threshold:	1.000

Peaks
No.	ApexEX/EM(nm)	Height(Data)
1	230.0/350.0	385.7
2	230.0/375.0	377.3
3	230.0/625.0	9.209
4	235.0/380.0	385.6
5	240.0/525.0	112.6
6	245.0/395.0	400.1
7	245.0/535.0	95.89
8	250.0/400.0	476.1
9	250.0/550.0	74.90
10	255.0/280.0	191.4
11	255.0/425.0	399.9
12	255.0/440.0	397.2
13	255.0/560.0	63.42
14	260.0/290.0	209.0
15	260.0/435.0	397.7
16	260.0/570.0	47.61
17	265.0/295.0	265.4
18	265.0/440.0	397.6
19	265.0/585.0	39.48
20	270.0/300.0	335.5
21	270.0/400.0	386.5
22	270.0/415.0	388.7
23	270.0/595.0	34.57
24	275.0/305.0	393.3
25	275.0/610.0	30.02
26	280.0/310.0	376.2
27	280.0/350.0	367.4
28	280.0/360.0	368.8
29	280.0/385.0	379.5
30	280.0/620.0	26.08
31	285.0/320.0	384.6
32	285.0/635.0	18.83
33	290.0/325.0	366.1
34	305.0/345.0	257.1
35	310.0/350.0	237.0
36	315.0/355.0	236.6
37	320.0/360.0	240.7
38	325.0/370.0	235.5
39	330.0/375.0	230.4
40	335.0/380.0	226.7
41	340.0/390.0	218.2
42	350.0/400.0	198.8
43	365.0/420.0	165.8
44	430.0/505.0	24.46
45	445.0/525.0	14.70
46	545.0/300.0	2.097
47	550.0/305.0	2.130
48	560.0/310.0	2.118
49	570.0/315.0	2.499
50	580.0/325.0	2.121

Data points
	220.0	225.0	230.0	235.0	240.0	245.0	250.0	255.0	260.0	265.0	270.0	275.0	280.0	285.0	290.0	295.0	300.0	305.0	310.0	315.0	320.0	325.0	330.0	335.0	340.0	345.0	350.0	355.0	360.0	365.0	370.0	375.0	380.0	385.0	390.0	395.0	400.0	405.0	410.0	415.0	420.0	425.0	430.0	435.0	440.0	445.0	450.0	455.0	460.0	465.0	470.0	475.0	480.0	485.0	490.0	495.0	500.0	505.0	510.0	515.0	520.0	525.0	530.0	535.0	540.0	545.0	550.0	555.0	560.0	565.0	570.0	575.0	580.0	585.0	590.0	595.0	600.0
230.0	77.82	 1168	 1868	283.5	5.604	2.193	1.869	1.428	1.103	1.247	0.878	1.033	0.827	0.674	0.674	0.585	0.527	0.538	0.467	0.366	0.389	0.411	0.333	0.307	0.342	0.334	0.302	0.248	0.265	0.238	0.255	0.218	0.195	0.193	0.236	0.294	0.315	0.281	0.245	0.223	0.212	0.259	0.288	0.243	0.198	0.185	0.653	3.291	7.027	5.816	1.921	0.348	0.104	0.090	0.066	0.062	0.071	0.064	0.063	0.051	0.048	0.044	0.031	0.036	0.025	0.031	0.031	0.010	0.036	0.011	0.012	0.019	0.005	0.012	0.007	0.013	0.011
235.0	43.13	369.4	 1595	 1818	325.5	5.868	2.052	1.755	1.494	1.453	1.318	1.088	0.886	0.806	0.680	0.615	0.664	0.467	0.508	0.453	0.403	0.417	0.362	0.298	0.320	0.268	0.357	0.258	0.249	0.212	0.248	0.230	0.164	0.199	0.230	0.216	0.305	0.299	0.221	0.243	0.198	0.229	0.235	0.304	0.278	0.221	0.272	0.878	2.474	4.569	6.762	7.234	2.862	0.467	0.104	0.093	0.102	0.082	0.062	0.039	0.043	0.040	0.048	0.041	0.040	0.021	0.040	0.021	0.049	0.008	0.011	0.009	-0.002	0.024	0.006	0.002	0.016
240.0	64.69	105.8	612.8	 2052	 1842	214.6	3.504	1.807	2.091	1.826	1.308	1.156	1.202	0.888	0.747	0.531	0.549	0.508	0.457	0.439	0.506	0.493	0.424	0.387	0.249	0.308	0.317	0.231	0.332	0.228	0.266	0.207	0.214	0.186	0.231	0.191	0.230	0.284	0.250	0.296	0.261	0.176	0.180	0.286	0.349	0.380	0.268	0.328	0.701	1.405	3.355	7.897	9.286	6.433	2.018	0.245	0.080	0.103	0.052	0.046	0.036	0.042	0.058	0.066	0.048	0.040	0.026	0.012	0.015	0.009	0.012	0.020	0.001	0.004	0.039	-0.002	0.010
245.0	68.05	80.18	160.0	940.9	 2664	 1501	123.7	3.329	2.446	1.744	1.415	1.359	1.377	0.913	0.735	0.747	0.578	0.568	0.525	0.484	0.563	0.445	0.459	0.364	0.340	0.291	0.341	0.277	0.371	0.265	0.264	0.230	0.241	0.187	0.154	0.204	0.183	0.317	0.317	0.276	0.292	0.203	0.165	0.206	0.272	0.348	0.436	0.435	0.360	0.427	0.889	2.703	6.192	11.10	10.37	5.477	1.170	0.119	0.064	0.075	0.052	0.078	0.065	0.050	0.074	0.018	0.041	0.014	0.016	0.032	0.031	0.019	0.013	0.015	0.029	0.013	0.026
250.0	28.89	82.52	117.3	248.7	 1090	 2266	 1933	175.7	11.85	2.656	2.207	1.835	1.490	1.054	0.969	0.800	0.681	0.583	0.556	0.476	0.490	0.441	0.506	0.355	0.359	0.357	0.364	0.287	0.331	0.264	0.245	0.224	0.183	0.222	0.159	0.177	0.157	0.203	0.195	0.298	0.328	0.235	0.216	0.187	0.239	0.208	0.287	0.429	0.480	0.516	0.434	0.709	1.622	3.725	6.684	9.535	11.57	9.684	4.896	1.339	0.098	0.067	0.059	0.056	0.052	0.028	0.037	0.022	0.040	0.037	0.021	0.021	0.019	0.021	0.017	0.013	0.010
255.0	9.664	34.00	106.1	160.9	266.5	692.7	 2151	 2358	268.1	11.68	3.191	2.706	1.893	1.470	1.152	0.947	0.864	0.769	0.649	0.576	0.448	0.427	0.421	0.330	0.349	0.328	0.379	0.319	0.300	0.317	0.285	0.277	0.216	0.191	0.174	0.177	0.177	0.152	0.133	0.205	0.238	0.208	0.250	0.234	0.229	0.188	0.182	0.227	0.310	0.434	0.693	0.695	0.598	0.960	1.596	2.434	4.792	10.53	17.23	16.09	6.760	1.068	0.079	0.068	0.046	0.041	0.043	0.038	0.063	0.027	0.030	0.030	0.026	0.035	0.015	0.010	0.008
260.0	7.252	16.03	51.43	159.6	143.5	171.9	811.0	 2777	 2292	212.9	6.979	3.493	2.390	1.711	1.249	1.189	0.883	0.946	0.628	0.662	0.529	0.511	0.457	0.471	0.446	0.322	0.407	0.393	0.294	0.266	0.296	0.275	0.321	0.145	0.173	0.164	0.153	0.146	0.144	0.174	0.157	0.246	0.225	0.206	0.195	0.176	0.163	0.172	0.176	0.254	0.401	0.791	0.817	0.626	0.532	0.653	1.218	3.064	8.263	16.69	19.64	14.12	5.003	0.465	0.072	0.033	0.042	0.034	0.058	0.042	0.029	0.034	0.038	0.025	0.035	0.018	0.034
265.0	5.264	7.632	16.75	91.58	168.8	87.01	201.7	 1202	 3491	 1951	136.1	4.336	3.139	2.234	1.605	1.158	0.928	1.038	0.621	0.791	0.629	0.519	0.482	0.436	0.473	0.363	0.412	0.395	0.292	0.332	0.335	0.305	0.336	0.225	0.216	0.214	0.186	0.153	0.165	0.186	0.127	0.225	0.221	0.223	0.215	0.230	0.193	0.134	0.167	0.171	0.209	0.384	0.719	0.948	0.743	0.361	0.396	0.823	2.070	5.422	11.72	20.79	22.83	11.42	2.264	0.106	0.042	0.038	0.071	0.039	0.020	0.041	0.055	0.026	0.021	0.041	0.037
270.0	10.66	11.57	11.01	29.88	100.8	149.3	113.6	297.1	 1317	 2942	 2893	737.2	30.86	3.589	2.373	1.718	1.442	1.120	0.905	0.763	0.734	0.664	0.483	0.450	0.506	0.421	0.447	0.423	0.382	0.399	0.366	0.393	0.296	0.238	0.225	0.235	0.183	0.195	0.189	0.190	0.139	0.158	0.208	0.236	0.257	0.227	0.225	0.199	0.198	0.164	0.156	0.211	0.302	0.506	0.786	0.775	0.814	0.543	0.645	1.329	2.957	6.615	12.48	17.81	20.19	17.68	8.582	2.302	0.165	0.055	0.076	0.053	0.059	0.040	0.034	0.039	0.049
275.0	19.78	23.52	21.05	15.46	33.74	91.40	179.5	145.2	313.7	835.2	 2811	 4350	 1018	23.88	3.358	2.422	1.783	1.326	1.261	0.999	0.845	0.832	0.716	0.560	0.653	0.503	0.448	0.442	0.345	0.385	0.374	0.350	0.355	0.313	0.231	0.262	0.218	0.228	0.219	0.164	0.187	0.175	0.214	0.211	0.257	0.352	0.339	0.281	0.219	0.252	0.164	0.167	0.169	0.243	0.314	0.363	0.886	1.204	1.030	0.628	0.826	1.626	2.949	4.324	6.987	15.35	24.27	25.72	12.71	1.804	0.114	0.066	0.061	0.065	0.028	0.030	0.023
280.0	39.98	39.02	28.05	17.61	18.49	38.57	138.4	191.4	123.3	214.4	945.7	 3521	 4298	129.8	10.27	2.976	2.316	1.985	1.551	1.184	1.021	0.813	0.769	0.688	0.585	0.572	0.547	0.418	0.387	0.455	0.365	0.341	0.265	0.346	0.254	0.290	0.232	0.231	0.204	0.212	0.206	0.246	0.203	0.178	0.327	0.296	0.342	0.307	0.329	0.227	0.181	0.156	0.212	0.176	0.197	0.156	0.442	0.799	1.245	1.222	0.663	0.571	0.828	1.190	1.745	4.225	10.15	21.54	30.44	22.56	6.475	0.453	0.090	0.054	0.064	0.037	0.045
285.0	48.53	55.73	40.48	23.11	17.81	20.97	66.43	184.1	181.1	95.07	255.5	 1301	 4065	 3792	103.9	5.199	3.262	2.358	1.841	1.265	1.256	0.933	0.951	0.660	0.526	0.540	0.492	0.453	0.503	0.461	0.362	0.433	0.321	0.323	0.273	0.301	0.306	0.234	0.253	0.245	0.254	0.258	0.180	0.219	0.290	0.345	0.401	0.429	0.354	0.290	0.262	0.171	0.241	0.188	0.169	0.198	0.257	0.388	0.679	1.141	1.291	0.937	0.509	0.522	0.623	1.180	2.595	6.391	15.16	27.88	28.58	15.89	2.922	0.104	0.093	0.070	0.024
290.0	68.38	83.05	65.18	39.05	27.80	25.21	39.30	96.87	209.0	201.6	146.2	366.4	 1363	 3074	 3579	 1321	25.19	3.423	2.478	1.685	1.466	0.969	1.237	0.952	0.732	0.735	0.618	0.523	0.524	0.499	0.388	0.441	0.309	0.336	0.345	0.346	0.387	0.294	0.299	0.255	0.297	0.272	0.219	0.259	0.290	0.342	0.440	0.531	0.441	0.375	0.317	0.240	0.249	0.229	0.192	0.230	0.258	0.293	0.351	0.544	0.910	1.128	1.256	1.069	0.696	0.620	0.897	1.784	3.963	8.202	13.84	20.18	22.83	18.40	10.03	1.990	0.111
295.0	96.39	104.2	86.46	55.08	40.01	36.52	43.14	66.33	130.0	265.4	231.1	201.6	387.6	816.5	 2105	 4525	644.6	25.37	3.628	2.447	1.617	1.164	1.410	1.023	0.900	0.828	0.722	0.717	0.549	0.474	0.541	0.414	0.405	0.342	0.369	0.409	0.390	0.355	0.331	0.302	0.277	0.247	0.284	0.251	0.400	0.431	0.472	0.518	0.498	0.509	0.401	0.390	0.311	0.296	0.285	0.289	0.342	0.359	0.349	0.406	0.478	0.687	0.969	1.376	1.766	1.363	0.877	0.969	1.278	2.338	3.453	4.995	7.419	15.14	29.51	27.54	12.96
300.0	100.3	124.5	108.5	67.49	53.51	50.15	55.91	71.79	107.3	208.2	335.5	223.3	202.6	264.6	663.5	 2822	 4516	520.7	10.44	3.336	2.411	1.567	1.537	1.186	1.147	0.872	0.869	0.840	0.537	0.729	0.473	0.446	0.392	0.367	0.315	0.373	0.444	0.455	0.421	0.270	0.337	0.287	0.263	0.360	0.416	0.461	0.508	0.516	0.585	0.573	0.385	0.437	0.415	0.364	0.331	0.324	0.348	0.402	0.406	0.405	0.516	0.656	0.757	0.956	1.730	2.097	1.698	1.003	0.931	1.163	1.271	1.519	1.941	4.166	11.53	24.70	36.64
305.0	116.7	135.9	126.4	79.63	60.31	57.43	71.17	89.38	118.6	179.3	299.9	393.3	206.7	168.1	222.9	914.6	 3552	 4269	69.39	5.841	3.024	2.027	1.709	1.300	1.211	1.010	0.903	0.818	0.830	0.654	0.613	0.488	0.433	0.386	0.345	0.387	0.465	0.442	0.419	0.357	0.440	0.311	0.381	0.356	0.388	0.451	0.515	0.584	0.634	0.587	0.458	0.535	0.443	0.363	0.373	0.370	0.379	0.455	0.474	0.558	0.627	0.711	0.761	0.832	1.258	1.679	2.130	1.985	1.432	1.047	0.871	0.813	0.841	1.312	2.982	7.216	18.07
310.0	127.1	156.4	129.9	92.01	73.61	72.05	88.40	110.6	136.5	182.7	246.4	359.4	376.2	227.7	149.6	265.7	 1062	 2889	 3629	 1345	20.50	2.988	2.231	1.691	1.300	1.184	1.118	0.864	0.841	0.701	0.690	0.556	0.461	0.397	0.408	0.416	0.522	0.394	0.387	0.349	0.369	0.319	0.356	0.361	0.454	0.498	0.525	0.594	0.632	0.536	0.537	0.504	0.482	0.461	0.394	0.443	0.465	0.527	0.592	0.621	0.754	0.802	0.859	0.869	1.054	1.304	1.491	1.925	2.118	1.916	1.466	0.898	0.831	0.789	1.085	1.952	4.540
315.0	140.8	171.9	151.3	110.7	88.37	88.32	101.2	129.1	154.9	197.9	247.9	296.1	359.0	378.2	197.1	137.2	291.7	718.5	 1799	 4493	465.6	20.78	3.234	2.495	1.607	1.344	1.143	0.955	0.913	0.780	0.678	0.550	0.442	0.465	0.549	0.416	0.466	0.477	0.486	0.408	0.413	0.344	0.358	0.369	0.458	0.431	0.572	0.734	0.663	0.543	0.526	0.621	0.529	0.459	0.469	0.498	0.497	0.620	0.643	0.688	0.823	0.852	0.903	1.123	1.103	1.235	1.495	1.533	1.571	1.742	2.499	1.750	1.102	0.782	0.728	0.904	1.441
320.0	165.6	195.5	175.0	120.0	92.92	99.34	114.4	141.3	168.6	212.1	260.5	293.1	319.8	384.6	310.5	140.0	132.9	201.0	504.6	 2511	 3793	425.0	10.98	2.998	2.141	1.757	1.418	1.092	0.957	0.907	0.768	0.697	0.559	0.531	0.486	0.443	0.450	0.379	0.464	0.470	0.377	0.365	0.398	0.399	0.563	0.618	0.627	0.757	0.809	0.696	0.538	0.630	0.542	0.546	0.560	0.565	0.565	0.561	0.765	0.725	0.821	0.843	1.004	1.066	1.100	1.311	1.353	1.525	1.535	1.584	1.956	2.081	2.106	1.186	0.831	0.717	0.734
325.0	180.7	233.4	212.3	140.2	105.1	103.8	125.3	151.7	182.8	228.1	279.0	304.5	311.2	326.0	366.1	214.4	110.1	94.33	146.9	721.2	 3070	 3596	56.80	5.219	2.680	1.922	1.583	1.299	1.055	0.873	0.957	0.771	0.638	0.428	0.502	0.463	0.502	0.412	0.486	0.432	0.400	0.353	0.469	0.514	0.582	0.681	0.835	0.997	0.903	0.850	0.642	0.688	0.539	0.614	0.634	0.676	0.604	0.653	0.801	0.951	0.945	0.967	1.085	1.042	1.280	1.357	1.643	1.522	1.618	1.655	1.527	1.656	2.121	2.085	1.367	0.977	0.652
330.0	202.0	284.1	272.5	192.6	132.8	124.5	139.1	164.3	194.1	245.7	298.9	318.7	328.8	308.9	305.3	298.9	179.7	89.14	79.96	194.3	850.3	 2504	 3343	 1219	18.00	2.918	2.063	1.640	1.399	1.025	1.037	0.833	0.672	0.566	0.527	0.502	0.534	0.479	0.471	0.461	0.391	0.407	0.441	0.555	0.606	0.825	0.957	1.137	1.125	0.991	0.842	0.845	0.695	0.621	0.697	0.668	0.719	0.782	0.883	0.940	0.946	1.030	1.146	1.279	1.412	1.506	1.653	1.518	1.633	1.702	1.622	1.614	1.608	1.704	1.828	1.667	1.315
335.0	218.2	325.0	331.9	235.3	171.3	148.4	160.8	182.0	214.9	264.4	316.7	341.9	348.1	325.4	281.0	254.7	276.0	152.7	82.50	88.50	222.4	603.0	 1671	 4407	 1702	20.49	2.786	2.134	1.658	1.398	1.158	0.833	0.753	0.699	0.590	0.604	0.473	0.556	0.430	0.449	0.345	0.374	0.389	0.556	0.592	0.919	1.073	1.299	1.349	1.151	0.986	1.053	0.922	0.766	0.753	0.706	0.847	0.833	0.850	0.970	1.110	1.189	1.287	1.266	1.464	1.623	1.738	1.694	1.777	1.826	1.846	1.718	1.577	1.493	1.375	1.572	1.834
340.0	236.6	338.1	359.0	275.0	199.7	172.6	189.0	193.0	229.4	268.9	320.2	353.5	360.9	338.2	289.9	236.4	254.3	235.5	117.0	77.20	92.48	164.0	445.4	 2492	 4561	342.4	10.91	2.632	2.285	1.817	1.307	1.038	0.757	0.720	0.576	0.676	0.506	0.513	0.490	0.488	0.470	0.418	0.426	0.429	0.642	0.962	1.068	1.335	1.366	1.406	1.107	1.266	0.992	0.926	0.783	0.762	0.951	1.008	1.081	1.057	1.061	1.232	1.277	1.402	1.571	1.564	1.825	1.712	1.777	1.772	1.843	1.893	1.799	1.571	1.428	1.308	1.401
345.0	236.5	362.0	377.7	307.2	216.2	196.3	197.8	212.9	235.7	276.2	319.6	356.4	365.1	349.2	302.9	239.2	212.3	257.1	195.2	94.86	75.57	75.58	130.5	697.6	 3313	 2936	47.95	5.154	2.687	2.134	1.385	1.090	0.858	0.816	0.685	0.615	0.603	0.558	0.422	0.422	0.391	0.476	0.494	0.558	0.712	0.946	1.006	1.313	1.443	1.435	1.151	1.414	1.123	1.026	0.977	0.950	1.042	1.032	1.136	1.157	1.175	1.211	1.423	1.500	1.560	1.533	1.834	1.589	1.797	1.837	1.792	1.752	1.644	1.586	1.370	1.268	1.193
350.0	236.3	358.9	385.7	326.7	259.1	224.2	220.5	230.0	249.9	286.4	323.8	356.8	367.4	349.8	312.5	257.0	207.9	207.1	237.0	178.9	98.10	72.86	73.65	189.0	900.2	 2425	 3045	 1083	16.77	2.743	1.884	1.375	1.109	0.846	0.784	0.675	0.633	0.624	0.452	0.443	0.495	0.455	0.523	0.574	0.702	0.867	1.066	1.252	1.461	1.308	1.083	1.535	1.238	1.137	1.155	1.056	1.155	1.084	1.117	1.246	1.269	1.383	1.515	1.564	1.592	1.632	1.688	1.691	1.839	1.890	1.790	1.854	1.755	1.587	1.424	1.278	1.324
355.0	235.8	351.6	376.1	336.4	285.0	265.7	250.7	263.4	265.5	300.1	332.4	355.3	363.8	353.1	321.4	271.0	227.3	198.8	201.6	236.6	174.9	101.6	80.18	88.82	234.0	578.8	 1543	 4022	 1591	21.39	3.060	1.748	1.256	1.108	0.785	0.711	0.675	0.595	0.475	0.565	0.474	0.500	0.590	0.638	0.643	0.876	1.032	1.252	1.387	1.345	1.222	1.474	1.542	1.302	1.311	1.219	1.147	1.159	1.274	1.371	1.385	1.441	1.508	1.449	1.557	1.698	1.683	1.766	1.764	1.784	1.784	1.835	1.977	1.716	1.566	1.484	1.520
360.0	224.4	346.8	370.6	357.3	305.8	297.4	277.3	277.6	277.6	303.7	338.3	360.6	368.8	351.3	333.5	286.6	241.8	216.3	199.8	215.4	240.7	145.8	95.41	80.61	96.03	159.2	402.8	 2292	 4257	331.9	10.43	2.369	1.492	1.213	0.977	0.888	0.737	0.617	0.538	0.485	0.528	0.480	0.607	0.593	0.720	0.859	0.979	1.232	1.401	1.387	1.291	1.539	1.399	1.453	1.406	1.357	1.518	1.209	1.361	1.400	1.458	1.457	1.593	1.606	1.683	1.702	1.811	1.776	1.849	1.906	1.833	1.868	2.021	1.721	1.666	1.586	1.432
365.0	413.5	327.1	372.4	361.0	327.0	306.5	295.5	298.0	294.3	309.0	330.6	359.9	367.6	353.5	337.0	296.6	254.4	243.9	210.3	201.8	240.4	216.0	122.6	91.17	76.38	74.51	118.3	631.4	 3117	 2770	43.78	4.122	2.012	1.468	1.170	0.797	0.732	0.723	0.504	0.482	0.538	0.581	0.640	0.573	0.797	0.890	1.089	1.153	1.320	1.427	1.186	1.507	1.504	1.429	1.376	1.495	1.513	1.291	1.555	1.521	1.471	1.516	1.522	1.706	1.590	1.662	1.753	1.827	1.777	1.865	1.763	1.981	2.038	1.734	1.724	1.686	1.608
370.0	268.4	314.9	370.5	364.5	349.5	327.6	317.6	312.4	306.6	322.4	337.7	360.2	368.6	356.1	341.1	306.2	271.1	265.3	231.9	215.9	215.8	235.5	199.6	125.8	91.01	71.77	65.58	169.9	850.0	 2382	 2793	939.5	17.15	2.124	1.506	1.067	0.796	0.809	0.666	0.586	0.589	0.660	0.631	0.639	0.715	0.880	1.019	1.287	1.331	1.341	1.175	1.513	1.505	1.472	1.569	1.494	1.568	1.603	1.562	1.471	1.621	1.565	1.662	1.723	1.705	1.657	1.732	1.695	1.687	1.834	1.750	1.908	1.975	1.836	1.699	1.798	1.732
375.0	226.9	316.2	377.3	366.9	366.9	352.1	336.3	339.3	326.7	343.5	352.4	363.4	373.1	358.6	345.9	314.0	289.3	278.2	258.4	239.5	216.6	214.6	230.4	192.5	122.0	88.89	72.58	80.43	217.4	566.9	 1498	 3473	401.1	18.01	1.972	1.470	0.990	0.838	0.755	0.692	0.511	0.622	0.613	0.612	0.706	0.938	1.000	1.276	1.246	1.298	1.189	1.557	1.610	1.489	1.636	1.551	1.762	1.663	1.681	1.526	1.553	1.728	1.695	1.673	1.857	1.924	1.766	1.738	1.723	1.729	1.913	1.815	1.862	1.920	1.917	1.815	1.859
380.0	216.8	310.2	359.4	385.6	378.5	367.9	355.4	346.8	339.4	348.8	357.3	368.7	375.1	359.1	341.9	318.8	297.7	292.8	270.1	253.3	224.9	218.7	216.2	226.7	167.4	106.9	83.17	71.60	84.83	154.4	393.4	 2078	 3089	302.3	6.399	1.724	1.210	1.030	0.711	0.710	0.603	0.649	0.656	0.658	0.831	0.918	1.094	1.269	1.227	1.282	1.227	1.700	1.655	1.761	1.661	1.479	1.762	1.726	1.780	1.704	1.620	1.663	1.695	1.779	1.732	1.840	1.749	1.950	1.809	1.715	1.948	1.762	1.940	1.983	1.899	1.895	1.856
385.0	211.4	312.8	368.6	379.8	385.6	372.8	364.7	350.4	352.2	351.9	360.5	371.9	379.5	364.1	346.2	322.2	306.1	303.6	281.3	265.0	234.4	226.7	211.9	215.0	216.1	134.3	98.64	80.82	63.13	68.58	112.9	590.8	 2838	 2478	40.04	2.882	1.564	1.323	0.933	0.743	0.690	0.677	0.652	0.736	0.817	0.898	1.005	1.163	1.227	1.220	1.199	1.512	1.642	1.828	1.650	1.728	1.872	1.723	1.656	1.788	1.682	1.678	1.684	1.763	1.780	1.866	1.805	1.937	1.978	1.941	2.005	1.815	1.886	1.970	1.894	2.016	2.029
390.0	220.4	302.2	360.0	381.5	387.1	391.6	379.9	370.6	362.9	360.5	374.9	372.9	376.4	363.0	344.1	325.1	316.1	309.1	296.3	277.3	248.5	242.8	220.6	200.3	218.2	187.7	130.1	96.21	70.90	58.90	58.00	156.9	787.8	 1948	 2171	694.6	12.31	1.780	1.292	0.904	0.740	0.754	0.686	0.812	0.820	1.023	0.980	1.173	1.324	1.170	1.316	1.571	1.721	1.818	1.740	1.773	1.835	1.831	1.750	1.790	1.693	1.797	1.707	1.740	1.717	1.739	1.794	1.809	1.958	1.944	1.949	1.847	1.907	1.957	1.939	1.926	1.962
395.0	218.0	296.0	362.9	384.1	397.3	400.1	398.1	380.9	366.2	369.8	384.2	375.8	372.6	358.6	341.3	326.8	324.1	312.8	301.3	284.6	259.3	252.3	234.0	204.2	200.1	196.6	180.5	119.4	86.37	68.33	55.93	67.52	197.2	460.2	 1240	 2719	292.3	13.08	1.768	1.161	0.916	0.909	0.808	0.845	0.917	1.049	0.922	1.212	1.379	1.126	1.390	1.506	1.770	1.797	1.725	1.802	1.944	1.838	1.919	1.951	1.764	1.756	1.713	1.804	1.672	1.832	1.744	1.987	1.896	1.890	1.725	1.798	1.784	1.919	1.930	2.002	1.893
400.0	218.5	296.2	363.1	395.6	399.5	394.8	476.1	384.8	370.8	377.2	386.5	378.0	374.0	360.7	335.7	326.0	322.6	311.4	305.4	289.4	265.4	259.1	244.0	212.4	204.3	185.4	198.8	156.2	102.0	78.83	63.36	58.38	71.25	119.1	323.4	 1721	 2368	235.5	5.129	1.373	1.100	0.958	0.882	0.831	1.004	0.980	0.980	1.217	1.370	1.223	1.277	1.591	1.786	1.829	1.796	1.873	1.847	1.977	1.946	1.905	1.916	1.716	1.573	1.847	1.703	1.752	1.677	1.792	1.907	1.832	1.702	1.727	1.873	1.890	1.915	2.102	1.917
405.0	216.6	300.3	367.2	394.2	403.7	400.9	419.0	391.3	379.2	380.1	384.9	376.3	371.0	362.6	339.2	320.9	320.8	310.9	300.7	291.1	268.4	262.7	246.5	216.9	207.7	182.2	187.9	187.3	124.7	91.11	72.70	62.22	48.60	46.54	86.37	494.9	 2123	 1917	33.87	2.140	1.427	1.018	0.977	0.958	1.040	0.922	0.977	1.276	1.301	1.313	1.330	1.576	1.738	1.771	1.746	1.824	1.901	1.784	1.754	1.980	1.903	1.881	1.678	1.760	1.834	1.800	1.719	1.716	1.805	2.046	1.766	1.770	1.918	1.917	1.901	1.849	1.964
410.0	206.8	290.0	358.0	392.7	394.0	402.5	407.1	392.5	383.3	383.3	385.3	375.5	367.7	360.0	331.1	315.4	313.1	304.4	294.1	285.8	267.7	264.3	248.6	224.7	210.3	187.1	177.3	181.4	163.4	117.5	85.12	72.28	51.03	36.03	36.96	123.1	617.4	 1619	 1814	523.4	9.920	1.472	1.139	1.000	0.992	0.906	1.043	1.205	1.295	1.248	1.365	1.571	1.715	1.749	1.713	1.807	1.907	1.839	1.808	1.989	1.850	1.911	1.755	1.729	1.732	1.889	1.749	1.703	1.845	1.915	1.745	1.865	1.926	1.854	1.834	1.800	1.882
