Sample:	'1
File name:	Default_20230302_142917.FD3
Run date:	'14:22:56, 03/02/2023
Operator:	user
Comment:	'

Instrument
Model:	F-2700 FL Spectrophotometer
Serial number:	2190-003
ROM Version:	4J14000 07

Instrument parameters
Measurement type:	3-D scan
Data mode:	Fluorescence
EX  Start WL:	220.0 nm
EX  End WL:	600.0 nm
EX Sampling interval:	5.0 nm
EM  Start WL:	230.0 nm
EM  End WL:	650.0 nm
EM Sampling interval:	5.0 nm
Scan speed:	12000 nm/min
EX Slit:	5.0 nm
EM Slit:	5.0 nm
PMT Voltage:	700 V
Response:	Auto 
Corrected spectra:	Off
Contour interval:	50.000

Peak integration
Integration method:	Rectangular
Sensitivity:	1
Threshold:	1.000

Peaks
No.	ApexEX/EM(nm)	Height(Data)
1	225.0/260.0	118.7
2	225.0/300.0	263.0
3	225.0/325.0	290.0
4	225.0/600.0	137.9
5	230.0/275.0	123.8
6	230.0/305.0	298.6
7	230.0/540.0	120.9
8	230.0/555.0	117.8
9	230.0/590.0	96.14
10	230.0/610.0	72.54
11	230.0/640.0	91.27
12	235.0/400.0	 1888
13	235.0/520.0	199.0
14	235.0/545.0	116.4
15	235.0/565.0	103.4
16	235.0/580.0	98.65
17	235.0/615.0	65.27
18	240.0/390.0	 1745
19	240.0/555.0	85.63
20	240.0/595.0	75.01
21	240.0/635.0	71.33
22	245.0/530.0	157.6
23	245.0/620.0	59.80
24	250.0/545.0	118.2
25	255.0/555.0	120.9
26	260.0/565.0	155.3
27	260.0/635.0	68.64
28	265.0/580.0	212.6
29	270.0/590.0	228.1
30	270.0/625.0	103.6
31	275.0/235.0	15.72
32	275.0/300.0	 2346
33	280.0/250.0	19.45
34	285.0/245.0	19.59
35	290.0/640.0	46.23
36	295.0/405.0	 4606
37	300.0/255.0	12.79
38	300.0/335.0	381.0
39	305.0/275.0	15.54
40	305.0/340.0	395.4
41	310.0/345.0	350.6
42	315.0/250.0	5.474
43	320.0/255.0	5.257
44	330.0/240.0	6.979
45	330.0/595.0	10.32
46	335.0/275.0	5.739
47	335.0/620.0	6.622
48	345.0/240.0	4.338
49	350.0/250.0	3.424
50	350.0/315.0	9.357
51	355.0/255.0	3.244
52	355.0/285.0	5.569
53	355.0/405.0	253.5
54	355.0/620.0	6.198
55	360.0/310.0	5.715
56	365.0/265.0	3.948
57	365.0/415.0	216.8
58	365.0/595.0	7.624
59	365.0/620.0	4.915
60	370.0/260.0	4.420
61	370.0/295.0	3.882
62	370.0/425.0	212.5
63	370.0/605.0	6.293
64	375.0/640.0	4.639
65	385.0/260.0	3.258
66	390.0/285.0	3.113
67	400.0/245.0	2.891
68	415.0/250.0	2.754
69	415.0/300.0	2.775
70	415.0/485.0	58.98
71	415.0/625.0	3.243
72	430.0/355.0	2.941
73	440.0/315.0	3.076
74	445.0/525.0	19.08
75	460.0/300.0	2.441
76	460.0/545.0	11.42
77	475.0/400.0	5.671
78	475.0/565.0	4.949
79	480.0/405.0	5.351
80	485.0/580.0	3.464
81	485.0/640.0	2.016
82	495.0/360.0	4.344
83	505.0/275.0	2.614
84	505.0/345.0	3.902
85	510.0/355.0	4.044
86	515.0/360.0	3.929
87	540.0/295.0	6.880
88	550.0/480.0	3.366
89	555.0/525.0	3.260
90	560.0/340.0	3.306
91	560.0/615.0	2.163
92	575.0/320.0	3.263
93	580.0/325.0	3.012

Data points
	220.0	225.0	230.0	235.0	240.0	245.0	250.0	255.0	260.0	265.0	270.0	275.0	280.0	285.0	290.0	295.0	300.0	305.0	310.0	315.0	320.0	325.0	330.0	335.0	340.0	345.0	350.0	355.0	360.0	365.0	370.0	375.0	380.0	385.0	390.0	395.0	400.0	405.0	410.0	415.0	420.0	425.0	430.0	435.0	440.0	445.0	450.0	455.0	460.0	465.0	470.0	475.0	480.0	485.0	490.0	495.0	500.0	505.0	510.0	515.0	520.0	525.0	530.0	535.0	540.0	545.0	550.0	555.0	560.0	565.0	570.0	575.0	580.0	585.0	590.0	595.0	600.0
230.0	79.32	192.4	 1511	 1450	150.9	41.88	31.41	20.45	17.51	25.92	11.65	14.68	13.36	9.324	9.049	7.905	9.028	5.962	4.965	4.779	4.485	2.564	4.159	3.387	2.988	2.294	2.794	2.581	3.513	2.061	2.561	2.053	1.467	1.832	2.040	2.624	1.616	1.913	2.108	2.040	1.546	1.761	1.614	1.978	1.398	1.723	1.381	2.182	4.311	4.548	2.909	1.146	0.989	1.371	0.656	1.158	0.952	1.050	0.955	1.384	1.111	1.058	0.911	0.936	1.027	0.740	0.652	0.703	1.108	1.001	0.774	0.861	0.648	1.020	0.595	1.131	0.621
235.0	70.67	106.6	644.3	 2719	 2193	264.0	36.65	33.76	14.11	13.06	15.38	15.72	2.315	10.31	7.899	7.365	7.864	6.130	7.502	4.955	2.570	5.991	5.795	3.008	3.286	3.312	2.871	1.665	2.702	2.688	3.389	2.012	1.794	1.361	2.562	1.709	1.627	1.788	2.253	1.553	2.166	1.662	2.099	1.729	1.037	1.131	1.724	2.162	2.457	3.621	7.088	8.428	4.587	1.651	0.945	0.845	0.505	1.466	0.871	0.952	1.614	0.730	1.281	0.803	0.790	1.451	0.969	1.585	1.330	0.192	0.254	1.425	0.763	0.596	0.599	-0.147	0.886
240.0	71.53	101.9	195.4	 1559	 4476	 2046	154.2	22.95	21.19	11.48	17.34	9.507	12.80	16.66	15.31	9.783	8.499	8.698	8.248	5.317	3.849	3.730	6.979	1.233	3.412	4.338	3.196	2.877	3.128	1.117	2.329	2.557	2.478	1.044	1.988	1.895	1.146	1.908	2.027	1.612	2.320	1.791	2.176	1.880	1.222	1.752	1.225	1.958	1.388	1.419	3.131	9.670	12.29	9.298	4.150	1.442	1.003	1.117	0.931	1.261	1.275	0.901	1.156	0.373	0.395	1.215	0.855	0.832	1.824	0.078	1.025	0.459	1.104	0.315	0.747	0.592	0.205
245.0	15.13	31.00	89.09	470.5	 2989	 5941	 1621	82.50	28.16	19.45	21.44	9.397	12.34	19.59	14.59	11.32	12.62	5.484	3.769	4.913	4.087	5.175	4.347	2.382	3.003	4.329	3.061	2.273	1.554	0.902	3.622	2.098	1.907	1.354	1.626	2.266	2.891	1.516	1.298	1.546	1.533	1.200	0.755	0.657	2.040	2.458	2.204	2.089	1.305	1.009	1.592	3.649	8.232	15.76	14.75	8.553	2.422	0.912	1.615	1.405	0.473	1.334	1.380	0.682	0.455	0.372	1.010	0.252	1.379	0.768	1.076	0.759	0.828	0.413	0.173	1.779	0.433
250.0	71.80	59.90	121.1	185.5	809.8	 3272	 6011	 3905	483.9	31.70	21.65	13.36	19.45	15.06	13.38	6.327	9.763	5.708	4.408	5.474	3.491	2.924	4.280	2.247	3.129	3.109	3.424	3.184	2.019	2.317	2.758	1.563	2.660	2.485	2.024	2.269	2.253	2.023	2.373	2.754	1.563	1.593	1.743	1.575	1.744	1.744	1.003	1.357	1.197	1.064	1.136	2.234	3.094	5.625	8.830	14.49	17.12	14.83	8.274	1.896	0.886	1.304	1.017	0.480	0.992	0.734	1.109	0.536	0.842	0.975	0.960	0.518	0.800	1.084	0.588	0.757	0.820
255.0	97.22	15.01	134.9	218.9	299.2	781.8	 2359	 7849	 6511	604.7	24.44	17.86	12.97	15.68	14.27	7.761	12.79	8.417	8.998	3.824	5.257	4.226	3.288	3.855	3.280	3.970	2.209	3.244	1.894	2.141	2.295	2.476	1.965	2.393	2.675	1.852	1.267	1.401	1.687	1.866	1.767	1.497	1.603	0.785	1.392	1.619	1.446	1.407	1.658	1.123	1.002	2.085	1.745	2.871	2.944	4.137	6.736	15.18	25.78	23.93	10.17	2.266	0.931	0.522	0.877	1.426	1.480	0.924	1.125	1.285	0.935	1.016	0.923	0.717	0.863	0.943	1.296
260.0	102.6	118.7	39.74	141.6	236.1	244.8	586.0	 3748	9999.9	 5935	325.0	27.58	22.58	10.37	12.95	10.21	7.852	7.663	7.572	7.756	2.203	3.503	3.201	3.359	4.621	3.807	2.958	2.486	2.117	1.615	4.420	1.570	1.371	3.258	2.569	1.551	1.597	1.348	0.613	1.633	1.682	0.800	2.254	1.888	2.360	1.982	1.298	1.678	1.065	1.097	0.841	1.718	1.685	1.652	1.559	1.617	1.736	4.891	11.78	25.19	30.42	19.36	6.187	0.844	0.597	1.283	1.079	0.810	0.918	0.645	1.025	0.676	0.886	0.843	1.632	0.456	0.910
265.0	127.0	82.06	71.65	99.50	179.6	230.6	193.6	972.1	 5505	9999.9	 1387	117.9	22.73	15.85	17.80	10.70	11.56	11.00	7.948	7.410	3.855	4.850	4.717	3.870	3.861	4.099	2.667	1.905	3.568	3.948	3.341	2.706	0.688	2.723	1.407	2.502	1.384	1.794	1.505	1.646	1.730	1.419	0.958	2.607	2.040	1.338	1.877	1.743	1.365	0.791	1.286	1.324	1.658	1.415	1.690	1.659	2.046	1.519	3.646	8.613	19.25	31.18	32.59	15.54	2.948	1.153	0.791	0.466	0.769	0.702	0.751	0.481	0.935	1.415	1.066	1.082	0.704
270.0	107.7	77.65	89.45	79.12	89.64	214.8	254.3	300.0	 1406	 5125	 9708	 5158	418.3	30.44	21.55	14.18	12.11	11.79	7.766	6.279	3.579	3.586	4.112	3.967	3.887	4.233	3.895	2.516	1.964	3.189	2.692	2.750	2.416	1.164	1.568	2.217	1.127	1.799	1.479	0.983	2.091	1.503	1.051	2.100	1.931	1.318	1.816	1.761	1.422	1.086	1.258	0.996	1.319	1.502	1.747	1.989	1.549	1.270	1.795	3.178	5.490	10.49	18.43	27.36	30.56	23.62	10.49	2.273	0.723	0.874	1.193	0.778	1.259	0.907	1.170	0.586	0.547
275.0	122.1	98.79	123.8	85.14	55.48	86.56	275.6	384.9	471.7	 1333	 3679	9999.9	 7539	492.6	24.18	14.60	10.63	15.54	11.00	7.763	3.725	4.084	3.231	5.739	4.507	3.812	4.003	4.908	2.699	2.594	3.006	2.913	3.500	2.709	2.093	2.035	2.320	1.598	2.148	1.385	1.552	1.502	1.219	2.128	2.028	1.394	2.148	2.115	1.869	1.099	1.045	1.004	1.737	0.809	2.190	1.895	1.672	2.614	1.511	2.280	2.520	3.591	5.213	7.762	12.78	28.25	43.92	35.69	11.26	1.692	0.873	0.846	0.635	0.772	1.603	0.377	1.381
280.0	149.4	81.21	101.0	87.97	98.35	91.07	189.7	507.5	556.1	720.8	 1369	 5232	9999.9	 5849	293.9	20.03	18.08	13.24	8.578	8.566	2.928	3.895	4.728	4.074	4.013	3.054	2.892	4.654	4.201	2.015	2.072	3.336	3.329	2.802	2.948	2.447	2.016	2.143	1.554	1.595	1.630	1.569	1.496	1.839	2.135	1.387	2.029	2.235	1.809	1.076	1.104	1.004	1.807	1.246	1.614	0.910	1.229	1.893	2.132	2.607	2.232	2.517	3.254	3.584	4.903	9.757	22.47	43.23	49.12	27.61	6.709	0.970	0.446	1.457	0.564	0.446	0.658
285.0	183.1	171.5	115.8	113.6	78.47	131.3	208.5	496.7	916.2	 1004	 1199	 2101	 7067	9999.9	 4204	135.1	23.46	16.14	11.05	9.464	5.215	7.800	5.716	3.002	3.684	3.595	4.448	5.569	3.737	3.019	2.448	2.707	2.879	1.396	3.113	2.458	2.493	1.832	1.762	1.484	1.408	1.525	1.086	2.460	1.408	1.709	1.287	1.754	2.084	1.244	1.829	1.944	1.638	1.773	1.817	0.734	1.772	1.582	2.297	2.601	2.194	2.890	3.120	2.971	3.915	4.880	7.562	16.00	35.26	52.00	43.29	16.52	2.557	1.085	0.962	1.060	1.484
290.0	141.9	192.9	148.8	125.6	105.6	161.3	278.4	566.8	 1073	 1591	 1752	 1806	 2509	 6091	9999.9	 8441	236.3	22.29	14.28	10.91	7.199	6.619	6.742	5.303	4.417	4.479	4.334	4.261	3.322	3.810	3.645	3.035	2.854	2.300	3.057	1.703	2.232	1.838	2.174	1.567	1.942	1.579	0.940	1.795	1.542	1.394	1.389	2.091	1.916	1.569	1.529	1.561	1.352	1.742	0.961	1.382	2.495	2.166	2.414	2.153	2.944	3.711	4.342	4.292	5.185	4.440	4.945	6.439	10.25	17.75	30.53	39.46	41.89	28.98	12.43	2.265	0.997
295.0	215.1	239.9	192.9	174.4	163.0	206.7	343.2	666.5	 1100	 1732	 2292	 2083	 1483	 1642	 3532	9999.9	9999.9	303.4	20.57	14.12	12.07	9.026	8.003	7.878	5.048	4.503	3.888	3.785	4.035	2.164	3.882	3.551	2.393	1.632	2.724	1.993	2.507	1.602	2.551	1.145	2.385	1.635	1.310	2.163	1.612	1.457	1.429	2.016	2.415	1.523	1.283	1.283	1.911	2.000	1.234	1.469	2.475	2.508	2.723	3.244	3.447	4.844	5.698	5.721	6.880	5.594	4.749	4.019	4.296	5.430	7.985	10.62	18.74	44.08	61.29	45.44	13.89
300.0	204.3	263.0	207.2	180.9	145.8	228.4	368.2	680.0	 1102	 1696	 2315	 2346	 1336	678.6	932.3	 4786	9999.9	 3288	198.2	20.28	12.29	7.837	9.733	7.115	5.249	5.473	4.237	3.392	4.481	4.434	2.700	1.973	2.970	2.278	1.592	1.340	2.062	2.099	2.317	2.775	1.892	1.618	1.129	2.117	2.181	2.078	1.830	1.917	2.441	1.684	1.699	0.861	1.749	1.446	1.314	2.362	2.708	2.884	3.210	3.285	3.511	4.476	4.145	5.551	6.549	6.317	5.116	4.129	2.268	2.715	2.700	3.719	5.779	13.87	34.20	66.35	65.53
305.0	215.1	244.3	298.6	202.3	152.4	231.3	358.1	671.7	 1082	 1577	 2088	 2308	 1462	511.4	361.0	 1227	 6459	9999.9	 2666	109.6	16.39	10.37	10.52	8.211	6.789	5.651	4.579	3.429	5.074	4.431	3.460	3.358	3.681	2.245	2.857	1.812	1.793	2.116	2.357	1.402	1.887	1.376	0.632	1.795	1.246	1.679	0.987	1.647	1.113	1.918	1.625	2.098	1.251	1.556	2.101	2.391	2.742	2.869	2.786	2.936	3.399	4.775	4.674	5.352	4.985	5.568	5.704	4.649	2.803	2.516	2.196	1.557	2.358	4.174	9.668	25.40	53.07
310.0	146.0	210.5	257.2	187.3	188.7	233.2	340.0	607.1	955.5	 1375	 1729	 1821	 1427	662.4	282.4	378.8	 1612	 5888	9999.9	 7454	156.8	19.47	13.17	9.701	7.509	5.896	6.931	4.239	5.715	4.868	3.578	2.821	3.296	2.878	3.435	2.515	2.403	2.232	2.179	1.878	1.797	1.905	1.856	1.997	2.071	2.022	1.156	1.577	1.606	1.773	1.669	2.029	1.948	1.876	1.767	2.376	1.942	2.758	2.346	3.402	3.490	3.655	4.134	4.633	4.841	4.952	4.576	3.882	2.901	2.831	2.511	2.152	1.549	1.760	2.802	6.840	13.49
315.0	171.7	252.3	231.3	201.6	180.3	221.0	305.7	539.0	807.5	 1103	 1374	 1405	 1058	764.1	448.9	223.5	445.1	 1377	 3400	9999.9	9999.9	212.3	17.19	14.00	8.784	7.210	9.357	5.165	4.530	5.162	5.350	3.012	2.931	3.063	3.504	3.033	2.095	1.785	2.235	2.189	2.296	1.673	2.433	1.697	3.076	2.247	1.243	1.716	1.806	1.526	1.693	2.222	2.009	1.834	1.410	1.967	1.888	2.596	2.728	2.443	3.041	3.970	2.774	3.761	4.180	4.108	3.785	3.661	2.662	2.859	3.065	2.652	1.311	1.748	1.160	3.044	4.274
320.0	162.0	268.5	164.5	245.8	206.7	247.8	296.0	449.1	692.5	938.3	 1164	 1162	874.5	601.2	618.7	286.5	203.9	377.4	818.8	 4490	9999.9	 7863	149.6	16.72	12.96	9.973	6.532	4.930	3.987	6.348	4.777	3.258	2.354	2.905	3.334	2.750	2.549	2.325	2.082	2.169	1.811	2.130	1.823	2.723	2.478	1.356	1.348	1.604	1.603	1.128	1.760	1.674	1.540	2.144	1.508	1.754	1.759	2.220	2.233	2.409	2.773	3.542	2.840	2.826	3.639	3.195	2.704	3.351	2.245	2.066	2.611	3.263	1.531	2.200	1.370	1.421	1.633
325.0	137.7	290.0	233.9	261.7	261.9	301.6	302.0	473.4	616.2	815.4	 1001	 1014	773.1	488.2	545.9	448.4	186.9	164.1	240.5	 1095	 6116	9999.9	 1893	93.98	16.84	10.14	10.19	6.827	5.467	5.515	5.662	3.680	3.867	3.359	3.020	2.570	3.222	2.917	1.140	2.962	1.571	2.492	2.276	1.672	1.824	2.265	1.843	1.586	1.019	1.502	1.468	1.907	1.357	2.561	2.451	1.822	2.066	1.624	2.489	2.470	2.341	3.385	3.341	3.535	3.754	3.344	2.862	3.061	2.582	1.738	1.923	1.996	3.012	2.394	2.270	2.320	1.541
330.0	185.5	235.7	276.7	359.4	361.8	410.8	407.6	500.9	595.2	725.7	833.2	831.0	668.7	456.6	405.2	442.7	352.5	162.7	125.1	303.1	 1492	 5550	9999.9	 6928	122.5	17.39	11.31	8.449	7.444	6.577	6.810	4.621	4.241	3.650	2.527	3.261	2.572	2.720	2.158	2.578	2.142	2.481	2.476	2.236	1.177	1.871	2.014	2.233	1.597	1.479	1.695	1.653	1.257	2.536	2.526	1.727	2.774	2.552	2.374	2.561	2.440	2.525	2.735	3.429	3.018	2.813	3.014	2.861	2.497	2.268	1.885	1.345	2.696	1.819	1.896	2.351	1.333
335.0	164.2	191.3	340.3	451.2	558.9	574.5	567.7	568.3	603.2	698.6	729.4	704.9	612.4	437.8	369.4	320.0	381.0	319.8	143.9	140.4	389.5	 1284	 3356	9999.9	9999.9	167.6	16.63	12.42	10.50	5.730	5.845	5.605	4.909	4.507	2.857	3.217	3.053	2.680	2.299	2.720	1.565	2.614	1.600	2.725	1.924	1.989	1.997	2.364	1.626	1.904	2.034	1.901	2.183	1.710	2.381	2.685	2.762	2.600	2.646	2.445	2.898	2.411	3.241	3.226	2.533	2.528	2.471	2.547	3.267	3.035	2.220	0.916	1.581	1.533	2.179	2.576	1.960
340.0	63.94	255.6	380.6	539.4	678.0	714.8	738.6	698.8	634.6	677.6	685.4	647.1	569.5	436.4	369.4	311.5	293.5	395.4	238.7	121.4	153.1	340.9	799.3	 4528	9999.9	 7916	122.1	15.46	11.39	9.632	7.650	6.458	4.778	4.654	4.402	2.852	3.770	2.946	3.006	2.592	2.234	2.359	2.284	1.774	1.766	2.248	2.201	2.154	1.835	2.279	2.286	2.364	2.406	2.042	2.998	2.460	3.288	3.190	2.915	3.551	3.080	2.525	2.865	3.818	2.868	2.145	1.718	1.718	3.306	2.717	2.518	1.242	1.714	1.321	2.090	1.638	1.657
345.0	148.7	219.5	456.2	643.8	744.4	888.9	829.2	787.7	717.9	694.9	652.2	593.4	534.0	461.4	392.7	314.5	263.4	328.2	350.6	179.8	110.1	138.2	224.4	 1098	 6367	9999.9	 1513	81.56	14.94	11.57	8.637	8.026	5.771	5.039	5.736	3.324	1.952	3.053	3.069	2.634	2.691	2.295	2.606	2.240	1.937	2.201	2.784	1.868	2.376	1.776	2.367	3.141	2.174	2.593	2.456	2.687	3.165	3.902	3.093	3.199	2.620	3.107	2.066	2.937	2.941	2.402	2.824	1.772	1.859	2.622	2.015	1.689	1.856	1.847	1.983	1.475	1.853
350.0	165.0	248.1	496.4	731.5	914.2	 1043	985.6	871.8	747.7	708.0	616.7	568.8	506.9	474.3	423.2	359.6	304.3	291.1	332.5	314.6	174.3	111.1	116.8	297.0	 1561	 5840	9999.9	 6040	517.8	17.46	11.14	8.784	7.539	5.254	4.748	2.981	3.175	3.138	2.791	2.524	2.334	1.976	1.855	2.106	2.144	2.246	2.074	2.299	2.457	1.996	2.404	3.049	2.860	3.893	3.310	2.997	3.758	3.619	3.539	3.416	2.523	2.934	2.743	2.817	2.450	2.413	2.804	2.864	2.397	2.628	2.068	2.636	2.383	1.782	1.773	2.219	2.609
355.0	119.7	286.1	530.7	860.5	 1017	 1155	 1117	965.9	828.6	726.6	618.8	540.3	538.1	533.1	524.9	466.7	398.7	358.6	321.1	336.4	311.0	162.2	115.0	136.5	403.1	 1342	 3593	9999.9	 9356	143.8	15.71	12.51	7.548	7.297	6.560	3.923	2.834	3.724	2.495	3.018	2.805	1.791	2.941	2.232	2.402	2.550	2.126	1.854	2.864	2.245	2.254	2.893	3.492	3.815	3.503	3.581	3.287	2.943	4.044	3.843	2.323	2.963	2.554	2.877	2.073	2.643	3.015	2.541	2.500	2.503	3.535	2.782	2.775	1.661	2.468	2.695	2.244
360.0	187.3	272.1	565.5	 1004	 1112	 1266	 1138	993.5	831.6	727.1	622.7	599.7	604.9	641.9	655.0	598.6	518.8	481.9	391.8	335.5	360.9	260.3	136.7	111.5	154.5	347.1	855.9	 4926	9999.9	 7182	103.1	13.47	9.421	6.634	5.190	4.200	3.777	3.763	3.371	2.685	3.390	1.638	2.731	2.080	2.092	2.602	2.209	2.798	2.739	2.966	2.473	3.402	4.101	3.812	4.070	4.344	2.874	3.453	2.519	3.929	3.392	3.024	2.598	3.309	2.362	2.640	2.646	2.900	2.783	1.748	3.463	2.249	2.888	2.833	2.424	2.863	3.250
365.0	198.3	336.9	626.6	944.3	 1256	 1277	 1202	 1039	874.1	758.9	642.5	653.5	719.3	826.1	876.8	842.7	762.1	671.0	530.6	392.9	349.7	345.4	202.5	130.5	110.7	138.6	239.5	 1205	 6848	9999.9	 1325	63.45	13.38	8.944	5.285	4.537	5.539	3.870	3.694	2.897	3.284	1.821	2.446	2.634	2.400	1.959	1.955	2.919	2.349	2.768	2.592	3.194	3.890	3.958	3.974	4.255	3.319	3.841	2.955	3.191	3.351	2.827	3.124	3.258	2.705	2.867	2.492	2.292	3.183	2.698	3.285	3.172	4.112	3.261	2.448	4.165	3.244
370.0	240.1	428.4	736.7	 1114	 1350	 1268	 1187	 1018	874.0	799.6	758.1	804.6	971.8	 1197	 1314	 1352	 1240	 1061	807.6	572.8	405.6	342.1	313.8	194.4	130.8	110.8	113.1	315.7	 1689	 6331	9999.9	 5302	83.70	12.75	8.634	6.560	5.512	4.497	3.830	3.799	3.312	1.974	2.451	2.538	2.528	2.597	2.330	2.557	2.773	2.340	2.995	3.681	3.643	4.393	3.954	3.700	3.597	3.604	3.576	2.970	2.909	3.216	2.824	3.195	2.802	3.437	2.947	3.153	3.976	3.964	4.329	4.055	4.707	4.580	4.792	5.465	4.783
375.0	264.3	396.1	824.4	 1239	 1524	 1359	 1158	978.8	846.5	852.2	922.0	 1043	 1375	 1727	 1947	 2027	 1881	 1608	 1192	795.6	524.7	360.1	329.3	313.2	191.4	126.5	105.4	129.4	422.7	 1449	 3951	9999.9	 7787	109.5	11.90	8.664	6.222	5.756	5.235	4.021	2.927	2.988	2.329	3.026	3.581	1.694	2.184	3.406	2.958	2.477	3.260	4.836	3.830	4.308	3.796	3.210	3.598	3.841	4.074	2.766	3.087	3.398	2.830	3.747	3.817	4.656	3.553	3.934	4.789	5.074	5.071	5.415	5.833	5.990	7.024	7.286	6.733
380.0	284.2	486.1	 1001	 1479	 1604	 1402	 1174	956.2	850.1	900.6	 1016	 1255	 1729	 2196	 2495	 2600	 2410	 2069	 1530	 1003	633.4	409.9	323.0	335.8	270.7	157.8	116.6	100.9	148.8	367.5	941.7	 5591	9999.9	 5838	73.61	9.853	8.552	6.632	5.452	3.992	3.351	3.009	1.651	3.239	3.246	2.568	2.796	3.211	2.970	3.105	3.983	5.107	4.147	4.749	3.519	3.734	4.339	3.566	3.659	2.878	3.161	2.749	2.933	3.673	3.333	4.683	3.893	3.893	5.736	6.068	6.052	7.476	7.198	7.931	7.801	8.872	8.537
385.0	268.7	550.1	 1025	 1569	 1696	 1367	 1164	942.9	855.7	960.7	 1134	 1439	 2007	 2614	 3028	 3155	 2975	 2471	 1835	 1196	723.0	464.7	338.2	305.0	323.3	211.5	133.7	106.3	96.98	131.6	250.2	 1396	 7628	9999.9	 1021	38.51	9.735	6.870	5.376	4.611	3.778	3.437	2.903	2.533	3.411	3.032	2.586	3.641	3.681	3.117	4.512	5.184	4.124	4.710	3.653	3.644	4.208	3.552	3.735	3.035	2.966	3.856	2.922	3.154	3.532	4.223	4.246	5.250	6.690	7.004	7.390	8.586	8.605	9.768	8.567	9.817	10.04
390.0	271.6	557.8	 1125	 1676	 1745	 1346	 1059	917.8	878.7	995.7	 1234	 1669	 2375	 3084	 3634	 3778	 3569	 2993	 2177	 1396	840.2	521.9	372.5	299.9	293.9	280.1	193.5	127.8	101.3	91.01	105.2	352.2	 1919	 6652	9999.9	 3948	61.71	10.30	7.691	7.154	4.876	3.886	3.600	3.012	3.781	3.508	3.134	3.646	3.511	3.216	4.231	5.266	4.257	4.321	2.772	3.819	3.550	3.351	3.184	3.296	3.566	3.082	3.643	2.964	4.438	4.547	5.093	5.926	7.182	7.708	8.348	9.529	10.66	11.22	11.06	11.67	11.84
395.0	323.4	671.8	 1189	 1871	 1738	 1359	 1008	873.0	839.6	 1009	 1317	 1858	 2616	 3477	 4093	 4265	 4019	 3365	 2447	 1531	924.2	573.1	403.2	319.4	274.5	261.9	263.3	173.3	120.2	95.36	86.11	127.5	463.0	 1516	 4269	9999.9	 5968	80.45	10.10	8.269	6.291	4.317	4.353	4.206	3.521	2.593	3.877	4.147	4.256	3.858	4.184	5.277	5.001	4.760	3.404	3.445	3.864	3.208	2.866	3.334	2.871	2.155	3.279	3.513	5.421	4.585	6.006	6.390	7.368	8.228	9.414	10.96	12.22	11.99	12.83	13.05	13.19
400.0	291.0	623.7	 1261	 1888	 1739	 1275	953.9	813.0	829.2	982.1	 1338	 1933	 2774	 3627	 4301	 4496	 4229	 3508	 2557	 1613	964.7	602.0	412.0	326.1	269.9	243.0	261.8	227.7	143.5	107.8	87.43	83.48	144.7	369.3	 1016	 5944	9999.9	 4323	55.21	9.169	6.524	4.750	5.111	3.871	3.663	2.730	3.685	3.742	3.731	3.917	4.652	5.671	5.008	5.109	3.537	3.960	3.297	2.795	3.020	3.202	2.621	2.891	3.586	3.603	3.664	5.532	5.534	6.413	8.973	9.303	10.39	10.90	12.36	13.55	12.75	13.78	14.88
