Sample:	'1
File name:	G2025051503兴泉能源调节池.FD3
Run date:	'16:51:32, 05/19/2025
Operator:	dsjg
Comment:	'

Instrument
Model:	F-2700 FL Spectrophotometer
Serial number:	2198-001
ROM Version:	4J14000 07

Instrument parameters
Measurement type:	3-D scan
Data mode:	Fluorescence
EX  Start WL:	220.0 nm
EX  End WL:	600.0 nm
EX Sampling interval:	5.0 nm
EM  Start WL:	230.0 nm
EM  End WL:	650.0 nm
EM Sampling interval:	5.0 nm
Scan speed:	12000 nm/min
EX Slit:	5.0 nm
EM Slit:	5.0 nm
PMT Voltage:	700 V
Response:	Auto 
Corrected spectra:	Off
Contour interval:	50.000

Peak integration
Integration method:	Rectangular
Sensitivity:	1
Threshold:	1.000

Peaks
No.	ApexEX/EM(nm)	Height(Data)
1	225.0/375.0	110.3
2	225.0/410.0	167.0
3	230.0/405.0	166.4
4	230.0/505.0	66.33
5	235.0/420.0	147.3
6	235.0/515.0	56.02
7	240.0/525.0	44.73
8	245.0/270.0	147.2
9	245.0/540.0	41.41
10	270.0/240.0	5.547
11	270.0/300.0	 4998
12	270.0/585.0	365.8
13	295.0/410.0	259.1
14	300.0/335.0	146.3
15	305.0/340.0	161.0
16	315.0/355.0	106.3
17	320.0/360.0	130.3
18	325.0/365.0	120.0
19	330.0/370.0	96.85
20	335.0/380.0	108.0
21	340.0/385.0	105.7
22	345.0/390.0	81.85
23	350.0/395.0	81.92
24	355.0/405.0	80.41
25	360.0/410.0	66.31
26	365.0/415.0	63.09
27	370.0/425.0	59.83
28	375.0/430.0	48.48
29	380.0/435.0	44.61
30	385.0/445.0	41.59
31	390.0/300.0	15.01
32	390.0/450.0	32.88
33	395.0/455.0	29.67
34	400.0/465.0	26.73
35	405.0/470.0	21.11
36	410.0/475.0	19.15
37	415.0/485.0	16.81
38	420.0/490.0	14.19
39	425.0/495.0	13.48
40	430.0/505.0	11.52
41	435.0/300.0	8.404
42	435.0/510.0	9.281
43	440.0/515.0	8.109
44	445.0/525.0	7.526
45	450.0/530.0	6.145
46	455.0/535.0	5.282
47	460.0/545.0	4.687
48	465.0/550.0	3.427
49	470.0/560.0	3.081
50	475.0/565.0	2.491
51	485.0/580.0	1.639
52	540.0/300.0	23.19

Data points
	220.0	225.0	230.0	235.0	240.0	245.0	250.0	255.0	260.0	265.0	270.0	275.0	280.0	285.0	290.0	295.0	300.0	305.0	310.0	315.0	320.0	325.0	330.0	335.0	340.0	345.0	350.0	355.0	360.0	365.0	370.0	375.0	380.0	385.0	390.0	395.0	400.0	405.0	410.0	415.0	420.0	425.0	430.0	435.0	440.0	445.0	450.0	455.0	460.0	465.0	470.0	475.0	480.0	485.0	490.0	495.0	500.0	505.0	510.0	515.0	520.0	525.0	530.0	535.0	540.0	545.0	550.0	555.0	560.0	565.0	570.0	575.0	580.0	585.0	590.0	595.0	600.0
230.0	63.55	 1359	 3247	857.1	29.60	6.541	5.473	5.714	2.779	3.223	3.210	2.871	2.196	1.613	1.068	1.222	0.721	0.771	0.921	0.690	0.749	0.490	0.528	0.575	0.639	0.597	0.511	0.409	0.341	0.548	0.400	0.343	0.473	0.320	0.410	0.392	0.394	0.362	0.401	0.326	0.427	0.555	0.674	0.433	0.261	0.242	0.670	4.131	9.067	8.304	3.905	1.028	0.193	0.228	0.196	0.163	0.213	0.225	0.197	0.196	0.278	0.244	0.175	0.270	0.150	0.202	0.222	0.203	0.232	0.231	0.213	0.152	0.218	0.250	0.207	0.226	0.110
235.0	87.92	367.4	 1839	 2841	653.2	41.21	5.620	5.501	4.149	3.707	4.297	3.745	2.875	1.979	0.579	1.280	0.953	0.824	0.856	0.757	0.584	0.548	0.504	0.491	0.970	0.612	0.533	0.466	0.610	0.318	0.397	0.387	0.562	0.550	0.239	0.401	0.349	0.280	0.369	0.296	0.451	0.299	0.417	0.477	0.633	0.664	0.412	1.136	2.808	5.058	7.566	9.247	5.174	1.384	0.332	0.364	0.206	0.173	0.232	0.060	0.203	0.238	0.132	0.248	0.074	0.253	0.346	0.342	0.319	0.172	0.233	0.207	0.182	0.174	0.131	0.103	0.167
240.0	127.8	144.9	518.8	 2226	 2718	479.3	16.90	6.287	4.567	4.276	5.547	4.222	2.812	1.740	1.098	1.253	0.953	0.580	0.655	0.445	0.668	0.487	0.548	0.451	0.723	0.305	0.446	0.453	0.370	0.552	0.393	0.461	0.523	0.439	0.373	0.430	0.446	0.353	0.366	0.328	0.333	0.271	0.275	0.404	0.525	0.784	0.578	0.551	0.888	1.431	3.168	8.454	11.17	8.544	3.088	0.658	0.230	0.138	0.201	0.030	0.041	0.310	0.182	0.287	0.157	0.139	0.030	0.217	0.126	0.256	0.218	0.224	0.167	0.209	0.242	0.122	0.200
245.0	98.03	156.6	152.2	748.5	 2639	 2325	301.0	8.541	3.617	4.383	4.229	2.599	3.441	1.502	1.485	1.321	0.900	0.851	0.636	0.814	0.486	0.154	0.481	0.677	0.623	0.536	0.321	0.346	0.324	0.201	0.593	0.675	0.671	0.132	0.311	0.436	0.311	0.476	0.349	0.450	0.251	0.202	0.287	0.368	0.405	0.458	0.711	0.665	0.611	0.492	0.940	2.527	6.130	10.89	10.51	6.139	1.907	0.121	0.095	0.102	0.261	0.227	0.128	0.353	0.285	0.097	0.159	0.318	0.144	0.165	0.220	0.196	0.247	0.230	0.210	0.140	0.154
250.0	35.19	115.2	149.2	213.4	842.1	 2031	 2072	663.6	35.02	4.780	4.384	3.197	2.676	1.130	1.721	1.264	1.216	1.032	0.749	0.885	0.597	0.312	0.492	0.483	0.549	0.275	0.454	0.415	0.542	0.418	0.339	0.528	0.311	0.280	0.315	0.395	0.322	0.430	0.346	0.454	0.282	0.291	0.303	0.315	0.289	0.311	0.367	0.628	0.745	0.623	0.615	0.905	1.695	3.354	5.732	8.002	8.517	6.840	3.391	1.177	0.352	0.243	0.258	0.185	0.185	0.217	0.235	0.203	0.176	0.137	0.163	0.238	0.118	0.273	0.203	0.043	0.183
255.0	20.66	40.45	110.8	172.3	230.4	506.8	 1453	 2333	377.9	29.33	6.224	4.619	3.819	1.473	2.422	1.106	1.145	1.082	0.832	0.685	0.744	0.679	0.850	0.368	0.308	0.407	0.659	0.389	0.421	0.410	0.313	0.288	0.315	0.200	0.396	0.327	0.245	0.347	0.368	0.420	0.374	0.287	0.380	0.281	0.251	0.253	0.337	0.579	0.384	0.413	0.628	1.073	0.836	1.074	1.619	2.010	3.083	5.912	9.556	8.335	4.097	0.890	0.197	0.201	0.310	0.193	0.251	0.314	0.292	0.204	0.258	0.049	0.301	0.345	0.242	0.182	0.232
260.0	20.17	20.40	48.95	160.9	170.1	135.9	435.9	 1770	 2012	293.8	15.02	4.520	3.942	1.953	1.823	1.039	1.490	1.338	0.691	0.984	0.950	0.843	0.608	0.406	0.334	0.138	0.593	0.420	0.467	0.335	0.456	0.392	0.411	0.521	0.428	0.452	0.530	0.204	0.393	0.258	0.379	0.432	0.231	0.253	0.226	0.260	0.347	0.350	0.276	0.362	0.488	0.948	1.146	0.901	0.653	0.543	0.915	1.642	4.163	7.517	8.647	6.329	2.411	0.670	0.304	0.273	0.265	0.308	0.309	0.103	0.298	0.299	0.238	0.102	0.268	0.048	0.160
265.0	18.47	17.63	17.47	77.68	173.9	105.9	115.8	585.0	 1913	 1597	204.2	8.134	4.804	2.210	1.792	1.324	1.700	1.460	0.811	0.893	0.844	0.537	0.804	0.847	0.221	0.346	0.737	0.512	0.649	0.400	0.290	0.227	0.397	0.502	0.270	0.348	0.559	0.192	0.465	0.354	0.205	0.391	0.322	0.289	0.368	0.505	0.348	0.109	0.225	0.219	0.233	0.543	0.865	1.140	0.855	0.582	0.305	0.658	1.234	2.321	4.569	7.445	7.053	4.035	1.388	0.177	0.159	0.291	0.261	0.144	0.204	0.169	0.329	0.099	0.254	0.160	0.275
270.0	39.98	30.05	21.25	25.95	86.94	147.2	125.8	168.2	616.9	 1362	 1406	531.3	52.19	5.880	2.127	2.062	1.174	1.316	0.644	0.648	0.425	0.609	0.789	0.749	0.546	0.287	0.360	0.449	0.387	0.449	0.382	0.423	0.457	0.509	0.322	0.389	0.364	0.297	0.536	0.324	0.343	0.459	0.412	0.499	0.509	0.489	0.333	0.276	0.258	0.172	0.210	0.291	0.439	0.645	0.857	1.000	0.879	0.787	0.541	0.992	1.400	2.380	3.686	4.702	5.310	4.798	3.046	1.339	0.440	0.313	0.219	0.129	0.236	0.140	0.194	0.162	0.342
275.0	221.5	116.6	49.90	26.81	43.10	107.6	241.6	290.6	403.1	624.2	 1294	 1789	772.1	62.60	6.351	1.903	1.778	2.165	1.132	1.125	1.049	0.289	1.009	0.779	0.413	0.321	0.670	0.554	0.661	0.620	0.540	0.374	0.982	1.610	1.569	1.149	0.842	0.815	1.058	0.930	0.680	1.212	0.919	0.993	1.011	0.914	0.812	0.714	0.457	0.240	0.328	0.436	0.313	0.398	0.548	0.559	1.166	1.762	1.422	1.388	1.508	2.029	2.407	3.173	3.642	5.129	7.014	7.517	4.652	1.451	0.531	0.151	0.226	0.172	0.156	0.103	0.240
280.0	583.6	319.5	117.0	51.18	71.36	145.7	348.4	511.1	885.6	 1210	 1550	 2047	 1787	213.9	25.05	3.546	2.285	1.719	0.939	0.745	1.081	0.683	0.923	0.474	0.659	0.567	0.356	0.742	1.018	0.687	0.280	0.730	2.165	3.738	3.783	2.595	2.045	1.902	1.809	2.055	2.138	2.455	2.385	2.257	1.996	2.065	1.444	0.985	0.542	0.476	0.423	0.613	0.419	0.587	0.693	0.775	1.274	1.908	2.817	3.441	3.715	4.375	4.916	5.728	6.545	7.039	7.238	8.554	8.700	6.803	3.080	0.797	0.291	0.539	0.234	0.305	0.207
285.0	 1085	596.7	211.9	105.5	122.1	230.8	495.3	961.7	 1618	 2167	 2482	 2364	 1932	 1194	160.5	8.637	2.416	2.194	0.934	1.577	0.869	0.956	0.749	0.580	0.592	0.718	0.400	0.594	0.398	0.381	0.376	1.566	3.259	6.241	6.710	5.058	4.061	3.679	3.505	3.768	3.787	3.827	3.926	3.897	3.729	3.291	2.307	2.056	1.131	0.797	0.530	0.673	0.638	0.629	1.010	1.258	1.690	2.935	3.522	5.191	6.825	8.493	8.906	10.21	11.44	10.90	10.24	9.691	8.193	7.319	7.087	4.823	2.082	0.577	0.244	0.457	0.418
290.0	 1730	 1026	419.2	199.4	198.3	363.1	703.0	 1367	 2402	 3413	 3867	 3346	 1876	 1019	881.5	428.7	36.30	2.961	1.763	1.854	1.217	0.769	0.797	0.822	0.995	0.998	0.664	0.741	0.700	0.484	0.775	1.963	5.315	9.750	11.13	8.506	6.532	5.763	5.393	5.804	5.783	6.082	5.989	6.370	5.864	5.296	3.934	3.111	1.913	1.228	0.880	0.890	0.750	0.885	1.176	1.785	2.423	3.605	5.012	6.683	9.174	12.10	14.43	16.54	17.94	16.65	15.63	13.67	9.727	5.855	4.443	4.746	4.996	4.669	3.257	1.398	0.483
295.0	 2242	 1338	626.9	296.1	268.5	448.9	860.7	 1639	 2839	 4192	 4870	 4137	 2135	689.8	523.4	933.6	625.7	35.09	2.856	2.186	1.626	1.249	1.152	1.285	1.027	0.857	0.852	0.523	0.857	0.401	0.642	2.335	6.783	12.63	14.40	11.44	8.185	8.249	6.927	6.811	7.210	7.532	7.591	7.796	7.693	7.345	5.070	3.883	2.719	1.692	1.224	1.018	1.269	1.225	1.670	1.878	2.874	3.958	5.921	8.213	10.71	14.16	16.77	19.54	22.94	21.57	19.51	16.78	11.54	6.302	3.689	2.549	2.284	2.989	5.014	6.410	3.926
300.0	 2359	 1502	720.4	349.1	284.4	470.2	894.3	 1673	 2873	 4226	 4998	 4374	 2236	646.8	257.9	547.5	 1033	440.7	13.28	2.535	2.106	1.503	1.106	1.204	0.815	0.802	1.001	0.396	0.650	0.556	0.856	2.259	6.916	13.06	15.01	11.84	9.322	8.312	7.317	7.349	8.041	7.775	7.990	8.404	7.720	7.417	5.492	4.497	3.085	1.963	1.300	1.459	1.242	1.321	1.672	1.978	2.798	4.189	5.855	8.221	10.74	13.93	17.20	19.69	23.19	22.83	21.37	18.17	12.00	6.672	3.704	2.101	1.501	1.559	2.230	4.273	6.386
305.0	 2297	 1518	748.2	376.1	289.8	440.7	855.0	 1571	 2708	 3947	 4669	 4234	 2239	645.7	196.4	196.8	634.6	 1003	105.5	5.706	2.041	1.787	1.313	1.038	1.019	0.981	1.022	0.830	0.927	0.506	0.837	2.451	6.614	12.25	14.14	11.77	9.337	8.041	7.289	7.289	7.362	7.499	7.777	7.750	7.824	7.748	5.909	4.377	3.222	1.994	1.610	1.286	1.222	1.427	1.531	2.027	2.932	4.002	5.680	7.530	10.24	13.25	15.88	18.51	21.04	21.22	20.26	18.10	12.18	6.359	3.689	2.124	1.400	1.026	1.105	1.598	3.052
310.0	 1968	 1376	703.6	360.3	260.9	380.1	712.6	 1310	 2265	 3297	 3894	 3534	 2033	677.2	183.6	81.43	186.5	530.6	740.7	396.0	27.57	1.608	1.575	1.388	0.804	0.906	0.954	0.683	0.938	0.786	0.746	1.972	5.504	10.27	12.14	9.929	8.051	7.181	6.248	6.258	6.155	6.598	6.782	6.563	6.399	6.433	4.988	3.895	2.982	1.911	1.429	1.316	1.293	1.281	1.373	1.753	2.521	3.338	4.799	6.406	8.705	11.19	13.20	15.38	17.42	16.84	16.23	15.41	10.97	6.905	3.876	2.272	1.323	0.985	0.902	0.892	1.038
315.0	 1585	 1130	601.8	319.8	220.2	306.2	560.5	 1023	 1742	 2572	 3021	 2715	 1569	680.6	210.4	55.46	54.62	131.6	312.7	802.1	568.3	29.06	1.555	1.030	0.888	0.950	0.943	0.623	0.530	0.694	0.899	1.676	4.447	7.832	9.744	7.916	6.557	5.854	5.505	5.294	5.268	4.881	5.080	5.417	5.020	4.995	4.159	3.208	2.569	1.813	1.333	1.182	1.159	0.892	1.205	1.573	2.166	2.684	3.703	5.465	6.918	8.630	10.57	12.42	13.18	13.27	12.29	11.77	8.363	5.485	3.685	2.833	1.664	0.993	0.667	0.622	0.623
320.0	 1300	962.1	541.5	278.1	183.2	251.0	455.0	819.5	 1397	 2042	 2416	 2174	 1251	553.9	300.2	77.96	25.12	38.11	87.41	386.0	931.8	403.3	11.27	1.228	1.160	1.114	0.820	0.693	0.627	0.740	0.707	1.342	3.606	6.173	8.095	6.864	5.178	4.888	4.416	4.114	3.893	3.974	4.501	4.256	4.013	4.071	3.056	2.889	2.181	1.305	1.233	1.290	0.892	0.669	0.965	1.270	1.712	2.222	3.147	4.563	5.448	6.669	8.478	9.605	10.99	10.77	9.916	9.262	6.748	4.260	2.846	2.379	2.193	1.291	0.760	0.556	0.525
325.0	 1073	780.1	458.2	241.4	155.3	202.9	362.2	656.1	 1112	 1631	 1935	 1740	997.3	407.9	267.1	151.6	27.56	16.96	26.82	112.7	501.7	919.4	82.76	4.943	1.415	1.116	0.915	0.970	0.696	0.816	0.792	1.180	3.192	5.101	6.187	5.491	4.528	4.230	3.578	3.437	3.303	3.276	3.686	3.676	3.481	3.150	2.650	2.360	1.872	1.160	1.036	0.981	0.750	0.747	0.812	1.060	1.571	1.792	2.417	3.522	4.456	5.855	6.762	7.718	8.632	8.516	8.008	7.566	5.427	3.307	2.279	1.681	1.452	1.662	1.317	0.851	0.590
330.0	796.5	582.2	352.9	185.9	118.6	151.9	274.8	482.4	805.8	 1186	 1419	 1276	740.1	292.5	156.4	164.2	107.6	24.92	13.38	31.61	135.7	443.9	614.7	327.8	23.43	1.313	1.093	1.081	0.870	0.772	0.629	1.277	2.452	4.013	4.707	4.085	3.365	3.067	2.524	2.647	2.496	2.591	2.687	2.655	2.657	2.478	2.078	1.840	1.385	1.012	0.920	0.827	0.564	0.572	0.733	0.846	1.120	1.459	1.810	2.528	3.210	4.445	4.945	5.990	6.627	6.278	6.099	5.689	3.941	2.561	1.582	1.187	0.975	1.051	1.162	1.328	1.090
335.0	573.2	429.8	268.6	143.8	93.40	117.0	191.1	342.5	581.0	832.2	995.5	898.4	533.2	220.4	93.21	78.13	146.3	102.3	17.33	13.67	37.24	107.5	239.0	731.1	495.0	27.66	1.389	1.154	0.979	0.756	0.792	1.019	1.827	3.098	3.360	2.925	2.685	2.247	1.983	1.950	1.737	1.802	1.790	1.831	1.924	1.877	1.521	1.224	1.249	0.772	0.611	0.690	0.536	0.522	0.616	0.612	0.935	1.240	1.314	1.791	2.436	3.299	3.619	4.149	4.383	4.698	4.287	4.105	2.996	1.944	1.093	0.947	0.639	0.564	0.672	0.738	1.186
340.0	437.0	347.1	219.3	117.9	75.07	100.1	152.2	264.9	441.3	636.2	758.4	683.8	410.4	171.4	70.79	42.90	85.79	161.0	58.02	11.41	15.16	30.59	64.59	324.2	872.9	367.1	11.27	1.051	0.896	1.070	0.641	0.900	1.454	2.435	2.776	2.271	2.220	1.915	1.646	1.424	1.498	1.476	1.465	1.347	1.542	1.534	1.237	1.087	1.029	0.700	0.581	0.670	0.459	0.351	0.481	0.526	0.775	1.049	1.145	1.357	1.884	2.530	2.854	3.209	3.461	3.462	3.526	3.033	2.238	1.748	1.046	0.882	0.714	0.475	0.493	0.491	0.514
345.0	341.2	269.6	185.3	98.73	67.75	80.74	121.8	211.5	349.7	497.7	580.2	530.6	319.2	136.7	61.17	31.91	41.04	121.4	118.7	28.03	9.707	12.93	20.25	89.77	460.0	845.1	70.37	4.133	1.089	1.258	0.576	0.827	1.219	1.765	2.044	2.024	1.713	1.517	1.531	0.972	1.192	1.304	1.287	1.018	1.151	1.142	1.001	0.929	0.727	0.460	0.610	0.432	0.381	0.512	0.407	0.469	0.688	0.822	1.055	1.078	1.405	1.827	1.896	2.599	2.904	2.937	2.579	2.307	1.880	1.561	0.794	0.726	0.433	0.409	0.322	0.308	0.452
350.0	250.1	199.8	134.4	79.80	58.46	62.42	92.70	152.0	250.8	351.1	411.6	380.3	236.1	109.1	51.07	28.50	25.83	51.53	110.8	105.0	28.66	10.35	11.42	26.30	120.0	398.9	536.0	285.7	21.70	1.188	0.776	0.700	1.345	1.443	1.596	1.288	1.370	1.230	1.087	1.040	0.985	0.911	0.888	0.747	1.041	0.839	0.877	0.779	0.751	0.490	0.504	0.380	0.402	0.481	0.408	0.403	0.482	0.720	0.768	0.866	1.045	1.293	1.601	1.749	2.029	1.981	2.067	1.792	1.482	1.013	0.841	0.619	0.259	0.347	0.380	0.295	0.331
355.0	173.4	146.3	100.6	66.11	51.28	49.84	67.22	110.6	173.2	243.8	290.5	271.9	171.9	86.79	46.62	31.30	25.70	28.49	46.99	106.3	94.48	22.40	10.58	12.76	33.01	95.78	200.1	626.5	437.9	26.15	1.061	1.054	0.954	1.382	1.160	0.935	1.156	1.040	1.030	0.830	0.541	0.633	0.818	0.670	0.750	0.546	0.735	0.653	0.577	0.490	0.381	0.395	0.336	0.451	0.295	0.327	0.475	0.704	0.520	0.761	0.929	1.017	1.143	1.346	1.493	1.684	1.412	1.230	0.962	0.846	0.722	0.567	0.322	0.314	0.412	0.205	0.503
360.0	144.2	125.7	86.88	70.11	43.41	43.69	58.35	89.96	136.4	194.3	221.6	209.5	138.3	77.17	49.92	37.52	31.87	29.04	29.62	58.96	130.3	67.02	14.08	11.18	14.60	27.81	53.60	269.7	750.7	328.7	10.42	1.231	1.068	1.071	1.187	0.925	0.780	0.915	0.922	0.727	0.569	0.661	0.715	0.581	0.622	0.752	0.698	0.712	0.473	0.588	0.406	0.425	0.439	0.394	0.296	0.281	0.502	0.596	0.506	0.435	0.802	0.715	1.118	1.056	1.229	1.303	1.193	0.966	0.770	0.569	0.683	0.505	0.348	0.425	0.361	0.408	0.392
365.0	132.4	111.0	82.79	63.23	48.39	38.73	51.94	74.63	111.4	155.3	179.6	170.8	121.5	77.84	58.51	49.69	42.76	38.70	31.45	37.02	88.48	120.0	36.85	12.52	11.78	13.50	18.03	73.14	396.1	746.1	64.86	4.015	1.235	1.098	1.163	0.994	0.830	0.721	0.888	0.782	0.726	0.774	0.469	0.579	0.628	0.697	0.525	0.616	0.453	0.310	0.366	0.525	0.374	0.335	0.374	0.277	0.386	0.498	0.460	0.355	0.672	0.565	0.862	0.947	1.134	1.167	1.076	0.823	0.776	0.705	0.478	0.379	0.513	0.326	0.387	0.505	0.387
370.0	111.6	102.1	81.19	66.49	50.53	43.57	48.19	64.14	92.01	124.1	149.1	144.6	115.8	91.03	81.90	73.76	68.27	57.79	43.49	37.04	47.05	92.90	96.85	39.09	13.86	12.07	11.40	21.79	102.3	356.6	494.7	252.8	18.92	1.270	1.127	1.111	0.828	0.799	0.942	0.727	0.697	0.618	0.553	0.484	0.639	0.618	0.530	0.591	0.432	0.284	0.408	0.457	0.394	0.341	0.291	0.300	0.407	0.404	0.411	0.364	0.539	0.616	0.722	0.778	0.991	1.097	0.696	0.831	0.692	0.588	0.480	0.559	0.599	0.532	0.544	0.569	0.589
375.0	102.3	110.3	95.46	76.50	58.46	45.89	47.23	55.39	79.29	100.3	125.7	133.2	125.9	112.4	114.9	110.0	103.0	85.04	64.64	47.93	39.50	47.26	86.12	101.8	31.94	13.70	10.97	11.08	27.89	85.05	183.9	559.1	366.1	21.91	1.405	1.213	0.909	0.861	0.909	0.715	0.856	0.543	0.652	0.394	0.596	0.589	0.502	0.419	0.448	0.413	0.415	0.391	0.443	0.346	0.343	0.287	0.428	0.365	0.356	0.399	0.516	0.580	0.637	0.719	0.819	0.770	0.599	0.801	0.684	0.747	0.576	0.651	0.771	0.594	0.806	0.728	0.821
380.0	109.3	96.69	103.2	93.27	66.20	49.93	50.28	56.87	71.37	95.18	119.7	132.8	138.7	137.6	145.9	142.3	132.5	111.4	82.47	60.59	42.34	37.41	51.62	108.0	72.13	18.87	11.82	9.411	12.46	23.82	48.09	242.4	625.8	254.7	7.969	1.165	1.018	1.072	0.869	0.577	0.522	0.610	0.496	0.578	0.566	0.521	0.344	0.427	0.594	0.472	0.426	0.520	0.411	0.403	0.483	0.376	0.300	0.345	0.485	0.412	0.374	0.566	0.767	0.645	0.678	0.794	0.702	0.840	0.747	0.879	0.695	0.987	0.900	0.836	0.850	0.919	0.793
385.0	111.1	111.7	115.3	104.0	74.41	51.37	51.55	58.52	71.27	90.56	114.9	138.3	151.0	161.7	176.0	172.4	157.6	134.0	98.85	69.66	48.24	37.30	36.53	70.86	105.7	40.80	13.14	9.209	8.852	10.29	14.68	64.30	334.4	577.2	52.18	3.218	1.221	1.039	0.905	0.761	0.572	0.473	0.416	0.583	0.343	0.506	0.341	0.440	0.506	0.464	0.386	0.580	0.526	0.408	0.475	0.411	0.350	0.375	0.277	0.348	0.404	0.525	0.575	0.497	0.633	0.841	0.838	0.769	0.825	0.795	0.868	0.936	0.934	0.965	1.166	1.063	1.079
390.0	117.1	125.5	129.1	115.2	83.09	56.39	49.53	58.01	68.94	87.60	115.9	145.6	168.1	191.2	206.4	206.3	193.2	161.4	119.4	83.28	57.18	41.39	33.57	39.88	73.01	81.85	38.14	12.26	8.529	7.850	7.570	17.93	85.63	277.3	377.5	188.0	14.71	1.292	1.226	0.923	0.751	0.604	0.576	0.614	0.458	0.499	0.529	0.394	0.578	0.539	0.503	0.620	0.556	0.564	0.536	0.370	0.409	0.496	0.478	0.398	0.449	0.541	0.574	0.678	0.689	0.628	0.789	0.788	0.942	0.877	0.892	0.945	1.086	1.173	1.250	1.346	1.098
395.0	123.7	134.1	135.2	133.5	91.92	63.99	56.88	58.94	68.83	85.78	115.3	153.2	181.8	216.6	233.3	240.6	223.7	183.3	137.0	95.17	63.58	44.96	35.26	31.25	37.03	63.60	81.92	30.79	9.554	7.838	6.601	7.706	21.97	65.82	138.9	411.8	272.2	16.35	1.251	0.972	1.215	0.646	0.764	0.519	0.292	0.468	0.627	0.484	0.632	0.656	0.539	0.609	0.773	0.503	0.459	0.474	0.375	0.470	0.529	0.395	0.402	0.514	0.630	0.680	0.676	0.781	0.857	0.995	0.830	1.003	0.998	0.957	1.376	1.400	1.312	1.383	1.366
400.0	137.5	146.8	154.5	140.6	100.3	69.29	52.18	55.89	66.19	85.64	114.0	152.8	192.7	227.6	247.3	252.1	232.9	195.2	147.2	102.9	67.58	48.62	38.19	29.39	27.46	35.83	77.16	65.55	16.59	7.831	6.287	5.681	8.100	17.65	35.71	181.2	451.1	177.0	5.894	1.240	1.173	0.694	0.691	0.459	0.605	0.635	0.624	0.479	0.804	0.579	0.512	0.597	0.575	0.692	0.461	0.550	0.576	0.521	0.470	0.395	0.457	0.505	0.560	0.766	0.731	0.718	0.764	0.788	0.989	1.024	1.277	0.942	1.213	1.424	1.108	1.593	1.499
405.0	149.6	160.5	166.4	151.6	106.5	70.60	59.99	53.58	64.63	83.15	110.2	151.3	192.2	233.0	254.4	256.8	238.9	197.9	151.6	104.5	69.06	49.19	37.95	29.45	25.47	24.65	46.04	80.41	38.52	9.946	6.428	5.299	4.981	6.518	11.17	47.46	235.4	402.9	43.79	2.804	1.122	1.025	0.761	0.675	0.435	0.761	0.637	0.625	0.882	0.709	0.632	0.511	0.660	0.623	0.529	0.470	0.419	0.515	0.541	0.449	0.408	0.578	0.525	0.789	0.496	0.708	0.797	0.933	1.159	1.042	1.296	1.138	1.302	1.552	1.204	1.690	1.310
410.0	135.4	167.0	163.8	143.6	110.3	68.83	58.51	55.93	63.84	79.39	105.2	146.9	192.4	229.8	253.6	259.1	240.3	197.9	149.3	104.5	70.39	49.78	37.86	29.32	24.32	20.94	24.48	48.66	66.31	32.11	8.682	5.741	4.798	5.044	5.412	13.14	59.69	197.1	293.8	152.4	11.24	1.040	0.789	0.765	0.611	0.531	0.584	0.633	0.625	0.611	0.514	0.585	0.600	0.591	0.499	0.534	0.402	0.462	0.482	0.364	0.480	0.565	0.420	0.491	0.546	0.680	0.682	0.998	1.034	1.027	1.084	1.142	1.454	1.468	1.383	1.386	1.451
