Sample:	'1
File name:	T2025031415½ªÃÈÂ·.FD3
Run date:	'11:23:18, 03/17/2025
Operator:	Administrator
Comment:	'

Instrument
Model:	F-2700 FL Spectrophotometer
Serial number:	23B8-004
ROM Version:	4J14000 07

Instrument parameters
Measurement type:	3-D scan
Data mode:	Fluorescence
EX  Start WL:	220.0 nm
EX  End WL:	600.0 nm
EX Sampling interval:	5.0 nm
EM  Start WL:	230.0 nm
EM  End WL:	650.0 nm
EM Sampling interval:	5.0 nm
Scan speed:	12000 nm/min
EX Slit:	5.0 nm
EM Slit:	5.0 nm
PMT Voltage:	700 V
Response:	Auto 
Corrected spectra:	Off
Contour interval:	50.000

Peak integration
Integration method:	Rectangular
Sensitivity:	1
Threshold:	1.000

Peaks
No.	ApexEX/EM(nm)	Height(Data)
1	225.0/600.0	30.84
2	225.0/620.0	38.29
3	225.0/635.0	38.49
4	230.0/340.0	1983
5	230.0/630.0	36.65
6	240.0/265.0	358.5
7	240.0/385.0	2017
8	240.0/400.0	1695
9	240.0/525.0	240.2
10	245.0/270.0	362.6
11	245.0/535.0	202.0
12	250.0/275.0	462.0
13	250.0/545.0	160.4
14	255.0/280.0	547.8
15	255.0/565.0	131.8
16	260.0/285.0	509.1
17	260.0/575.0	100.9
18	265.0/585.0	94.03
19	270.0/600.0	83.81
20	275.0/305.0	1363
21	275.0/615.0	93.99
22	280.0/315.0	1375
23	280.0/330.0	1338
24	280.0/385.0	2307
25	280.0/405.0	1972
26	280.0/625.0	87.19
27	285.0/320.0	1384
28	285.0/635.0	71.81
29	320.0/360.0	398.0
30	335.0/385.0	738.2
31	335.0/405.0	818.3
32	355.0/385.0	1088
33	355.0/405.0	1132
34	370.0/405.0	1090
35	415.0/485.0	39.15
36	430.0/505.0	23.33
37	445.0/525.0	14.27
38	470.0/560.0	4.596
39	475.0/340.0	6.090
40	485.0/385.0	7.732
41	505.0/275.0	2.909
42	510.0/280.0	3.239
43	520.0/285.0	3.577
44	530.0/290.0	3.398
45	545.0/385.0	8.136
46	555.0/305.0	7.107
47	560.0/310.0	7.200
48	570.0/315.0	7.437
49	570.0/385.0	12.44
50	580.0/320.0	7.965
51	585.0/325.0	7.632

Data points
	220.0	225.0	230.0	235.0	240.0	245.0	250.0	255.0	260.0	265.0	270.0	275.0	280.0	285.0	290.0	295.0	300.0	305.0	310.0	315.0	320.0	325.0	330.0	335.0	340.0	345.0	350.0	355.0	360.0	365.0	370.0	375.0	380.0	385.0	390.0	395.0	400.0	405.0	410.0	415.0	420.0	425.0	430.0	435.0	440.0	445.0	450.0	455.0	460.0	465.0	470.0	475.0	480.0	485.0	490.0	495.0	500.0	505.0	510.0	515.0	520.0	525.0	530.0	535.0	540.0	545.0	550.0	555.0	560.0	565.0	570.0	575.0	580.0	585.0	590.0	595.0	600.0
230.0	42.59	938.4	1907	485.6	22.14	5.284	4.139	3.601	3.421	3.142	2.758	2.565	2.331	2.033	1.667	1.402	1.182	1.072	0.969	0.858	0.774	0.776	0.715	0.663	0.639	0.608	0.691	0.601	0.580	0.565	0.562	0.527	0.463	0.393	0.376	0.364	0.287	0.307	0.271	0.276	0.259	0.283	0.307	0.239	0.239	0.219	1.352	6.271	9.342	5.829	1.998	0.431	0.215	0.165	0.187	0.183	0.197	0.196	0.191	0.171	0.186	0.190	0.179	0.171	0.202	0.178	0.179	0.183	0.182	0.186	0.181	0.173	0.198	0.184	0.175	0.172	0.181
235.0	56.73	264.4	1417	2367	502.9	37.91	5.792	3.836	4.228	3.514	2.888	2.499	2.338	2.472	1.731	1.592	1.089	1.102	0.910	0.968	0.890	0.722	0.787	0.689	0.590	0.616	0.718	0.537	0.576	0.595	0.533	0.541	0.504	0.386	0.442	0.305	0.277	0.291	0.256	0.281	0.241	0.270	0.303	0.320	0.349	0.235	0.468	1.679	3.690	6.691	9.729	10.31	4.356	0.897	0.202	0.178	0.203	0.198	0.205	0.166	0.215	0.178	0.192	0.171	0.184	0.186	0.163	0.230	0.171	0.171	0.174	0.182	0.167	0.192	0.165	0.180	0.163
240.0	81.80	119.6	433.5	2229	2754	396.1	23.45	4.916	4.368	4.103	3.520	3.223	2.456	2.417	2.261	1.756	1.164	1.103	0.969	0.892	0.851	0.799	0.733	0.654	0.629	0.674	0.770	0.577	0.593	0.577	0.585	0.541	0.471	0.364	0.404	0.356	0.317	0.287	0.248	0.277	0.250	0.257	0.277	0.292	0.403	0.461	0.372	0.628	1.044	2.027	5.244	13.53	16.70	11.42	3.720	0.614	0.199	0.220	0.200	0.181	0.195	0.176	0.210	0.210	0.204	0.162	0.177	0.238	0.195	0.173	0.190	0.182	0.169	0.186	0.155	0.197	0.188
245.0	68.17	153.0	145.5	779.5	3146	2787	310.1	9.974	4.839	4.026	4.040	3.031	3.292	2.519	1.942	1.742	1.359	1.279	1.065	0.857	0.867	0.889	0.762	0.774	0.583	0.698	0.699	0.656	0.591	0.551	0.562	0.528	0.400	0.472	0.349	0.343	0.324	0.354	0.298	0.275	0.241	0.272	0.277	0.271	0.315	0.422	0.566	0.636	0.450	0.605	1.373	4.351	11.15	19.69	19.62	9.699	2.616	0.397	0.271	0.198	0.193	0.189	0.233	0.179	0.185	0.204	0.191	0.228	0.200	0.179	0.224	0.207	0.229	0.164	0.159	0.197	0.205
250.0	34.64	116.5	205.7	264.1	997.2	2891	3622	1072	59.29	6.003	4.873	4.012	3.442	3.018	2.296	1.774	1.496	1.316	1.089	0.939	0.897	0.966	0.784	0.785	0.606	0.672	0.640	0.712	0.704	0.521	0.520	0.568	0.475	0.463	0.346	0.342	0.327	0.275	0.316	0.303	0.302	0.264	0.283	0.263	0.279	0.279	0.362	0.656	0.765	0.723	0.701	1.244	2.829	5.968	10.86	16.60	20.82	18.19	10.14	2.748	0.386	0.206	0.252	0.219	0.215	0.208	0.204	0.214	0.183	0.165	0.186	0.194	0.193	0.185	0.157	0.183	0.210
255.0	27.75	42.69	148.2	309.4	308.0	725.3	2733	5447	1469	58.88	7.141	5.227	4.439	3.339	2.710	1.983	1.625	1.712	1.170	1.014	1.026	1.073	0.783	0.762	0.822	0.746	0.683	0.722	0.700	0.697	0.622	0.556	0.503	0.409	0.349	0.318	0.342	0.263	0.304	0.292	0.325	0.337	0.290	0.267	0.273	0.297	0.255	0.342	0.449	0.722	1.153	1.263	1.184	1.547	2.675	4.027	6.834	15.87	31.33	27.85	15.60	2.581	0.363	0.234	0.237	0.195	0.204	0.237	0.211	0.199	0.166	0.210	0.196	0.196	0.186	0.211	0.235
260.0	28.11	23.09	58.76	263.5	315.0	221.2	796.0	4268	5895	252.8	28.39	7.479	5.689	3.803	2.785	2.606	1.925	1.589	1.242	1.221	1.117	1.038	0.848	0.834	0.830	0.771	0.696	0.708	0.613	0.710	0.702	0.636	0.459	0.436	0.409	0.380	0.333	0.303	0.293	0.306	0.257	0.305	0.246	0.270	0.276	0.265	0.276	0.288	0.282	0.339	0.681	1.505	1.658	1.226	0.895	1.237	1.819	4.209	11.80	25.85	40.51	26.03	11.76	1.331	0.287	0.213	0.183	0.256	0.206	0.234	0.191	0.196	0.172	0.209	0.194	0.224	0.251
265.0	29.24	21.14	26.75	123.1	358.5	238.1	216.7	1370	5824	5556	202.7	15.14	6.927	4.490	3.432	2.893	2.118	1.620	1.503	1.306	1.158	0.926	0.975	0.770	0.869	0.897	0.673	0.729	0.798	0.783	0.652	0.652	0.526	0.426	0.402	0.367	0.293	0.321	0.341	0.279	0.287	0.332	0.311	0.295	0.301	0.261	0.258	0.250	0.253	0.229	0.355	0.764	1.533	2.115	1.592	0.775	0.656	1.214	2.962	7.195	18.66	34.99	44.83	22.92	6.933	0.643	0.210	0.295	0.234	0.214	0.219	0.236	0.242	0.224	0.211	0.212	0.247
270.0	33.12	28.84	25.78	47.42	172.7	362.6	273.4	359.7	1761	5121	6437	795.6	51.01	7.198	4.695	3.119	2.449	1.984	1.783	1.495	1.256	1.198	1.012	0.987	0.897	0.922	0.744	0.758	0.774	0.705	0.757	0.739	0.567	0.527	0.482	0.473	0.404	0.333	0.353	0.359	0.327	0.353	0.344	0.354	0.324	0.300	0.268	0.298	0.276	0.237	0.254	0.352	0.588	1.070	1.650	2.011	1.911	1.216	1.033	1.973	4.571	9.519	19.06	29.27	30.75	33.52	15.72	6.230	0.780	0.273	0.286	0.272	0.214	0.268	0.229	0.237	0.259
275.0	52.07	54.84	51.33	38.73	65.88	169.6	462.0	326.9	443.6	1246	4009	8882	1144	52.48	7.200	4.399	3.481	2.955	2.113	1.336	1.480	1.317	1.186	1.005	1.079	0.942	0.951	0.885	0.781	0.813	0.824	0.780	0.729	0.589	0.578	0.485	0.477	0.411	0.429	0.364	0.355	0.324	0.360	0.363	0.299	0.307	0.358	0.387	0.330	0.333	0.268	0.322	0.378	0.516	0.638	0.974	1.926	2.909	2.479	1.259	1.370	2.449	4.566	6.956	8.711	19.35	42.40	54.59	24.42	6.636	0.609	0.353	0.246	0.265	0.314	0.275	0.250
280.0	74.43	83.88	79.98	55.14	45.16	79.33	281.7	547.8	258.5	335.5	1093	5902	8614	840.4	26.05	6.407	4.446	3.342	2.319	1.879	1.998	1.333	1.152	1.141	1.083	0.868	0.932	0.968	0.820	0.761	0.820	0.826	0.686	0.632	0.603	0.539	0.504	0.486	0.510	0.327	0.372	0.399	0.410	0.415	0.415	0.533	0.435	0.457	0.495	0.352	0.287	0.334	0.370	0.439	0.418	0.537	0.794	1.739	3.239	2.965	1.671	1.024	1.513	1.982	2.446	4.896	12.99	31.47	51.63	33.20	20.08	3.684	0.358	0.303	0.288	0.299	0.349
285.0	105.5	133.0	113.9	68.72	49.41	59.45	122.6	447.8	509.1	189.7	330.6	1692	7244	7271	120.7	12.08	5.598	3.944	2.807	2.292	1.845	1.624	1.399	1.149	1.252	0.947	0.989	0.947	0.890	0.920	0.887	0.856	0.770	0.638	0.615	0.547	0.590	0.523	0.471	0.355	0.383	0.393	0.394	0.411	0.424	0.494	0.518	0.552	0.587	0.492	0.412	0.346	0.453	0.418	0.376	0.447	0.565	0.828	1.519	2.749	3.577	2.519	1.119	0.994	1.039	1.620	3.456	8.070	18.15	36.10	57.17	31.21	14.72	1.523	0.329	0.303	0.351
290.0	142.3	177.0	165.6	110.4	73.81	68.75	89.93	204.5	500.0	475.5	241.4	515.0	2029	5479	6291	1822	34.24	6.213	3.719	2.744	2.341	1.873	1.543	1.281	1.321	1.164	1.043	1.091	0.993	0.888	0.975	0.859	0.748	0.663	0.642	0.623	0.563	0.517	0.536	0.489	0.447	0.464	0.435	0.521	0.508	0.643	0.611	0.701	0.688	0.580	0.506	0.514	0.509	0.473	0.438	0.506	0.559	0.578	0.785	1.189	2.000	2.939	3.398	2.758	1.710	1.243	1.551	2.557	4.787	9.294	19.41	28.61	40.75	37.57	20.68	10.64	1.969
295.0	171.5	240.8	241.1	161.7	117.4	109.5	128.4	173.4	285.1	605.3	715.2	391.4	639.4	1373	3278	7699	695.7	38.75	5.793	4.009	2.652	2.559	1.798	1.649	1.364	1.170	1.109	1.164	1.019	0.978	0.906	0.944	0.763	0.751	0.644	0.603	0.634	0.628	0.600	0.486	0.561	0.551	0.493	0.536	0.604	0.657	0.733	0.793	0.902	0.718	0.604	0.675	0.604	0.651	0.657	0.686	0.708	0.694	0.741	0.985	1.199	1.468	2.113	3.324	4.713	3.328	2.136	1.683	2.356	3.111	5.213	7.195	10.20	15.01	34.09	55.96	32.33
300.0	217.4	294.4	315.2	241.8	188.4	193.9	221.4	274.8	324.2	542.2	1025	767.9	495.9	550.1	967.9	4620	5725	563.2	20.72	5.471	3.750	3.064	2.106	1.841	1.460	1.201	1.275	1.166	1.177	1.021	0.933	1.013	0.868	0.706	0.849	0.676	0.616	0.693	0.637	0.516	0.491	0.479	0.529	0.553	0.670	0.841	0.883	1.146	1.130	0.963	0.885	0.950	0.923	1.028	0.991	0.966	1.170	1.229	1.259	1.383	1.539	1.789	2.110	2.707	4.405	5.472	4.991	3.202	2.645	2.534	2.708	2.941	3.618	4.504	9.986	25.19	47.85
305.0	279.8	402.6	421.1	336.6	295.3	309.0	376.1	463.5	561.8	724.9	1060	1363	849.0	584.8	565.5	1449	5376	4932	78.26	10.65	4.777	3.552	2.453	2.113	1.748	1.551	1.380	1.270	1.204	1.058	1.175	1.056	0.907	0.743	0.827	0.737	0.704	0.655	0.606	0.542	0.584	0.548	0.671	0.607	0.852	0.916	1.006	1.350	1.409	1.160	1.111	1.286	1.330	1.245	1.450	1.550	1.818	1.922	2.294	2.177	2.486	2.918	3.051	3.665	4.187	5.204	6.689	7.107	5.854	3.883	3.126	3.409	3.047	3.184	4.193	7.370	15.06
310.0	327.0	498.4	558.5	462.3	402.8	429.7	514.2	622.8	727.1	877.1	1064	1348	1371	902.1	626.2	665.4	1678	4016	4716	1486	25.46	5.162	3.466	2.574	2.084	1.775	1.460	1.349	1.251	1.216	1.228	1.118	1.014	0.867	0.840	0.737	0.681	0.722	0.738	0.693	0.609	0.607	0.756	0.777	0.831	1.071	1.272	1.700	1.773	1.515	1.566	1.629	1.692	1.678	1.864	1.904	2.235	2.684	2.916	2.993	3.234	3.582	3.978	4.301	4.568	4.986	5.849	6.607	7.200	7.070	5.795	4.606	3.570	3.613	3.425	3.905	5.376
315.0	381.9	624.5	709.9	604.0	517.9	531.8	616.2	732.5	825.2	978.2	1144	1291	1375	1362	839.8	573.8	712.4	1109	2430	5930	510.2	28.60	4.734	3.256	2.720	2.108	1.878	1.546	1.321	1.386	1.296	1.306	1.015	0.947	0.812	0.805	0.799	0.763	0.789	0.711	0.618	0.727	0.847	0.806	1.003	1.249	1.495	2.084	2.125	1.955	1.921	2.030	2.028	2.070	2.259	2.389	2.534	3.130	3.272	3.355	3.696	3.840	4.294	4.470	5.247	4.981	5.739	5.944	6.545	6.593	7.437	7.198	5.885	4.528	3.738	3.743	3.581
320.0	447.3	727.9	864.4	712.6	589.0	570.9	673.3	776.8	871.4	1021	1182	1315	1308	1384	1088	640.0	536.9	471.3	669.3	3407	5336	437.9	14.57	4.283	2.836	2.532	2.052	1.711	1.509	1.471	1.412	1.313	0.887	0.918	0.904	0.900	0.854	0.773	0.789	0.671	0.775	0.783	0.898	0.845	1.048	1.488	1.716	2.461	2.533	2.364	2.134	2.458	2.303	2.312	2.466	2.389	2.730	3.216	3.270	3.639	3.870	4.198	4.528	4.851	5.362	5.630	6.174	5.712	6.243	6.386	6.662	6.971	7.965	6.820	4.896	4.180	3.498
325.0	545.5	936.4	1152	895.0	692.8	613.0	694.7	790.8	889.7	1037	1195	1314	1316	1253	1241	807.6	518.8	347.1	255.4	941.6	4139	3764	60.85	8.121	4.089	3.039	2.483	1.934	1.635	1.582	1.508	1.501	1.069	0.974	0.978	0.851	0.844	0.767	0.705	0.793	0.681	0.711	0.907	1.000	1.239	1.891	2.236	3.046	3.255	3.127	2.778	3.126	2.693	2.573	2.618	2.664	3.055	3.204	3.549	3.733	4.098	4.038	4.732	5.277	5.487	5.661	5.841	5.788	6.294	6.305	6.375	6.258	6.978	7.632	6.548	4.933	3.913
330.0	664.9	1181	1559	1386	1008	743.9	727.9	812.0	887.7	1022	1187	1328	1338	1222	1113	974.7	677.4	367.6	208.6	303.4	1142	3089	3803	1223	21.37	4.095	2.923	2.258	1.936	1.754	1.694	1.523	1.241	1.002	0.993	0.807	0.864	0.802	0.780	0.671	0.788	0.834	0.957	1.094	1.461	2.023	2.587	3.667	4.373	4.285	4.203	4.477	4.040	3.495	3.146	3.003	3.209	3.296	3.678	3.691	3.895	4.171	4.621	5.092	5.376	5.593	5.819	5.913	6.128	6.676	6.458	6.174	6.059	6.319	6.268	6.021	5.856
335.0	722.1	1343	1846	1775	1379	924.8	783.5	815.6	879.3	1008	1175	1311	1324	1232	1060	895.3	846.4	518.2	253.8	203.9	354.6	777.4	2087	4988	421.1	23.98	4.023	2.923	2.583	1.936	1.942	1.730	1.270	1.151	0.987	0.921	0.954	0.846	0.860	0.760	0.803	0.951	1.031	1.105	1.664	2.319	3.014	4.253	4.981	5.166	5.222	5.947	5.446	4.663	3.949	3.251	3.328	3.296	3.686	3.558	3.836	4.026	4.588	4.744	5.191	5.234	5.699	6.027	5.993	6.457	6.628	6.266	6.284	5.959	5.422	5.411	5.583
340.0	729.5	1365	1983	1955	1476	1002	798.8	813.0	872.5	991.4	1132	1256	1278	1190	1034	828.6	753.3	648.5	323.5	199.9	194.4	262.1	575.6	3042	4535	372.0	11.96	4.072	2.885	2.113	2.139	1.663	1.365	1.153	1.014	0.882	1.013	0.931	0.945	0.730	0.836	0.878	0.983	1.144	1.544	2.355	2.970	4.347	4.973	5.325	5.599	6.090	5.864	5.242	4.177	3.362	3.359	3.440	3.712	3.823	3.924	4.232	4.173	4.771	4.902	5.043	5.723	5.635	6.012	6.102	6.213	5.973	6.264	5.811	5.399	4.624	4.874
345.0	708.9	1341	1915	1913	1481	997.0	791.5	803.6	839.9	957.0	1075	1183	1201	1133	983.3	780.0	646.7	627.1	440.6	227.3	169.8	159.9	200.7	847.2	3687	3196	52.90	5.915	3.478	2.583	2.262	1.883	1.395	1.101	1.033	0.824	0.924	0.925	0.826	0.657	0.827	0.976	0.879	1.214	1.490	2.177	3.070	4.277	5.172	5.093	5.666	5.881	6.014	5.301	4.088	3.372	3.331	3.229	3.473	3.601	3.752	3.896	4.062	4.703	4.852	4.914	5.462	5.490	5.886	5.706	6.072	5.763	5.851	5.417	5.189	4.721	4.846
350.0	666.6	1231	1802	1853	1513	1024	804.2	791.7	822.3	915.1	1006	1094	1106	1044	922.6	748.9	604.1	516.1	481.9	350.4	208.0	160.5	137.4	252.8	1020	2714	3201	1001	18.16	3.653	2.787	2.290	1.633	1.341	1.126	0.967	0.909	0.866	0.785	0.698	0.820	0.828	0.938	1.141	1.508	2.010	2.661	4.015	4.786	5.022	5.333	6.073	6.038	5.223	4.298	3.571	3.371	3.389	3.635	3.445	3.569	3.883	4.078	4.398	4.443	4.578	4.769	4.993	5.388	5.098	5.214	5.383	5.342	5.161	4.907	4.384	4.375
355.0	610.9	1119	1634	1731	1468	1050	824.9	794.9	826.9	895.3	962.9	1017	1018	964.0	861.7	716.6	589.7	482.1	407.1	423.7	316.4	189.0	144.5	138.1	276.6	651.8	1863	4141	386.7	20.16	4.368	3.162	2.102	1.566	1.241	1.114	0.990	0.849	0.898	0.780	0.764	0.919	0.940	1.030	1.357	1.917	2.371	3.338	4.113	4.583	4.904	5.675	5.695	5.242	4.256	3.875	3.531	3.234	3.553	3.628	3.673	3.725	4.037	4.231	4.564	4.404	4.437	4.623	4.734	4.879	4.944	5.131	4.867	4.682	4.617	4.423	4.185
360.0	584.4	1014	1466	1588	1396	1047	832.5	819.9	851.7	897.7	939.0	966.6	958.0	905.2	809.9	688.4	580.7	468.4	386.2	376.2	398.0	247.9	164.7	126.9	125.1	187.6	495.1	2737	3150	331.2	11.67	5.472	3.033	1.853	1.179	1.238	1.104	0.903	0.799	0.821	0.818	0.844	0.820	0.931	1.351	1.821	2.075	3.041	3.957	4.138	4.288	5.231	5.164	5.084	4.290	3.575	3.798	3.445	3.673	3.670	3.768	3.816	3.969	4.518	4.210	4.319	4.383	4.612	4.703	4.742	4.900	4.880	4.442	4.559	4.246	4.461	4.245
365.0	523.6	929.1	1341	1468	1336	1024	842.7	827.2	854.6	892.2	911.4	921.9	918.7	860.5	771.9	669.2	567.3	471.0	390.4	345.7	381.8	344.5	200.0	139.5	107.6	99.28	154.5	780.2	3305	2921	49.15	14.08	6.061	2.615	1.666	1.269	1.090	0.927	0.907	0.795	0.842	0.776	0.837	0.929	1.239	1.733	1.894	2.797	3.595	3.694	4.147	5.062	5.002	4.842	4.201	3.579	3.809	3.543	3.468	3.686	3.833	3.950	3.892	4.316	4.168	4.173	4.413	4.025	4.391	4.588	4.808	4.419	4.301	4.272	4.131	4.280	4.069
370.0	477.5	844.6	1246	1414	1372	1095	883.2	853.8	887.9	936.3	991.2	975.9	1046	912.9	750.7	652.4	564.3	485.6	413.9	361.0	351.2	376.6	330.3	234.4	175.7	157.3	193.8	332.0	1025	2746	3126	948.5	32.30	13.00	3.527	1.831	1.335	1.090	1.006	0.896	0.865	0.955	0.868	0.982	1.122	1.528	1.968	2.635	3.223	3.566	4.107	4.900	5.045	4.819	4.666	4.050	3.990	3.630	3.727	3.932	4.023	4.091	4.150	4.455	4.353	4.502	4.353	4.505	4.683	5.408	5.543	4.615	4.338	4.239	4.224	4.003	4.062
375.0	460.4	831.0	1285	1599	1676	1404	1011	928.3	999.5	1102	1321	1275	1643	1232	773.5	651.3	569.5	511.9	450.3	416.5	403.7	402.2	477.2	467.6	385.8	378.7	437.7	624.3	584.9	1023	2519	4381	1233	42.77	9.577	3.321	2.246	1.471	1.200	0.998	1.016	1.026	0.963	1.129	1.346	1.750	2.021	2.675	3.219	3.901	4.299	5.458	5.784	6.344	5.940	4.951	4.551	4.222	4.127	4.122	4.367	4.781	4.685	4.959	5.726	6.478	5.707	5.637	6.123	8.285	9.159	6.031	4.799	4.308	4.107	3.968	3.921
380.0	461.2	859.9	1375	1744	1951	1648	1121	1000	1096	1250	1590	1526	2115	1528	807.8	650.0	579.2	534.4	482.9	465.7	464.0	459.8	537.0	688.5	593.4	575.7	818.6	930.9	695.7	807.5	1517	3624	3742	296.9	18.34	5.023	2.880	1.742	1.329	1.091	1.124	1.023	1.112	1.125	1.464	1.567	2.076	2.771	3.467	4.062	4.753	6.246	6.639	7.611	7.151	5.850	4.900	4.435	4.339	4.501	4.648	5.171	5.131	5.702	6.901	7.779	6.779	6.813	7.358	11.01	11.07	7.318	5.263	4.399	4.161	4.046	3.966
385.0	494.8	845.6	1372	1768	2017	1759	1172	1033	1139	1308	1681	1627	2307	1670	813.8	650.4	579.3	543.2	500.2	492.3	501.1	495.9	567.5	738.2	730.8	685.1	978.9	1088	784.1	822.9	1318	1926	3422	2419	41.98	7.353	3.716	2.222	1.704	1.335	1.175	1.157	1.082	1.284	1.397	1.846	1.981	2.899	3.471	4.007	4.678	6.300	6.955	7.732	7.381	6.259	5.267	4.656	4.605	4.539	5.010	5.237	5.538	5.952	6.996	8.136	7.397	6.800	8.206	12.09	12.44	7.724	5.248	4.208	4.064	3.958	4.016
390.0	441.8	759.4	1200	1554	1754	1560	1097	982.6	1060	1182	1484	1430	1943	1455	772.1	633.3	571.5	533.3	502.8	494.9	504.6	496.1	542.6	645.0	660.8	673.9	854.3	908.1	658.9	666.6	1008	1125	1180	2220	2350	647.7	14.13	3.136	1.914	1.526	1.187	1.186	1.045	1.176	1.327	1.668	1.942	2.594	3.149	3.659	4.083	5.491	6.172	6.765	6.543	5.661	4.890	4.469	4.367	4.297	4.584	4.904	5.097	5.532	6.076	7.073	6.680	5.901	7.065	10.36	10.30	6.834	4.851	4.046	3.957	3.765	3.921
395.0	394.6	715.2	1128	1428	1662	1471	1087	961.4	1027	1157	1415	1377	1838	1379	765.9	628.4	588.0	553.8	531.5	537.0	554.4	550.3	592.8	673.1	657.0	703.4	911.6	910.1	659.9	656.6	947.5	949.2	529.9	602.6	1526	2862	273.8	14.92	2.939	1.963	1.524	1.318	1.070	1.264	1.318	1.521	1.769	2.371	2.776	3.275	3.753	5.092	5.768	6.419	6.509	5.504	4.781	4.305	4.176	4.315	4.414	5.040	4.815	5.029	5.989	6.743	6.205	5.672	6.544	9.640	10.07	6.534	4.585	4.030	3.980	3.554	3.921
400.0	389.0	695.4	1148	1432	1695	1523	1102	996.6	1073	1187	1486	1445	1953	1457	789.6	653.6	604.2	575.7	563.8	578.5	608.2	621.6	673.9	769.8	737.1	768.4	1034	1053	749.5	740.7	1054	1018	434.4	244.4	439.0	2000	2219	227.4	6.995	2.479	1.606	1.503	1.253	1.337	1.403	1.554	1.866	2.388	2.856	3.293	3.885	5.323	5.951	6.781	6.692	5.440	4.845	4.576	4.256	4.097	4.710	4.744	5.101	5.428	6.144	7.151	6.293	5.737	7.123	10.03	10.53	6.593	4.586	4.101	4.027	3.629	4.035
405.0	391.1	683.2	1125	1435	1659	1516	1110	1015	1077	1201	1509	1471	1972	1480	815.2	676.4	614.9	593.3	589.6	606.2	643.8	664.5	722.3	818.3	792.3	803.9	1057	1132	817.2	787.5	1090	1044	432.8	179.3	157.5	596.6	2202	1943	35.01	3.870	2.134	1.539	1.501	1.247	1.468	1.548	1.828	2.346	2.786	3.239	3.773	5.013	5.850	6.548	6.530	5.577	4.885	4.509	4.561	4.284	4.571	4.821	5.159	5.641	6.077	6.936	6.582	5.835	7.093	10.45	10.29	6.624	4.556	4.194	3.828	3.829	4.110
410.0	371.7	626.7	968.5	1234	1426	1343	1049	971.5	1012	1105	1324	1304	1649	1283	784.2	663.2	602.9	578.6	574.6	592.1	620.8	641.5	691.2	756.3	730.5	723.8	879.8	940.3	745.3	679.2	870.3	822.0	360.7	159.8	102.2	177.6	636.7	1671	1829	518.0	10.78	1.942	1.599	1.297	1.343	1.541	1.811	2.205	2.646	2.853	3.255	4.322	4.956	5.494	5.701	4.889	4.603	4.112	4.453	4.161	4.480	4.416	4.750	4.790	5.460	5.918	5.668	5.279	5.886	8.295	8.511	5.621	4.376	3.733	3.745	3.823	3.718
415.0	328.0	560.2	829.9	1042	1205	1159	975.2	920.0	931.9	992.8	1132	1112	1323	1074	727.2	629.4	576.7	556.2	540.2	561.5	584.3	598.4	634.9	670.8	647.6	634.8	712.8	728.1	613.4	589.2	661.8	604.6	289.0	147.3	90.37	86.20	170.7	401.9	1120	2141	244.5	11.79	1.906	1.498	1.390	1.491	1.737	1.822	2.547	2.462	2.864	3.972	4.224	4.768	4.873	4.372	3.877	3.878	4.139	3.959	3.984	4.119	4.226	4.353	4.793	5.180	4.773	4.690	4.696	6.249	6.745	5.005	3.980	3.803	3.290	3.575	3.647
