Sample:	'1
File name:	Default_20230313_134035.FD3
Run date:	'13:34:14, 03/13/2023
Operator:	user
Comment:	'

Instrument
Model:	F-2700 FL Spectrophotometer
Serial number:	2190-003
ROM Version:	4J14000 07

Instrument parameters
Measurement type:	3-D scan
Data mode:	Fluorescence
EX  Start WL:	220.0 nm
EX  End WL:	600.0 nm
EX Sampling interval:	5.0 nm
EM  Start WL:	230.0 nm
EM  End WL:	650.0 nm
EM Sampling interval:	5.0 nm
Scan speed:	12000 nm/min
EX Slit:	5.0 nm
EM Slit:	5.0 nm
PMT Voltage:	700 V
Response:	Auto 
Corrected spectra:	Off
Contour interval:	50.000

Peak integration
Integration method:	Rectangular
Sensitivity:	1
Threshold:	1.000

Peaks
No.	ApexEX/EM(nm)	Height(Data)
1	225.0/290.0	 2762
2	225.0/565.0	-49.76
3	230.0/575.0	-53.48
4	235.0/345.0	492.5
5	240.0/365.0	433.6
6	240.0/385.0	440.1
7	245.0/265.0	108.4
8	245.0/380.0	451.6
9	245.0/535.0	-14.13
10	250.0/400.0	458.5
11	250.0/425.0	427.1
12	250.0/545.0	4.707
13	255.0/385.0	443.4
14	255.0/550.0	6.909
15	260.0/285.0	799.4
16	260.0/430.0	423.8
17	260.0/565.0	24.13
18	265.0/290.0	920.6
19	265.0/580.0	40.98
20	270.0/295.0	 1148
21	270.0/435.0	420.2
22	270.0/590.0	43.77
23	275.0/305.0	 1262
24	275.0/600.0	36.30
25	280.0/310.0	 1088
26	280.0/335.0	658.3
27	280.0/445.0	390.6
28	280.0/615.0	20.43
29	285.0/315.0	927.4
30	285.0/360.0	608.3
31	285.0/625.0	10.87
32	290.0/320.0	807.6
33	290.0/380.0	573.8
34	290.0/640.0	4.197
35	300.0/335.0	497.9
36	305.0/340.0	524.4
37	310.0/345.0	467.5
38	320.0/360.0	491.3
39	320.0/395.0	545.1
40	325.0/365.0	496.1
41	335.0/380.0	497.2
42	340.0/385.0	492.1
43	350.0/400.0	455.0
44	355.0/405.0	438.3
45	445.0/525.0	20.97
46	450.0/290.0	0.696
47	450.0/530.0	15.57
48	460.0/545.0	9.371
49	465.0/550.0	6.684
50	510.0/280.0	-2.993
51	520.0/285.0	-2.852
52	525.0/290.0	-2.690
53	545.0/300.0	-2.083
54	555.0/310.0	-2.389
55	570.0/315.0	-2.362
56	580.0/325.0	-2.706

Data points
	220.0	225.0	230.0	235.0	240.0	245.0	250.0	255.0	260.0	265.0	270.0	275.0	280.0	285.0	290.0	295.0	300.0	305.0	310.0	315.0	320.0	325.0	330.0	335.0	340.0	345.0	350.0	355.0	360.0	365.0	370.0	375.0	380.0	385.0	390.0	395.0	400.0	405.0	410.0	415.0	420.0	425.0	430.0	435.0	440.0	445.0	450.0	455.0	460.0	465.0	470.0	475.0	480.0	485.0	490.0	495.0	500.0	505.0	510.0	515.0	520.0	525.0	530.0	535.0	540.0	545.0	550.0	555.0	560.0	565.0	570.0	575.0	580.0	585.0	590.0	595.0	600.0
230.0	-463.6	27.74	 3285	 2100	-94.47	-173.7	-146.1	-132.0	-110.7	-99.59	-85.26	-75.32	-60.99	-53.01	-42.35	-34.08	-29.24	-24.19	-22.02	-19.01	-17.45	-16.20	-15.14	-13.77	-12.28	-12.13	-11.49	-10.96	-10.54	-10.26	-10.05	-9.331	-8.549	-8.288	-7.665	-7.282	-6.779	-6.999	-6.407	-6.312	-6.321	-6.096	-6.018	-5.946	-5.593	-5.335	-4.374	-1.981	0.602	0.145	-2.599	-4.523	-4.314	-4.692	-4.515	-4.749	-4.866	-4.953	-4.847	-4.916	-4.911	-4.975	-4.983	-5.017	-5.004	-5.069	-5.245	-5.108	-5.156	-5.359	-5.113	-5.122	-5.245	-5.258	-5.338	-5.560	-5.355
235.0	-444.6	-225.0	 1068	 3756	 2126	-25.68	-141.0	-133.7	-113.8	-96.28	-87.38	-71.19	-61.82	-50.87	-41.22	-33.40	-28.93	-24.34	-21.10	-18.48	-18.23	-15.22	-15.17	-14.24	-13.01	-12.13	-11.86	-11.06	-10.12	-11.13	-10.20	-10.08	-8.777	-8.141	-7.745	-7.217	-6.677	-6.666	-5.947	-6.622	-6.305	-5.995	-5.574	-5.998	-5.704	-5.221	-4.737	-4.207	-2.869	-0.701	1.212	-0.625	-2.958	-4.514	-4.408	-4.921	-4.879	-4.974	-4.783	-5.249	-5.000	-4.844	-4.971	-5.254	-5.308	-5.258	-5.124	-5.148	-5.508	-5.421	-5.221	-4.939	-5.216	-5.200	-5.262	-5.324	-5.579
240.0	-441.0	-302.6	17.78	 1699	 4544	 1544	-79.94	-132.1	-116.4	-97.19	-84.24	-72.25	-64.35	-53.65	-39.34	-32.47	-28.67	-23.91	-22.37	-20.60	-18.15	-15.97	-14.49	-13.39	-11.78	-11.89	-11.39	-10.89	-10.65	-10.58	-9.868	-10.24	-8.552	-8.006	-6.954	-7.152	-7.162	-6.503	-6.475	-6.581	-5.962	-6.134	-5.979	-5.938	-5.336	-5.147	-4.935	-4.517	-4.265	-3.047	-1.290	0.583	1.109	-1.806	-3.909	-4.819	-4.746	-4.752	-4.909	-5.213	-5.102	-5.131	-4.591	-5.086	-4.998	-5.169	-5.244	-5.284	-5.260	-5.456	-5.230	-5.095	-5.075	-5.013	-4.938	-5.339	-5.626
245.0	-479.6	-292.0	-176.7	238.5	 2669	 4663	 1073	-113.3	-115.8	-98.36	-85.12	-77.02	-61.73	-50.83	-40.02	-33.95	-28.56	-25.13	-22.94	-19.69	-18.32	-16.34	-14.59	-14.27	-12.73	-12.13	-11.63	-11.35	-9.997	-10.40	-9.889	-9.618	-8.920	-8.728	-7.484	-7.493	-7.080	-6.616	-6.380	-6.214	-6.171	-6.231	-6.316	-6.141	-5.464	-5.450	-4.747	-4.719	-4.400	-3.614	-3.445	-2.782	-0.752	1.362	-0.099	-2.814	-4.595	-5.091	-4.724	-4.878	-4.854	-4.953	-5.062	-4.892	-5.185	-4.764	-4.889	-5.342	-5.286	-5.268	-5.295	-5.074	-5.484	-5.005	-4.997	-5.620	-5.441
250.0	-484.5	-365.7	-156.2	-38.53	522.2	 2494	 3937	 1324	91.03	-92.90	-84.56	-74.14	-63.38	-50.72	-39.68	-35.75	-28.24	-23.95	-22.37	-20.40	-17.55	-16.00	-14.50	-13.85	-12.62	-11.55	-11.20	-10.59	-10.56	-10.79	-9.720	-9.497	-8.836	-8.528	-7.668	-7.185	-7.037	-6.890	-6.300	-6.439	-5.896	-5.962	-6.221	-5.911	-5.577	-5.183	-4.565	-4.723	-4.019	-3.594	-3.665	-4.150	-3.430	-2.616	-1.776	-1.217	-0.708	-1.950	-3.267	-4.496	-4.831	-4.974	-4.860	-5.129	-5.180	-4.875	-4.917	-5.131	-5.108	-5.222	-5.253	-5.132	-5.279	-5.127	-5.266	-5.491	-5.529
255.0	-493.2	-398.3	-244.4	-11.88	70.52	452.6	 1364	 3818	 1766	63.43	-85.43	-72.50	-62.03	-52.47	-44.46	-34.67	-28.32	-23.60	-21.50	-19.12	-17.55	-15.81	-15.15	-13.82	-13.10	-12.19	-11.73	-11.31	-10.34	-10.68	-10.15	-9.358	-8.936	-8.413	-7.739	-6.963	-7.245	-6.538	-6.503	-6.437	-5.773	-6.420	-5.515	-5.751	-5.472	-5.040	-4.755	-4.914	-4.352	-3.247	-3.466	-4.047	-4.070	-4.196	-3.485	-3.814	-3.384	-1.684	1.505	-0.584	-2.890	-4.584	-4.998	-4.849	-5.053	-5.235	-4.915	-5.110	-5.243	-5.333	-5.210	-5.110	-5.230	-5.333	-5.347	-5.573	-5.554
260.0	-461.5	-397.8	-308.1	-127.3	78.32	41.48	207.9	 1669	 3691	 1311	-14.83	-71.95	-58.44	-54.30	-41.10	-35.14	-28.42	-23.23	-21.99	-18.98	-17.95	-15.09	-15.08	-12.05	-13.02	-11.78	-11.34	-11.03	-10.67	-10.57	-9.547	-9.451	-9.194	-7.539	-7.512	-7.176	-7.160	-6.852	-6.736	-6.402	-5.978	-6.292	-5.893	-5.925	-5.760	-5.326	-4.814	-4.954	-4.388	-3.599	-3.640	-3.818	-3.855	-4.421	-4.264	-4.422	-4.676	-4.124	-1.934	0.178	1.417	-1.338	-4.309	-4.647	-4.885	-5.177	-4.968	-5.319	-4.999	-5.034	-5.191	-5.215	-5.038	-5.096	-5.412	-5.662	-5.807
265.0	-453.5	-370.0	-316.7	-206.4	16.86	108.4	-23.74	320.8	 1922	 3471	951.0	-49.31	-61.21	-49.17	-40.63	-34.93	-29.29	-24.96	-21.73	-19.31	-17.15	-15.36	-13.57	-13.20	-12.92	-11.47	-11.55	-11.40	-10.60	-10.41	-9.935	-8.952	-9.075	-7.671	-7.369	-6.774	-6.850	-6.612	-6.481	-6.513	-5.853	-6.133	-6.093	-6.072	-5.584	-5.422	-4.937	-4.787	-4.323	-3.870	-4.022	-4.676	-3.665	-3.743	-4.174	-4.526	-5.248	-4.948	-4.221	-3.153	-1.111	1.828	1.703	-2.363	-4.540	-5.099	-4.901	-5.220	-5.290	-5.066	-5.263	-5.015	-5.260	-4.953	-5.677	-5.938	-5.508
270.0	-102.9	6.158	-31.41	-168.7	-112.2	79.25	170.1	98.44	447.8	 1596	 2799	 1795	121.4	-46.67	-41.85	-34.19	-28.22	-24.30	-20.36	-19.65	-16.68	-15.83	-14.68	-13.34	-12.58	-11.10	-11.81	-11.04	-10.40	-10.73	-10.15	-9.304	-9.122	-7.966	-7.523	-6.753	-6.601	-6.319	-6.153	-6.274	-5.637	-6.055	-5.600	-5.302	-4.923	-4.569	-4.333	-4.140	-4.203	-3.799	-3.885	-4.548	-4.150	-4.272	-3.938	-3.805	-4.656	-4.680	-4.667	-4.596	-3.871	-2.783	-1.060	0.060	1.165	-0.263	-2.788	-4.974	-5.242	-5.294	-5.234	-5.185	-5.350	-5.069	-5.460	-5.704	-5.554
275.0	725.3	 1009	571.5	-7.136	-117.7	-33.67	218.7	379.5	251.3	485.3	 1011	 3156	 2516	124.8	-34.96	-32.25	-27.89	-23.97	-21.31	-19.15	-17.45	-15.33	-13.30	-13.74	-12.76	-11.44	-11.98	-10.42	-10.34	-10.84	-9.952	-9.644	-9.270	-8.192	-6.786	-6.223	-6.176	-6.336	-5.668	-5.455	-5.217	-4.764	-4.546	-4.157	-3.517	-2.711	-2.575	-3.047	-3.029	-3.275	-3.599	-4.355	-4.210	-4.139	-4.338	-4.185	-4.205	-3.697	-3.560	-4.382	-4.277	-4.012	-3.689	-3.367	-2.469	0.219	3.802	1.230	-3.499	-5.165	-5.013	-4.929	-4.968	-5.083	-5.313	-5.636	-5.685
280.0	 1335	 1902	 1216	154.7	-80.83	-45.58	124.1	518.3	535.5	346.8	445.3	 1353	 3686	857.1	25.98	-32.03	-27.17	-22.57	-20.96	-19.49	-18.02	-15.55	-13.57	-13.75	-12.40	-11.12	-11.31	-10.48	-10.39	-10.26	-10.41	-9.016	-8.712	-7.920	-6.884	-6.572	-5.629	-5.821	-5.577	-4.831	-4.339	-3.979	-3.401	-2.661	-1.834	-0.969	-0.798	-1.183	-1.601	-2.874	-3.399	-4.289	-4.121	-4.677	-4.230	-4.517	-4.430	-3.800	-2.993	-3.557	-3.909	-4.171	-4.087	-3.948	-4.080	-2.839	-0.753	3.661	3.656	-0.004	-3.999	-5.186	-4.994	-5.386	-5.317	-5.543	-5.836
285.0	 1850	 2714	 1852	263.0	-29.37	-3.597	90.88	386.3	799.4	543.7	402.6	517.4	 1766	 3582	613.7	-12.70	-25.58	-21.47	-20.93	-19.06	-16.06	-15.63	-13.65	-13.37	-12.53	-11.68	-11.43	-11.48	-10.71	-10.73	-10.40	-9.113	-8.679	-7.702	-7.337	-5.825	-5.929	-5.231	-5.171	-4.620	-4.697	-3.801	-3.081	-1.663	0.102	0.096	0.482	0.184	-1.467	-2.371	-3.117	-3.987	-4.290	-4.310	-4.420	-4.402	-4.135	-3.797	-3.457	-3.302	-2.852	-3.462	-4.149	-3.904	-4.185	-3.805	-3.872	-1.918	1.931	5.510	2.858	-2.706	-4.984	-5.349	-5.192	-5.169	-5.394
290.0	 2040	 2762	 2026	361.1	20.54	46.59	128.6	305.8	637.0	920.6	692.1	477.1	655.5	 1563	 2589	 1533	107.4	-20.47	-20.97	-18.60	-16.52	-15.59	-14.68	-12.98	-12.58	-11.80	-11.15	-11.56	-10.41	-10.57	-10.03	-9.030	-8.867	-8.290	-7.148	-6.188	-5.020	-4.656	-5.064	-4.547	-3.618	-3.547	-2.608	-1.196	0.006	0.488	0.696	0.241	-0.861	-2.263	-3.000	-4.019	-4.080	-4.333	-4.253	-3.990	-4.124	-4.160	-3.838	-3.732	-2.994	-2.690	-2.979	-3.417	-3.676	-4.022	-4.191	-3.747	-2.954	-1.401	0.379	2.040	2.040	-0.269	-3.493	-5.184	-5.362
295.0	 1851	 2664	 1919	405.8	83.17	60.22	126.4	283.3	492.8	736.8	 1148	757.8	512.7	546.5	831.7	 2520	 2102	116.4	-20.27	-17.95	-16.13	-15.54	-14.47	-13.12	-12.69	-11.79	-11.42	-11.26	-9.806	-10.31	-10.15	-8.958	-8.085	-7.974	-7.316	-6.133	-4.631	-5.360	-4.993	-4.526	-4.267	-4.029	-2.844	-1.673	-0.913	0.104	0.571	0.419	-0.586	-2.396	-2.993	-4.029	-3.956	-4.693	-4.312	-4.137	-4.275	-3.783	-3.898	-3.872	-3.427	-2.846	-2.909	-2.429	-2.340	-3.246	-4.162	-3.811	-4.019	-3.869	-3.452	-2.895	-2.067	1.972	5.147	1.787	-2.884
300.0	 1700	 2202	 1690	358.4	83.28	43.94	141.0	280.7	434.9	594.7	 1040	 1179	635.9	377.7	305.6	944.9	 2993	 1513	40.54	-16.33	-16.05	-15.30	-12.68	-12.67	-12.53	-12.10	-11.54	-10.98	-10.60	-10.12	-9.471	-9.716	-8.293	-8.143	-7.041	-5.927	-4.690	-5.016	-4.269	-5.003	-4.224	-4.386	-3.346	-2.711	-1.921	-0.138	-0.546	-0.167	-0.610	-2.553	-2.755	-3.897	-4.102	-4.403	-4.342	-3.634	-3.958	-4.173	-3.982	-3.867	-3.653	-3.610	-3.579	-2.906	-2.165	-2.083	-2.933	-3.997	-3.889	-3.993	-3.921	-4.238	-4.131	-3.145	-0.065	4.011	4.784
305.0	 1412	 1783	 1358	346.9	90.12	64.61	150.4	250.1	398.1	589.8	825.2	 1262	939.7	415.1	214.8	291.5	 1299	 2922	357.3	1.996	-16.20	-14.86	-13.78	-12.67	-12.18	-11.88	-11.19	-10.77	-9.941	-10.30	-9.763	-9.046	-8.461	-7.923	-6.775	-5.971	-5.203	-5.291	-4.100	-5.058	-4.526	-4.426	-3.630	-3.512	-1.870	0.050	-0.979	-0.902	-1.653	-2.828	-3.329	-3.822	-3.770	-4.353	-4.317	-4.110	-4.376	-4.186	-3.802	-3.728	-4.026	-3.452	-3.618	-2.677	-3.069	-2.087	-2.133	-2.685	-3.788	-4.183	-3.952	-4.665	-4.615	-4.469	-3.983	-2.385	0.844
310.0	897.7	 1321	958.4	270.5	65.11	59.64	123.0	255.9	381.8	525.2	698.5	915.5	 1088	753.0	290.9	172.2	363.2	 1222	 1999	 1166	81.31	-13.64	-13.43	-12.30	-11.95	-11.56	-11.19	-10.92	-10.73	-10.32	-9.937	-8.640	-7.557	-8.201	-7.423	-6.344	-5.812	-5.891	-4.756	-5.210	-4.846	-4.393	-4.623	-3.557	-2.882	-1.818	-1.982	-1.947	-2.325	-2.794	-3.198	-3.707	-4.123	-4.168	-4.105	-4.169	-4.282	-4.243	-4.186	-3.968	-3.889	-3.598	-3.645	-3.355	-3.218	-3.117	-2.887	-2.389	-2.649	-3.175	-4.047	-4.462	-4.663	-4.652	-4.690	-4.507	-3.784
315.0	476.8	830.5	604.8	220.1	49.88	55.01	107.3	206.8	326.1	459.7	626.3	721.6	784.7	927.4	559.4	202.0	169.0	327.1	606.2	 1989	 1639	102.6	-12.52	-12.66	-11.70	-11.34	-10.27	-11.14	-10.66	-10.50	-9.205	-9.218	-8.417	-8.251	-7.486	-6.545	-6.438	-5.708	-5.139	-5.648	-4.648	-4.918	-4.738	-4.236	-3.872	-3.377	-2.935	-3.014	-2.358	-3.113	-3.149	-3.891	-4.220	-4.182	-4.320	-4.354	-4.360	-4.277	-3.923	-3.889	-3.881	-3.545	-3.615	-3.342	-3.627	-3.490	-3.349	-3.149	-3.301	-2.642	-2.362	-3.916	-4.107	-4.451	-4.591	-4.952	-5.039
320.0	330.7	576.4	542.1	168.0	47.36	73.19	124.9	211.1	323.4	438.5	585.3	667.0	665.2	732.3	807.6	332.0	143.4	143.3	170.6	742.2	 2309	 1158	35.72	-11.99	-12.28	-10.67	-10.59	-10.53	-10.07	-10.29	-9.367	-9.275	-8.602	-7.950	-7.746	-6.047	-6.385	-5.806	-5.893	-6.004	-5.142	-4.916	-5.361	-4.487	-4.510	-3.990	-3.122	-3.122	-2.852	-3.142	-3.083	-3.970	-3.839	-4.349	-3.680	-4.304	-4.519	-4.417	-4.093	-3.821	-3.718	-3.476	-4.012	-3.752	-3.774	-3.431	-3.326	-3.163	-3.829	-3.658	-2.510	-3.048	-3.779	-3.806	-4.448	-5.024	-4.976
325.0	206.8	419.9	450.0	185.2	99.10	72.40	123.3	208.2	328.4	447.7	547.3	668.5	662.9	608.6	703.7	583.1	209.1	117.7	89.73	201.6	 1019	 2210	247.2	3.296	-11.32	-10.92	-10.99	-10.02	-10.43	-9.740	-9.205	-8.956	-8.236	-7.921	-7.269	-6.471	-6.296	-6.063	-6.331	-6.095	-5.546	-5.561	-5.106	-4.650	-4.751	-3.967	-2.955	-3.537	-3.195	-3.129	-3.285	-4.043	-3.846	-4.119	-4.121	-4.384	-4.384	-4.111	-4.000	-3.972	-3.716	-3.832	-3.799	-3.614	-3.990	-3.554	-3.288	-3.768	-3.767	-3.963	-3.120	-3.469	-2.706	-3.274	-4.307	-4.960	-4.707
330.0	117.3	308.7	424.5	256.5	162.4	109.3	133.3	206.3	316.6	435.6	544.0	639.6	652.1	587.4	538.0	578.8	453.0	195.6	99.71	96.44	268.5	922.4	 1540	886.2	64.93	-9.460	-10.67	-9.886	-10.19	-9.733	-9.288	-8.995	-8.260	-8.067	-7.588	-6.682	-6.434	-6.099	-6.027	-5.956	-5.555	-5.252	-5.531	-4.947	-4.877	-4.317	-3.196	-3.595	-3.130	-2.866	-2.997	-3.846	-3.933	-3.898	-3.990	-4.141	-4.168	-4.277	-4.161	-3.961	-3.602	-4.053	-3.940	-3.797	-3.882	-3.977	-3.489	-3.989	-3.680	-3.980	-3.608	-3.878	-3.646	-3.438	-3.545	-3.705	-4.328
335.0	63.41	269.1	404.7	373.2	260.5	147.1	146.1	194.2	294.1	420.8	541.7	624.6	658.3	603.6	513.9	440.4	497.9	425.2	164.0	105.8	114.1	245.7	490.1	 1609	 1287	83.64	-9.948	-9.880	-10.34	-9.773	-9.242	-8.662	-8.539	-8.102	-7.183	-6.661	-6.640	-6.235	-6.036	-5.836	-5.175	-5.338	-5.872	-4.924	-4.823	-4.432	-3.279	-4.062	-3.148	-2.913	-2.568	-3.964	-3.742	-4.065	-3.809	-4.291	-4.138	-4.261	-4.343	-3.883	-3.729	-3.860	-3.734	-3.678	-3.529	-4.011	-3.627	-3.928	-3.703	-3.769	-3.739	-3.855	-3.745	-4.089	-3.810	-3.451	-3.910
340.0	47.32	233.2	421.5	452.6	289.8	167.9	174.5	207.7	298.1	414.6	546.9	616.2	645.0	601.1	527.1	421.3	401.6	524.4	316.8	142.4	105.5	113.8	149.5	637.4	 1885	941.2	31.97	-8.382	-9.654	-9.832	-8.745	-8.732	-8.594	-7.806	-7.533	-6.519	-6.091	-6.243	-6.138	-6.084	-5.388	-5.415	-5.537	-4.969	-4.936	-4.139	-3.342	-3.757	-3.253	-2.820	-3.041	-3.825	-3.778	-4.067	-4.231	-3.941	-4.103	-4.177	-4.108	-3.730	-3.742	-4.015	-3.888	-3.858	-3.146	-3.674	-3.681	-3.581	-3.707	-3.560	-3.418	-3.897	-3.567	-4.183	-4.213	-4.178	-4.462
345.0	-18.83	307.2	464.4	492.5	319.1	211.9	200.5	221.7	308.1	428.4	519.5	607.6	627.3	609.7	541.4	441.5	376.5	432.0	467.5	226.9	127.4	108.7	91.74	187.4	893.0	 1812	194.8	3.831	-9.158	-9.738	-9.593	-8.654	-9.151	-7.930	-7.586	-6.417	-6.168	-6.580	-5.938	-5.916	-5.562	-5.759	-5.645	-5.114	-4.524	-4.384	-3.668	-3.764	-3.093	-2.541	-2.716	-3.506	-3.407	-3.986	-4.133	-4.234	-4.014	-4.261	-3.953	-3.989	-3.860	-3.677	-3.863	-3.789	-3.260	-3.472	-3.658	-3.870	-3.859	-3.458	-3.850	-3.662	-3.867	-3.974	-4.222	-4.218	-4.705
350.0	-72.76	218.2	392.7	473.2	359.8	249.8	216.7	260.9	303.2	406.9	516.6	605.4	626.8	603.4	561.2	457.0	397.8	368.0	426.5	401.1	229.1	155.3	118.5	113.1	257.5	820.4	 1272	708.8	51.69	-8.618	-9.214	-8.448	-8.482	-7.960	-7.499	-6.562	-6.307	-6.413	-6.123	-6.109	-5.899	-6.009	-5.512	-5.253	-4.629	-4.512	-3.793	-3.600	-3.291	-2.693	-2.609	-3.554	-3.414	-3.939	-4.032	-4.073	-4.147	-4.076	-3.775	-4.036	-3.986	-4.035	-3.670	-3.514	-3.747	-3.684	-3.729	-3.625	-3.604	-3.751	-3.579	-3.574	-3.992	-4.040	-3.942	-4.138	-4.533
355.0	-104.2	169.7	304.1	455.2	357.9	284.4	289.0	285.7	332.9	412.9	509.6	577.9	627.1	590.8	581.3	484.4	428.4	372.0	365.8	417.2	432.9	248.1	168.1	130.8	132.8	235.5	443.3	 1368	998.0	56.74	-8.395	-8.039	-8.399	-8.066	-6.958	-6.670	-6.407	-6.163	-6.202	-5.906	-5.701	-5.785	-5.721	-5.276	-5.116	-4.367	-4.060	-4.132	-3.201	-2.833	-3.013	-3.457	-3.092	-3.820	-3.674	-4.478	-4.244	-4.203	-3.619	-3.953	-3.911	-3.887	-4.023	-3.621	-3.643	-3.971	-3.433	-3.891	-3.665	-3.583	-3.378	-3.172	-4.095	-3.731	-3.809	-4.361	-4.463
360.0	-126.0	149.2	293.5	404.7	420.5	344.8	311.5	307.0	356.0	421.3	518.9	556.9	600.7	608.3	576.2	510.7	450.1	398.1	377.7	371.6	491.3	386.7	224.7	169.7	131.6	122.4	142.5	582.5	 1550	698.2	18.18	-7.580	-7.433	-8.315	-6.805	-6.753	-6.369	-6.367	-6.090	-5.727	-5.235	-5.871	-5.583	-5.098	-5.059	-4.485	-3.814	-4.009	-3.457	-2.669	-2.868	-3.533	-3.359	-3.800	-3.717	-3.874	-4.205	-4.045	-3.808	-3.623	-3.969	-3.898	-4.266	-3.658	-3.867	-3.803	-3.542	-3.956	-3.621	-3.700	-3.746	-3.147	-3.615	-3.643	-4.007	-4.130	-4.272
365.0	-100.2	79.39	308.4	386.9	433.6	359.4	321.7	324.9	357.2	427.5	521.1	573.6	612.3	600.8	579.6	510.1	469.7	426.0	411.9	375.4	437.8	496.1	288.1	211.1	160.5	120.6	87.45	174.0	784.4	 1526	163.7	-0.004	-6.417	-8.052	-7.111	-6.670	-6.192	-6.289	-5.737	-5.949	-5.871	-5.518	-6.088	-5.287	-4.896	-4.478	-3.945	-3.976	-3.571	-2.629	-2.760	-3.560	-3.404	-3.795	-3.602	-3.788	-3.883	-3.712	-4.082	-3.920	-3.931	-3.933	-3.842	-3.632	-3.961	-3.813	-3.642	-3.906	-3.889	-3.880	-3.936	-3.432	-3.347	-3.765	-4.090	-4.280	-4.366
370.0	-117.0	71.33	241.0	401.5	404.3	381.1	340.6	342.1	366.4	436.1	504.3	549.1	587.3	594.0	574.4	518.6	494.6	466.4	448.5	424.8	421.0	459.9	452.3	317.0	213.6	157.5	112.2	96.74	222.0	734.8	 1122	577.5	37.16	-6.264	-6.595	-6.260	-6.296	-6.138	-5.877	-5.978	-5.794	-5.409	-5.816	-5.155	-4.660	-4.699	-3.967	-4.045	-3.723	-2.993	-2.914	-3.505	-3.381	-3.694	-3.279	-3.866	-3.817	-3.769	-4.144	-3.567	-3.772	-3.593	-3.956	-3.792	-3.921	-3.478	-3.662	-3.991	-3.855	-3.983	-3.537	-3.575	-3.212	-3.449	-3.767	-3.942	-4.267
375.0	-88.38	23.34	275.8	432.3	429.8	451.3	373.3	362.8	380.5	461.8	501.4	523.1	575.8	565.9	562.8	532.9	510.2	490.6	477.1	469.0	455.9	442.6	463.9	471.2	311.2	211.4	155.2	117.3	109.9	201.5	415.9	 1231	759.4	35.73	-5.623	-6.161	-6.254	-6.242	-6.232	-6.099	-5.437	-5.429	-5.597	-5.078	-5.070	-4.378	-4.280	-3.928	-3.661	-2.799	-3.017	-3.355	-3.372	-3.582	-3.506	-3.873	-3.720	-3.761	-3.949	-3.743	-3.786	-3.718	-3.999	-3.537	-3.747	-3.874	-3.765	-3.755	-3.848	-3.625	-3.470	-3.930	-3.502	-3.422	-3.925	-3.878	-4.213
380.0	-147.0	61.95	271.8	404.0	439.8	451.6	399.7	403.5	422.9	442.7	520.0	528.9	562.0	568.4	573.8	514.6	502.6	503.2	505.0	500.3	486.2	456.3	452.1	497.2	424.5	265.6	194.5	148.8	107.0	98.95	135.6	567.7	 1319	477.3	7.139	-5.506	-5.970	-5.739	-5.931	-6.194	-5.684	-5.511	-5.417	-5.454	-4.892	-4.700	-4.238	-3.908	-3.506	-2.763	-2.994	-3.639	-3.060	-3.384	-3.691	-3.675	-3.559	-3.794	-4.188	-3.654	-3.586	-3.602	-3.839	-3.683	-3.832	-3.749	-3.530	-3.698	-3.517	-3.782	-3.651	-3.735	-3.716	-3.643	-4.037	-3.580	-4.095
385.0	-117.4	14.60	238.2	360.7	440.1	437.3	423.2	443.4	427.3	450.7	497.9	553.4	567.6	557.4	564.5	530.1	510.9	509.8	517.0	518.6	514.4	475.0	458.0	464.6	492.1	357.6	238.7	179.3	129.9	96.24	83.60	169.4	749.5	 1180	119.2	-1.771	-5.507	-5.512	-6.067	-5.914	-5.793	-5.427	-5.320	-5.192	-5.046	-4.597	-4.184	-3.734	-3.493	-2.708	-2.946	-3.595	-3.195	-3.519	-3.378	-3.483	-3.885	-3.902	-3.798	-3.791	-4.049	-4.112	-3.297	-3.700	-3.841	-3.313	-3.855	-3.934	-3.693	-3.768	-3.708	-3.493	-4.135	-3.804	-3.805	-3.944	-4.098
390.0	-115.1	49.86	219.7	362.2	407.8	418.7	415.6	421.3	415.0	440.5	473.0	528.7	544.7	542.4	556.4	526.9	519.9	527.1	536.0	537.6	527.0	515.8	484.6	459.6	464.6	448.5	333.1	228.5	169.5	128.0	97.00	89.34	212.9	621.1	862.4	376.2	23.29	-5.143	-5.898	-5.757	-5.596	-5.809	-5.498	-5.171	-4.783	-4.735	-4.244	-3.813	-3.340	-2.764	-2.969	-3.550	-3.170	-3.563	-3.299	-3.505	-3.658	-3.638	-3.838	-3.761	-4.013	-3.706	-3.508	-3.947	-3.707	-3.779	-4.064	-3.518	-3.789	-3.749	-3.564	-3.610	-3.845	-3.799	-3.635	-3.855	-4.110
