Sample:	'1
File name:	t2025061910ºãÒµÒ»Â·ÇÅ.FD3
Run date:	'15:21:48, 06/23/2025
Operator:	Administrator
Comment:	'

Instrument
Model:	F-2700 FL Spectrophotometer
Serial number:	23B8-004
ROM Version:	4J14000 07

Instrument parameters
Measurement type:	3-D scan
Data mode:	Fluorescence
EX  Start WL:	220.0 nm
EX  End WL:	600.0 nm
EX Sampling interval:	5.0 nm
EM  Start WL:	230.0 nm
EM  End WL:	650.0 nm
EM Sampling interval:	5.0 nm
Scan speed:	12000 nm/min
EX Slit:	5.0 nm
EM Slit:	5.0 nm
PMT Voltage:	700 V
Response:	Auto 
Corrected spectra:	Off
Contour interval:	50.000

Peak integration
Integration method:	Rectangular
Sensitivity:	1
Threshold:	1.000

Peaks
No.	ApexEX/EM(nm)	Height(Data)
1	225.0/580.0	65.12
2	225.0/600.0	57.27
3	230.0/345.0	1152
4	230.0/355.0	1149
5	235.0/260.0	300.1
6	235.0/405.0	1166
7	240.0/265.0	387.1
8	240.0/400.0	1172
9	240.0/525.0	312.1
10	245.0/270.0	451.0
11	245.0/405.0	1173
12	245.0/535.0	259.2
13	250.0/275.0	598.2
14	255.0/280.0	591.7
15	255.0/560.0	164.4
16	260.0/290.0	542.3
17	260.0/575.0	128.3
18	265.0/295.0	733.0
19	265.0/585.0	111.8
20	270.0/300.0	1063
21	270.0/600.0	100.4
22	275.0/305.0	1172
23	275.0/610.0	92.32
24	280.0/625.0	75.66
25	285.0/320.0	970.8
26	285.0/635.0	55.36
27	290.0/325.0	843.8
28	305.0/345.0	523.7
29	310.0/350.0	460.2
30	315.0/355.0	454.1
31	320.0/365.0	472.4
32	325.0/370.0	468.0
33	330.0/375.0	474.0
34	485.0/265.0	2.139
35	495.0/270.0	2.370
36	505.0/275.0	3.195
37	510.0/280.0	3.660
38	520.0/285.0	3.466
39	520.0/415.0	4.851
40	530.0/290.0	3.445
41	530.0/425.0	4.828
42	545.0/300.0	5.724
43	550.0/305.0	6.351
44	560.0/310.0	5.915
45	570.0/315.0	5.769
46	580.0/320.0	5.463
47	585.0/325.0	5.222

Data points
	220.0	225.0	230.0	235.0	240.0	245.0	250.0	255.0	260.0	265.0	270.0	275.0	280.0	285.0	290.0	295.0	300.0	305.0	310.0	315.0	320.0	325.0	330.0	335.0	340.0	345.0	350.0	355.0	360.0	365.0	370.0	375.0	380.0	385.0	390.0	395.0	400.0	405.0	410.0	415.0	420.0	425.0	430.0	435.0	440.0	445.0	450.0	455.0	460.0	465.0	470.0	475.0	480.0	485.0	490.0	495.0	500.0	505.0	510.0	515.0	520.0	525.0	530.0	535.0	540.0	545.0	550.0	555.0	560.0	565.0	570.0	575.0	580.0	585.0	590.0	595.0	600.0
230.0	81.04	1062	1708	366.5	14.52	6.377	5.147	4.386	3.980	3.564	3.332	2.802	2.483	2.199	1.835	1.460	1.328	1.111	1.093	1.046	0.882	0.899	0.858	0.815	0.761	0.737	0.674	0.549	0.585	0.596	0.601	0.500	0.508	0.445	0.448	0.435	0.414	0.391	0.380	0.386	0.490	0.528	0.500	0.396	0.318	0.374	1.571	4.786	6.006	3.368	1.044	0.345	0.252	0.251	0.245	0.253	0.274	0.248	0.255	0.254	0.267	0.299	0.279	0.269	0.275	0.242	0.253	0.252	0.277	0.253	0.279	0.276	0.262	0.249	0.250	0.273	0.285
235.0	124.3	315.0	1351	1739	400.9	18.85	5.993	4.306	4.056	3.387	3.327	3.277	2.469	1.893	1.828	1.512	1.175	1.114	1.064	1.117	0.878	0.850	1.052	0.738	0.752	0.629	0.649	0.661	0.664	0.599	0.613	0.507	0.542	0.470	0.424	0.355	0.454	0.381	0.339	0.340	0.355	0.444	0.615	0.591	0.551	0.386	0.601	1.459	2.873	4.714	6.136	5.396	2.310	0.462	0.300	0.264	0.284	0.253	0.277	0.246	0.288	0.292	0.312	0.260	0.258	0.247	0.244	0.257	0.232	0.238	0.245	0.265	0.262	0.273	0.281	0.250	0.334
240.0	181.7	145.5	470.9	1839	1808	301.3	11.56	5.530	4.316	4.194	2.980	3.335	2.879	2.010	1.922	1.711	1.436	1.149	1.088	1.099	0.860	0.893	1.017	0.746	0.757	0.644	0.658	0.564	0.592	0.624	0.621	0.571	0.442	0.509	0.453	0.413	0.408	0.364	0.401	0.405	0.353	0.366	0.454	0.542	0.658	0.874	0.543	0.620	0.895	1.691	4.124	8.892	9.695	5.373	1.686	0.336	0.339	0.267	0.312	0.258	0.309	0.332	0.274	0.270	0.266	0.270	0.267	0.287	0.268	0.241	0.273	0.227	0.239	0.240	0.274	0.326	0.316
245.0	161.1	207.7	159.1	733.8	2448	1776	199.0	8.057	5.689	4.983	3.584	3.700	2.890	2.338	2.039	1.774	1.428	1.334	1.372	1.098	0.824	0.895	1.005	0.797	0.714	0.595	0.725	0.639	0.619	0.609	0.623	0.634	0.477	0.438	0.446	0.449	0.430	0.377	0.439	0.397	0.385	0.436	0.390	0.491	0.506	0.809	0.824	0.646	0.503	0.586	1.171	3.605	8.344	11.97	10.19	4.562	1.207	0.349	0.282	0.305	0.274	0.262	0.230	0.309	0.218	0.302	0.258	0.313	0.259	0.267	0.265	0.222	0.265	0.243	0.286	0.296	0.284
250.0	71.46	177.4	215.2	240.2	891.2	2294	2369	658.5	28.13	5.587	4.405	4.109	3.262	2.538	2.080	1.901	1.563	1.217	1.381	1.177	1.051	0.997	0.905	0.879	0.718	0.719	0.730	0.740	0.614	0.669	0.553	0.547	0.594	0.464	0.448	0.440	0.391	0.421	0.380	0.411	0.373	0.412	0.354	0.407	0.361	0.492	0.591	0.870	0.918	0.725	0.595	1.073	2.287	4.518	7.536	10.69	13.19	10.52	5.021	1.227	0.358	0.306	0.303	0.317	0.272	0.273	0.271	0.242	0.269	0.265	0.268	0.280	0.317	0.339	0.282	0.287	0.273
255.0	39.89	67.73	202.0	290.4	267.4	653.5	2451	2875	287.7	25.01	6.917	5.162	3.933	3.045	2.359	1.893	1.742	1.314	1.308	1.452	1.134	0.966	0.891	0.843	0.730	0.719	0.735	0.839	0.678	0.695	0.668	0.567	0.600	0.475	0.360	0.438	0.412	0.354	0.454	0.423	0.369	0.390	0.364	0.412	0.333	0.389	0.359	0.423	0.604	0.890	1.208	1.127	1.002	1.346	1.923	2.943	6.272	13.39	21.54	17.71	6.781	1.416	0.309	0.287	0.292	0.281	0.244	0.279	0.273	0.322	0.342	0.291	0.280	0.338	0.280	0.366	0.299
260.0	34.33	33.57	91.48	300.1	275.7	208.9	854.8	3542	2347	230.8	14.13	6.029	4.966	3.042	2.431	1.987	1.907	1.608	1.558	1.364	1.179	0.999	0.975	0.863	0.732	0.704	0.838	0.759	0.664	0.648	0.614	0.731	0.560	0.483	0.412	0.448	0.370	0.494	0.374	0.403	0.357	0.397	0.407	0.392	0.378	0.360	0.316	0.348	0.382	0.507	0.984	1.634	1.548	1.055	0.877	1.087	1.777	4.133	10.87	21.06	25.55	17.26	5.134	0.659	0.272	0.298	0.250	0.289	0.294	0.295	0.361	0.324	0.299	0.251	0.340	0.298	0.318
265.0	35.18	26.87	40.72	173.9	387.1	228.1	260.1	1414	4618	2027	166.1	9.279	5.195	3.656	3.006	2.242	2.132	1.615	1.642	1.509	1.198	1.048	0.960	0.861	0.909	0.675	0.810	0.856	0.639	0.615	0.731	0.706	0.650	0.500	0.478	0.446	0.462	0.433	0.403	0.419	0.359	0.527	0.409	0.428	0.442	0.360	0.433	0.291	0.340	0.313	0.456	1.087	1.639	2.139	1.347	0.796	0.814	1.404	2.966	7.067	16.35	29.22	28.40	14.41	2.762	0.392	0.352	0.255	0.269	0.337	0.268	0.311	0.311	0.264	0.312	0.284	0.339
270.0	46.30	32.52	31.57	76.58	258.4	451.0	315.1	402.5	1681	4117	4069	696.3	30.38	5.781	4.424	2.840	2.547	1.961	1.720	1.454	1.283	1.135	1.077	0.955	0.922	0.795	0.776	0.839	0.641	0.689	0.635	0.686	0.604	0.560	0.497	0.516	0.464	0.533	0.439	0.396	0.394	0.482	0.466	0.428	0.476	0.420	0.357	0.382	0.398	0.266	0.330	0.571	0.887	1.506	2.014	2.370	1.686	1.356	1.218	2.044	4.259	9.176	16.32	24.99	27.40	20.43	11.27	2.698	0.441	0.362	0.369	0.319	0.309	0.271	0.361	0.274	0.324
275.0	91.19	71.72	51.93	64.94	145.0	329.2	598.2	335.2	436.6	1108	4072	6882	918.1	23.55	5.973	3.652	3.184	2.417	1.800	1.796	1.348	1.419	1.255	1.019	1.078	0.925	0.809	0.927	0.791	0.786	0.669	0.639	0.630	0.623	0.508	0.623	0.586	0.470	0.496	0.503	0.502	0.446	0.481	0.422	0.531	0.468	0.445	0.395	0.397	0.339	0.341	0.506	0.593	0.915	1.031	1.692	2.585	3.195	2.082	1.263	1.401	2.518	4.077	6.282	9.321	20.65	39.18	30.67	16.14	2.516	0.444	0.425	0.419	0.315	0.376	0.343	0.303
280.0	134.9	110.1	86.00	72.81	130.3	210.9	469.8	591.7	240.3	312.7	1275	6114	6274	141.2	12.49	5.016	4.010	2.979	2.359	1.959	1.537	1.551	1.347	1.082	1.141	1.143	0.873	0.960	0.759	0.821	0.705	0.584	0.621	0.714	0.591	0.642	0.721	0.560	0.569	0.683	0.575	0.549	0.562	0.577	0.548	0.572	0.617	0.544	0.563	0.421	0.399	0.533	0.623	0.757	0.879	1.138	1.480	2.615	3.660	2.919	1.372	1.131	1.361	1.827	2.635	5.606	15.21	30.53	44.85	28.56	10.92	1.204	0.417	0.352	0.432	0.427	0.356
285.0	195.6	171.7	133.4	88.00	121.6	168.1	265.9	588.2	340.6	175.4	373.7	2032	7203	4881	100.8	7.622	5.326	3.554	2.949	2.150	1.837	1.422	1.624	1.065	1.126	1.177	1.047	0.857	0.877	0.740	0.717	0.721	0.596	0.687	0.739	0.687	0.783	0.696	0.700	0.670	0.629	0.591	0.633	0.621	0.600	0.753	0.702	0.707	0.672	0.473	0.510	0.533	0.670	0.687	0.802	0.933	1.005	1.431	2.194	3.457	3.466	2.070	1.077	1.006	1.302	1.863	4.109	8.705	21.08	38.88	45.61	23.52	6.287	0.581	0.374	0.383	0.321
290.0	268.2	274.0	195.7	125.9	130.3	159.3	185.4	304.2	542.3	477.7	249.8	598.8	2256	5217	4992	423.2	22.08	4.837	3.721	2.613	1.963	1.866	1.531	1.378	1.257	1.189	0.971	0.916	0.849	0.812	0.775	0.753	0.654	0.753	0.721	0.815	0.873	0.837	0.828	0.698	0.691	0.738	0.748	0.688	0.790	0.910	0.850	0.850	0.841	0.606	0.554	0.598	0.717	0.710	0.796	0.808	0.973	1.056	1.185	1.711	2.341	3.282	3.445	2.497	1.622	1.420	1.881	2.785	5.623	10.76	18.87	27.82	29.98	31.16	16.12	5.589	0.847
295.0	350.8	369.4	268.5	182.2	158.7	179.5	205.1	248.1	354.2	733.0	691.3	410.9	700.2	1364	3614	6160	593.5	18.08	4.761	3.353	2.412	2.124	1.730	1.445	1.393	1.242	0.977	0.995	0.890	0.857	0.838	0.824	0.730	0.820	0.717	0.864	1.022	0.954	0.881	0.732	0.787	0.796	0.925	1.027	0.982	0.975	1.124	0.905	1.148	0.895	0.800	0.780	0.913	0.751	0.813	0.879	1.050	1.068	1.258	1.228	1.703	2.012	2.689	4.038	4.688	3.104	2.111	1.905	2.421	3.646	5.202	7.190	8.582	17.37	35.11	35.79	25.16
300.0	442.0	447.1	325.6	245.3	203.0	240.4	277.3	325.3	366.7	627.1	1063	675.0	467.5	508.9	1078	4781	5214	86.27	9.406	4.378	2.874	2.419	2.138	1.730	1.516	1.439	1.065	1.147	1.037	0.911	0.876	0.830	0.755	0.894	0.808	0.993	1.016	0.920	0.925	0.846	0.956	0.909	0.996	0.924	1.089	1.212	1.093	1.231	1.169	1.001	0.877	0.879	1.105	1.029	1.072	1.068	1.287	1.334	1.546	1.761	1.983	2.063	2.326	3.165	5.059	5.724	4.602	2.724	2.425	2.467	2.624	2.927	3.023	5.055	11.01	24.02	43.58
305.0	478.7	500.2	391.9	294.4	262.6	307.5	367.3	445.8	532.3	672.4	1003	1172	632.8	417.2	432.6	1498	5437	4031	66.52	6.499	3.943	2.885	2.309	1.815	1.930	1.502	1.151	1.161	1.083	1.013	0.882	0.926	0.850	0.882	0.864	0.922	1.082	1.057	1.017	1.086	1.050	1.005	1.012	1.067	1.108	1.364	1.145	1.393	1.184	1.063	1.095	1.081	1.223	1.259	1.356	1.418	1.740	1.824	2.077	2.375	2.463	2.793	2.913	3.120	3.911	5.144	6.351	5.970	3.972	2.960	2.633	2.312	2.296	2.427	3.613	6.716	15.52
310.0	507.2	577.8	440.9	345.6	316.8	363.5	449.3	545.0	647.8	752.9	888.8	1131	1058	580.7	358.1	490.9	1645	3860	3902	299.0	17.00	3.807	2.919	2.187	1.994	1.565	1.325	1.281	1.189	1.053	1.083	0.870	0.892	0.810	0.858	1.008	1.027	1.195	1.107	1.084	1.216	1.096	1.031	1.160	1.207	1.385	1.324	1.619	1.428	1.312	1.228	1.333	1.412	1.364	1.586	1.709	2.081	2.321	2.448	2.673	2.803	3.265	3.472	3.642	3.926	4.200	4.804	5.621	5.915	5.283	4.148	2.852	2.365	2.072	2.167	2.696	4.489
315.0	538.9	639.2	497.0	386.8	366.0	403.3	502.6	597.4	709.5	803.7	887.4	944.1	1017	958.3	452.9	305.4	508.4	975.0	2523	4436	460.3	14.85	4.075	2.684	2.310	1.672	1.427	1.423	1.322	1.199	1.062	1.049	0.864	0.831	0.911	0.947	1.034	1.150	1.090	1.260	1.206	1.152	1.095	1.338	1.328	1.499	1.602	1.711	1.662	1.448	1.351	1.457	1.610	1.519	1.778	1.870	2.253	2.428	2.621	2.720	3.020	3.211	3.588	3.812	3.998	3.924	4.238	4.511	4.437	4.611	5.769	5.020	3.535	2.385	2.272	1.829	2.153
320.0	587.8	705.0	587.4	433.7	391.8	430.6	503.7	610.0	703.2	810.5	883.0	908.9	870.6	970.8	701.2	313.7	281.9	319.6	690.8	3258	3933	66.08	8.156	3.353	2.682	2.011	1.715	1.661	1.398	1.107	1.008	0.877	0.954	0.850	0.927	0.982	1.083	1.078	1.020	1.114	1.133	1.267	1.202	1.256	1.383	1.611	1.684	1.991	1.777	1.596	1.384	1.543	1.651	1.823	1.694	2.005	2.256	2.518	2.589	2.947	3.217	3.241	3.631	3.782	3.961	3.989	4.129	4.152	4.207	4.036	4.426	5.024	5.463	4.109	2.619	1.971	1.845
325.0	643.1	807.2	701.5	522.3	414.9	439.9	516.3	612.1	691.0	790.2	862.1	881.6	819.4	795.1	843.8	452.7	259.6	190.2	220.5	943.9	3767	3207	56.38	5.429	3.186	2.431	2.144	1.701	1.422	1.381	1.075	0.883	1.006	0.758	0.924	0.996	0.974	1.101	1.092	1.093	1.077	1.207	1.112	1.481	1.436	1.759	1.854	2.071	2.108	1.869	1.732	1.745	1.693	1.679	1.777	1.904	2.190	2.539	2.470	3.035	3.219	3.484	3.439	3.877	3.812	3.905	4.114	4.365	3.968	3.856	3.745	3.999	4.816	5.222	4.293	2.768	1.939
330.0	713.8	953.8	878.8	700.3	534.9	480.0	512.6	600.8	675.1	757.7	837.6	855.5	814.0	714.2	686.0	635.9	396.1	201.8	145.2	272.4	1083	2827	3080	820.3	16.08	3.319	2.485	1.925	1.579	1.313	1.294	1.071	1.003	0.795	0.928	0.907	1.020	1.113	1.117	1.136	1.140	1.212	1.314	1.544	1.705	1.930	2.083	2.497	2.640	2.426	2.156	2.194	2.113	1.993	2.041	2.066	2.376	2.338	2.717	2.788	3.004	3.386	3.365	3.814	3.862	3.896	4.089	4.119	4.102	3.825	3.658	3.590	3.907	3.806	4.039	4.218	3.464
335.0	810.6	1037	1048	877.2	669.3	549.5	534.5	600.6	657.0	732.7	815.7	850.6	812.1	719.9	617.4	553.7	583.9	335.9	171.3	158.9	305.0	696.1	1918	3724	403.0	16.21	3.376	2.419	1.799	1.531	1.287	1.258	1.038	0.957	1.007	0.847	0.983	1.067	1.117	1.181	1.139	1.282	1.548	1.474	1.823	2.069	2.466	2.792	2.918	2.615	2.550	2.800	2.438	2.527	2.225	2.178	2.374	2.460	2.590	2.671	2.936	3.302	3.329	3.569	3.969	3.606	3.675	3.968	3.958	3.546	3.666	3.759	3.872	3.312	3.293	3.030	3.657
340.0	819.4	1083	1120	947.3	739.1	585.4	557.5	600.2	646.6	710.1	794.0	828.5	808.5	725.4	614.5	509.0	538.3	501.3	236.9	160.3	156.7	215.8	526.4	2647	3291	316.0	7.167	2.919	2.284	1.660	1.466	1.352	1.180	1.064	1.058	0.871	1.141	1.179	1.156	1.252	1.119	1.181	1.258	1.706	1.864	2.184	2.532	2.882	3.044	2.857	2.855	3.147	2.923	2.831	2.310	2.371	2.596	2.654	2.657	2.624	2.838	3.281	3.407	3.371	3.635	3.664	3.730	3.865	3.970	3.925	3.741	3.750	3.535	3.376	3.022	3.040	3.365
345.0	799.6	1095	1152	1007	775.9	635.2	584.2	609.7	652.0	717.8	775.9	808.0	793.1	717.7	614.2	508.3	458.2	523.7	374.4	196.9	149.0	133.5	175.4	773.0	3087	2752	49.95	4.805	2.655	2.249	1.611	1.417	1.229	1.120	1.071	0.958	1.091	1.125	1.128	1.165	1.026	1.076	1.317	1.530	1.827	2.290	2.283	3.055	3.135	3.102	2.940	3.369	3.057	2.755	2.465	2.324	2.519	2.546	2.825	2.715	3.004	3.110	3.436	3.418	3.487	3.597	3.765	3.626	3.921	4.004	3.750	3.820	3.414	3.482	3.022	3.215	3.074
350.0	810.3	1054	1141	1033	855.4	699.1	635.2	642.7	671.0	716.6	765.7	790.0	779.3	721.6	632.7	534.8	460.1	443.2	460.2	341.5	203.0	156.0	133.6	239.5	893.9	2310	2485	220.4	14.40	2.972	1.933	1.640	1.271	1.147	1.028	0.929	1.048	1.153	1.121	1.148	1.085	1.211	1.347	1.496	1.911	2.118	2.450	3.131	3.131	3.067	3.012	3.408	3.391	3.112	2.841	2.715	2.698	2.649	2.783	2.823	3.068	3.161	3.378	3.516	3.563	3.607	3.823	3.726	3.820	3.825	3.625	3.747	3.628	3.729	3.191	3.358	3.351
355.0	814.5	1017	1149	1074	931.7	776.4	712.2	698.4	718.8	741.7	774.8	797.6	779.2	741.9	660.6	569.9	492.0	447.3	417.3	454.1	342.6	211.0	166.0	156.1	268.2	576.6	1572	2992	363.3	14.97	2.719	1.801	1.427	1.338	1.114	1.052	1.041	1.136	1.263	1.146	1.162	1.117	1.400	1.486	1.689	2.116	2.514	2.749	2.993	2.942	3.052	3.447	3.439	3.136	3.138	2.961	3.010	2.842	3.145	2.997	3.184	3.156	3.539	3.674	3.580	3.478	3.724	3.694	3.579	3.744	3.825	3.544	3.680	3.679	3.327	3.726	3.311
360.0	826.0	996.4	1116	1086	959.1	843.6	765.3	752.1	759.4	778.5	793.7	814.6	788.8	746.4	672.5	594.6	526.5	466.6	421.4	438.5	459.4	291.8	206.2	162.6	151.4	192.6	437.2	2153	2815	292.0	6.895	2.522	1.722	1.443	1.182	1.142	1.099	1.107	1.275	1.210	1.213	1.172	1.348	1.447	1.772	2.113	2.433	2.876	2.945	2.872	3.072	3.398	3.438	3.572	3.277	3.191	3.208	3.297	3.286	3.321	3.373	3.451	3.475	3.651	3.513	3.402	3.811	3.647	3.704	3.539	3.752	3.687	3.528	3.783	3.659	3.502	3.444
365.0	811.9	989.7	1085	1080	999.7	893.3	812.4	792.5	804.3	810.4	823.9	828.0	802.2	752.2	688.9	617.6	553.8	499.4	449.9	426.3	472.4	413.1	260.9	195.3	151.3	126.4	154.5	642.2	2654	2372	46.67	4.170	2.191	1.805	1.258	1.135	1.078	1.183	1.200	1.195	1.199	1.205	1.370	1.590	1.745	2.155	2.429	2.766	2.857	2.916	2.890	3.653	3.618	3.824	3.428	3.310	3.395	3.409	3.528	3.624	3.496	3.589	3.730	3.457	3.445	3.885	3.671	3.729	3.856	3.719	3.704	3.980	3.836	3.676	3.652	3.642	3.442
370.0	813.3	953.8	1086	1089	1034	947.0	879.5	849.5	858.9	862.4	853.1	841.1	809.1	759.0	702.6	639.2	590.4	544.3	498.8	461.1	447.6	468.0	392.3	265.1	196.1	149.7	120.4	203.3	777.8	2060	2219	200.0	12.94	2.357	1.796	1.406	1.232	1.201	1.154	1.226	1.251	1.321	1.420	1.586	1.814	2.086	2.305	2.606	3.049	2.899	2.998	3.777	3.781	3.805	3.644	3.576	3.821	3.533	3.810	3.809	3.739	3.810	3.890	3.782	3.985	3.852	3.944	3.708	3.925	3.874	3.884	3.845	4.006	3.936	3.749	3.677	3.770
375.0	816.0	966.7	1084	1106	1071	1015	930.9	905.6	893.6	897.3	883.7	866.4	824.0	773.7	718.0	664.0	618.9	586.2	540.6	503.1	470.2	453.8	474.0	387.6	258.5	196.5	147.5	131.9	232.7	515.2	1454	2603	312.6	11.92	2.395	1.643	1.438	1.399	1.324	1.264	1.409	1.443	1.422	1.760	1.815	2.113	2.264	2.698	2.858	2.782	3.114	3.772	3.927	3.963	3.696	3.996	3.835	3.871	3.967	4.102	4.062	4.051	4.073	3.932	4.231	4.045	4.127	3.871	3.827	3.990	4.053	4.171	3.843	4.026	3.798	3.933	4.137
380.0	833.0	954.1	1073	1125	1095	1057	972.6	944.1	927.5	922.9	907.9	884.1	834.0	784.1	730.1	677.3	640.7	612.5	571.2	537.8	499.1	463.0	459.5	468.5	334.3	236.2	180.3	138.7	130.0	167.8	408.3	1933	2283	232.7	5.393	2.271	1.755	1.485	1.241	1.304	1.405	1.587	1.545	1.744	1.826	2.274	2.257	2.720	2.862	2.707	3.112	3.838	3.681	3.772	3.979	4.053	4.004	4.034	3.932	4.086	4.325	4.215	4.287	4.117	4.279	4.116	4.030	4.048	3.731	4.108	4.090	3.881	4.086	4.275	4.094	4.093	4.018
385.0	840.0	1001	1090	1131	1120	1064	1004	981.8	960.4	944.0	933.5	886.5	839.5	787.2	740.0	687.8	653.9	628.3	597.4	563.7	529.5	489.7	459.5	472.4	421.2	287.2	211.1	164.6	127.4	107.2	138.3	578.9	2170	1798	37.66	3.547	2.009	1.648	1.407	1.463	1.478	1.593	1.617	1.824	1.828	2.329	2.240	2.710	2.933	2.845	2.964	3.855	3.832	3.861	3.879	4.006	4.179	4.303	4.107	4.204	4.371	4.289	4.281	4.338	4.195	4.220	4.110	4.107	3.971	4.173	4.084	4.186	4.131	4.341	4.346	4.155	3.921
390.0	859.6	1001	1111	1146	1138	1109	1054	1020	982.7	970.2	943.6	898.1	850.9	791.1	741.9	693.8	662.4	641.5	618.5	590.3	556.4	525.5	486.5	460.8	454.2	390.8	274.7	209.0	161.7	123.6	101.1	176.0	640.9	1586	1717	155.7	10.74	2.373	1.958	1.579	1.416	1.722	1.670	1.760	1.978	2.209	2.441	2.853	2.933	2.923	3.037	3.754	3.938	4.235	4.093	4.053	4.369	4.269	4.273	4.338	4.350	4.477	4.523	4.439	4.332	4.231	4.076	4.243	3.969	4.038	4.129	4.161	3.917	4.058	4.194	4.180	4.070
395.0	928.9	1063	1137	1155	1161	1124	1095	1053	1024	1001	974.4	911.0	863.2	798.9	748.2	696.1	667.9	652.0	632.0	612.6	578.8	556.6	516.7	484.0	448.5	442.6	374.4	266.6	207.1	160.5	120.3	106.2	188.3	397.8	1198	1877	247.8	8.950	2.526	1.877	1.704	1.654	1.817	1.866	2.015	2.195	2.455	3.105	3.072	2.925	3.042	3.967	4.079	4.291	4.145	4.234	4.396	4.667	4.489	4.573	4.480	4.596	4.600	4.440	4.334	4.297	4.234	4.144	4.165	4.055	4.114	3.986	3.934	4.100	4.302	4.409	4.078
400.0	944.8	1094	1157	1142	1172	1149	1118	1078	1056	1011	974.4	922.3	865.4	802.7	746.7	696.3	675.2	652.0	636.6	624.0	599.5	572.7	538.1	503.6	463.8	440.0	429.3	331.3	244.7	192.9	146.0	108.1	100.3	127.5	342.9	1459	1623	37.96	4.733	2.353	1.876	1.850	1.947	1.941	2.286	2.329	2.514	2.883	3.211	2.951	3.162	3.897	3.942	4.350	4.231	4.505	4.592	4.854	4.602	4.745	4.746	4.726	4.722	4.600	4.263	4.450	4.256	4.310	4.174	3.915	3.911	4.075	3.955	4.003	4.054	4.216	4.205
405.0	979.5	1083	1162	1166	1163	1173	1129	1091	1077	1029	997.6	932.0	868.2	800.9	746.7	699.5	672.1	653.4	639.0	624.3	608.3	589.9	557.3	525.6	484.2	444.2	437.3	399.6	289.6	224.2	171.6	127.4	94.69	77.61	112.0	445.0	1599	1259	32.24	3.249	2.357	2.121	1.970	2.137	2.303	2.589	2.340	3.074	2.846	2.837	3.070	3.930	3.943	4.176	4.252	4.401	4.433	4.804	4.590	4.707	4.563	4.627	4.573	4.519	4.503	4.557	4.470	4.381	4.145	4.071	3.994	4.123	3.977	3.966	3.806	4.214	4.039
410.0	957.8	1070	1163	1156	1167	1160	1129	1104	1079	1037	998.7	940.4	865.9	795.4	738.6	689.2	656.4	645.3	630.5	619.5	607.1	590.4	565.1	539.0	504.3	463.6	428.3	416.2	364.7	272.2	206.9	156.7	115.1	82.95	71.19	131.9	478.9	1183	1181	143.3	8.904	2.587	2.163	2.162	2.336	2.619	2.630	3.075	3.145	2.868	3.056	3.953	3.986	4.157	4.236	4.270	4.637	4.783	4.795	4.643	4.616	4.581	4.546	4.630	4.513	4.451	4.483	4.337	4.088	4.074	4.050	4.161	4.036	3.888	4.009	4.175	4.267
415.0	922.6	1083	1144	1155	1142	1154	1142	1096	1072	1034	992.2	935.1	854.2	781.0	713.2	663.4	637.9	624.5	616.0	602.0	590.4	575.9	563.6	534.7	509.5	470.4	432.0	400.9	384.8	335.4	245.1	180.0	135.1	98.80	73.18	70.34	133.8	295.1	834.7	1365	213.1	7.498	2.400	2.373	2.463	2.503	2.552	2.888	3.069	2.963	3.073	3.893	4.122	3.971	4.138	4.270	4.729	4.769	4.734	4.654	4.851	4.524	4.562	4.410	4.618	4.445	4.474	4.052	3.901	4.072	4.002	3.889	3.741	3.894	3.637	3.849	4.140
