Sample:	'1
File name:	Default_20230105_142016.FD3
Run date:	'14:13:55, 01/05/2023
Operator:	dsjg
Comment:	'

Instrument
Model:	F-2700 FL Spectrophotometer
Serial number:	2198-001
ROM Version:	4J14000 07

Instrument parameters
Measurement type:	3-D scan
Data mode:	Fluorescence
EX  Start WL:	220.0 nm
EX  End WL:	600.0 nm
EX Sampling interval:	5.0 nm
EM  Start WL:	230.0 nm
EM  End WL:	650.0 nm
EM Sampling interval:	5.0 nm
Scan speed:	12000 nm/min
EX Slit:	5.0 nm
EM Slit:	5.0 nm
PMT Voltage:	700 V
Response:	Auto 
Corrected spectra:	Off
Contour interval:	50.000

Peak integration
Integration method:	Rectangular
Sensitivity:	1
Threshold:	1.000

Peaks
No.	ApexEX/EM(nm)	Height(Data)
1	225.0/305.0	101.3
2	225.0/580.0	12.33
3	225.0/640.0	7.028
4	230.0/345.0	312.4
5	230.0/505.0	101.7
6	235.0/515.0	92.59
7	240.0/385.0	300.1
8	240.0/525.0	81.70
9	245.0/390.0	294.0
10	245.0/540.0	71.14
11	250.0/410.0	285.9
12	250.0/550.0	57.68
13	255.0/430.0	266.5
14	255.0/560.0	48.18
15	260.0/575.0	37.48
16	265.0/295.0	241.6
17	265.0/585.0	33.26
18	270.0/300.0	319.2
19	270.0/400.0	267.1
20	270.0/595.0	28.17
21	275.0/305.0	371.6
22	275.0/610.0	26.41
23	280.0/310.0	342.2
24	280.0/340.0	258.9
25	280.0/385.0	274.3
26	280.0/620.0	21.94
27	285.0/320.0	352.2
28	285.0/630.0	17.58
29	290.0/325.0	354.4
30	295.0/330.0	298.5
31	300.0/335.0	293.2
32	305.0/340.0	257.5
33	310.0/350.0	217.7
34	315.0/355.0	205.7
35	320.0/360.0	202.3
36	325.0/370.0	183.0
37	330.0/375.0	178.0
38	335.0/380.0	188.3
39	345.0/395.0	149.1
40	350.0/400.0	157.4
41	355.0/405.0	154.5
42	365.0/420.0	114.3
43	370.0/425.0	110.2
44	380.0/440.0	79.47
45	385.0/445.0	69.06
46	400.0/465.0	41.81
47	415.0/485.0	23.64
48	420.0/490.0	19.38
49	430.0/505.0	14.20
50	435.0/510.0	11.38
51	440.0/515.0	9.995
52	445.0/525.0	8.775
53	455.0/540.0	5.976
54	460.0/545.0	4.964
55	470.0/560.0	3.197
56	535.0/270.0	30.85
57	540.0/295.0	1.843
58	545.0/300.0	2.034
59	550.0/305.0	2.110
60	560.0/310.0	2.124
61	570.0/315.0	2.164
62	575.0/290.0	37.75
63	575.0/320.0	2.189
64	580.0/325.0	2.183

Data points
	220.0	225.0	230.0	235.0	240.0	245.0	250.0	255.0	260.0	265.0	270.0	275.0	280.0	285.0	290.0	295.0	300.0	305.0	310.0	315.0	320.0	325.0	330.0	335.0	340.0	345.0	350.0	355.0	360.0	365.0	370.0	375.0	380.0	385.0	390.0	395.0	400.0	405.0	410.0	415.0	420.0	425.0	430.0	435.0	440.0	445.0	450.0	455.0	460.0	465.0	470.0	475.0	480.0	485.0	490.0	495.0	500.0	505.0	510.0	515.0	520.0	525.0	530.0	535.0	540.0	545.0	550.0	555.0	560.0	565.0	570.0	575.0	580.0	585.0	590.0	595.0	600.0
230.0	93.42	 1506	 3547	315.9	7.691	2.648	2.315	1.902	1.866	1.615	1.505	1.257	1.177	0.892	0.805	0.741	0.655	0.710	0.600	0.581	0.552	0.562	0.565	0.571	0.511	0.519	0.433	0.423	0.407	0.391	0.424	0.353	0.360	0.364	0.344	0.437	0.369	0.347	0.309	0.282	0.305	0.294	0.255	0.251	0.217	0.229	0.479	2.230	5.972	5.652	2.370	0.447	0.168	0.151	0.121	0.120	0.132	0.095	0.079	0.080	0.072	0.060	0.046	0.049	0.050	0.042	0.035	0.039	0.032	0.026	0.024	0.001	0.022	0.003	0.001	0.002	-0.007
235.0	36.57	495.1	 3526	 2567	340.6	9.044	3.464	2.476	2.364	1.744	1.916	1.561	1.527	1.136	1.143	0.701	0.672	0.655	0.483	0.535	0.609	0.494	0.625	0.575	0.567	0.526	0.517	0.378	0.380	0.475	0.351	0.345	0.310	0.361	0.306	0.350	0.394	0.323	0.312	0.315	0.279	0.302	0.242	0.243	0.353	0.272	0.325	0.676	2.058	4.392	7.770	9.177	4.575	0.744	0.137	0.130	0.124	0.115	0.104	0.106	0.060	0.052	0.038	0.048	0.038	0.051	0.040	0.049	0.025	0.023	0.056	-0.009	0.025	-0.008	-0.011	0.013	-0.016
240.0	42.31	132.9	 1304	 3001	 2750	261.2	6.434	3.459	3.467	2.463	2.158	1.544	1.396	1.160	1.033	0.793	0.731	0.975	0.644	0.635	0.759	0.592	0.543	0.553	0.599	0.516	0.587	0.406	0.356	0.457	0.378	0.367	0.275	0.384	0.306	0.345	0.281	0.359	0.407	0.325	0.307	0.321	0.326	0.290	0.334	0.392	0.354	0.335	0.637	1.369	3.887	9.774	13.59	10.64	3.462	0.482	0.134	0.076	0.118	0.098	0.112	0.088	0.051	0.048	0.066	0.043	0.052	0.043	0.041	0.039	0.053	-0.008	0.027	0.004	-0.010	0.002	-0.009
245.0	50.71	81.99	325.5	 1384	 4068	 2295	169.5	5.781	3.753	2.974	3.212	2.112	1.576	1.182	1.084	1.058	0.807	0.863	0.764	0.750	0.694	0.693	0.655	0.551	0.540	0.595	0.598	0.533	0.426	0.441	0.435	0.402	0.328	0.365	0.331	0.388	0.244	0.318	0.364	0.352	0.309	0.350	0.276	0.247	0.234	0.376	0.490	0.402	0.408	0.449	1.040	3.475	8.732	15.95	16.63	9.429	1.937	0.142	0.101	0.113	0.095	0.115	0.065	0.049	0.072	0.060	0.071	0.057	0.055	0.045	0.031	-0.011	0.053	0.018	-0.010	0.004	-0.006
250.0	28.03	75.91	158.5	356.2	 1651	 3372	 3186	824.2	33.64	4.621	4.428	2.699	2.218	1.586	1.376	1.288	1.141	1.052	0.729	0.683	0.819	0.631	0.642	0.594	0.593	0.620	0.561	0.495	0.515	0.492	0.453	0.514	0.338	0.350	0.322	0.324	0.276	0.339	0.321	0.347	0.339	0.312	0.318	0.252	0.254	0.302	0.346	0.448	0.536	0.507	0.510	0.942	2.263	5.229	9.806	14.56	18.89	15.34	8.415	2.227	0.256	0.122	0.088	0.085	0.058	0.074	0.071	0.073	0.040	0.066	0.027	0.015	0.034	0.003	0.003	-0.002	0.010
255.0	16.69	34.39	118.0	189.5	398.0	 1003	 3638	 5028	 1311	24.37	6.018	4.710	3.048	2.366	1.770	1.419	1.173	1.109	0.766	0.761	0.783	0.792	0.659	0.743	0.575	0.578	0.678	0.534	0.545	0.558	0.564	0.480	0.419	0.370	0.378	0.268	0.278	0.317	0.308	0.316	0.329	0.314	0.346	0.280	0.277	0.323	0.275	0.355	0.255	0.482	0.679	0.834	0.866	1.303	2.344	3.605	7.336	16.04	27.68	25.00	14.09	2.466	0.179	0.140	0.077	0.098	0.092	0.057	0.054	0.057	0.021	0.037	0.027	0.009	0.003	-0.005	0.014
260.0	14.14	17.69	54.20	159.7	177.9	246.9	 1321	 5044	 6890	213.2	15.04	5.879	4.724	2.770	2.085	1.806	1.448	1.184	0.851	1.084	0.972	0.782	0.724	0.732	0.564	0.563	0.677	0.764	0.586	0.646	0.579	0.453	0.496	0.387	0.373	0.331	0.276	0.299	0.229	0.308	0.291	0.375	0.346	0.361	0.314	0.282	0.279	0.268	0.243	0.333	0.420	0.885	1.074	0.734	0.754	1.042	1.820	4.554	12.60	26.31	37.09	22.96	9.613	1.039	0.145	0.085	0.086	0.092	0.073	0.090	0.078	0.038	0.035	0.018	0.029	0.021	0.009
265.0	15.47	14.92	22.32	93.71	185.3	115.0	323.6	 2033	 8214	 4610	174.4	8.370	5.813	3.829	2.530	2.124	1.718	1.303	1.152	1.177	1.001	0.771	0.762	0.828	0.777	0.664	0.619	0.602	0.612	0.653	0.524	0.466	0.536	0.375	0.356	0.369	0.313	0.289	0.286	0.256	0.250	0.349	0.327	0.370	0.323	0.286	0.270	0.270	0.244	0.254	0.242	0.474	0.964	1.095	0.853	0.584	0.602	1.143	3.085	8.250	21.08	36.64	28.55	19.99	5.086	0.295	0.099	0.117	0.064	0.076	0.092	0.047	0.047	0.032	0.024	0.016	0.030
270.0	21.71	20.69	19.13	34.15	109.6	165.1	150.9	498.1	 2839	 5368	 6588	 1876	42.14	5.482	3.895	3.074	2.117	1.702	1.475	1.376	1.158	1.030	0.910	0.888	0.800	0.785	0.728	0.654	0.571	0.665	0.609	0.590	0.530	0.462	0.407	0.390	0.366	0.335	0.325	0.263	0.279	0.253	0.318	0.342	0.317	0.334	0.286	0.281	0.263	0.249	0.246	0.267	0.404	0.592	0.833	0.910	0.892	0.722	0.934	2.005	5.111	11.07	17.30	30.85	30.18	30.43	13.12	5.411	0.343	0.116	0.082	0.089	0.090	0.077	0.060	0.053	0.040
275.0	38.35	40.99	33.57	23.12	38.51	98.16	205.5	209.8	661.2	 1455	 5225	 7950	 1121	45.35	6.135	4.355	3.323	2.386	1.767	1.779	1.424	0.991	1.015	1.001	0.953	0.909	0.758	0.676	0.760	0.724	0.680	0.683	0.626	0.466	0.412	0.427	0.428	0.417	0.356	0.259	0.329	0.299	0.301	0.329	0.403	0.470	0.447	0.432	0.308	0.378	0.262	0.248	0.275	0.293	0.374	0.478	0.893	1.319	1.172	0.881	1.325	2.661	4.118	7.353	10.50	24.60	43.49	50.15	19.99	4.417	0.232	0.139	0.119	0.113	0.047	0.081	0.087
280.0	49.19	58.89	47.87	27.12	22.37	43.54	153.1	230.5	217.1	360.3	 1675	 5994	 7693	863.3	20.94	5.559	3.992	2.954	2.301	2.204	1.778	1.334	1.201	1.208	1.022	0.910	0.798	0.866	0.720	0.696	0.802	0.694	0.645	0.562	0.519	0.516	0.482	0.415	0.347	0.265	0.344	0.275	0.295	0.357	0.349	0.386	0.436	0.468	0.412	0.382	0.301	0.299	0.281	0.284	0.240	0.334	0.499	0.833	1.381	1.381	0.985	0.885	1.161	1.883	2.599	6.688	16.99	38.72	53.77	29.51	13.62	1.317	0.164	0.093	0.077	0.089	0.058
285.0	65.61	78.75	60.26	35.87	22.60	25.69	76.13	204.5	215.3	133.8	423.5	 2101	 6911	 6966	104.8	9.898	5.137	3.701	3.145	2.360	1.931	1.662	1.384	1.233	1.193	1.066	0.892	0.928	0.793	0.807	0.652	0.743	0.593	0.626	0.560	0.493	0.493	0.390	0.322	0.345	0.307	0.297	0.265	0.296	0.367	0.429	0.510	0.453	0.523	0.433	0.378	0.340	0.315	0.230	0.231	0.329	0.305	0.494	0.740	1.370	1.517	1.213	0.749	0.715	0.844	1.804	4.205	11.52	26.16	46.57	57.37	24.90	6.426	0.262	0.131	0.076	0.064
290.0	72.86	88.23	74.37	43.40	27.73	25.62	42.52	102.4	211.9	211.7	175.5	527.5	 2184	 5366	 6294	 2349	30.77	5.903	4.090	3.301	2.437	1.896	1.723	1.524	1.288	1.210	1.098	1.042	0.965	0.758	0.774	0.729	0.639	0.546	0.603	0.514	0.505	0.431	0.433	0.403	0.330	0.319	0.310	0.334	0.375	0.431	0.466	0.517	0.520	0.477	0.395	0.368	0.320	0.285	0.297	0.280	0.287	0.345	0.399	0.648	0.932	1.329	1.448	1.278	0.827	0.754	1.274	2.908	6.388	13.61	25.75	37.75	34.83	37.91	13.96	4.765	0.232
295.0	80.25	94.63	79.67	51.61	36.12	32.73	41.10	60.29	114.3	241.6	230.7	198.8	539.7	 1351	 3528	 8556	 3338	35.69	6.226	4.083	3.474	2.416	2.323	1.654	1.643	1.421	1.241	1.165	1.042	0.912	0.898	0.783	0.718	0.718	0.513	0.527	0.558	0.452	0.500	0.453	0.331	0.353	0.315	0.390	0.401	0.408	0.432	0.489	0.555	0.563	0.464	0.373	0.336	0.345	0.399	0.401	0.356	0.382	0.351	0.465	0.544	0.688	0.948	1.493	1.843	1.307	0.787	1.015	1.715	3.291	6.063	9.104	11.74	27.87	53.98	63.32	20.10
300.0	83.91	95.64	82.56	60.47	44.64	44.35	52.75	65.79	92.42	182.2	319.2	206.9	200.9	360.3	 1060	 5174	 8976	556.6	21.57	5.959	4.576	3.432	2.569	2.079	1.767	1.592	1.304	1.231	1.208	1.020	0.904	0.806	0.884	0.814	0.669	0.666	0.537	0.489	0.460	0.419	0.348	0.388	0.350	0.359	0.365	0.443	0.482	0.539	0.550	0.514	0.485	0.449	0.442	0.379	0.358	0.335	0.442	0.430	0.427	0.483	0.554	0.598	0.705	0.933	1.634	2.034	1.724	0.987	0.863	1.125	1.738	2.353	3.073	7.580	20.49	48.97	66.73
305.0	86.26	101.3	93.24	66.25	58.37	60.74	71.65	87.47	111.9	160.4	285.7	371.6	179.1	169.9	313.2	 1603	 6385	 8367	438.4	11.02	5.736	4.104	2.995	2.722	2.191	1.822	1.475	1.373	1.322	1.049	0.988	0.901	0.909	0.794	0.675	0.580	0.533	0.579	0.503	0.419	0.375	0.382	0.411	0.362	0.412	0.516	0.490	0.519	0.477	0.610	0.512	0.554	0.489	0.431	0.387	0.462	0.488	0.466	0.567	0.543	0.650	0.660	0.778	0.832	1.156	1.686	2.110	2.054	1.381	0.901	0.904	1.053	1.217	2.103	5.172	14.15	31.93
310.0	84.00	95.95	93.95	78.28	68.76	74.28	89.51	101.8	128.6	157.8	214.6	316.6	342.2	206.4	163.6	432.1	 1836	 5478	 5846	 1803	24.78	6.046	4.316	3.327	2.640	2.179	1.754	1.624	1.530	1.253	1.107	0.975	0.968	0.895	0.675	0.660	0.616	0.618	0.536	0.502	0.455	0.395	0.417	0.385	0.402	0.468	0.478	0.545	0.520	0.497	0.513	0.582	0.578	0.497	0.486	0.531	0.574	0.602	0.685	0.659	0.707	0.819	0.904	0.925	1.022	1.243	1.359	1.800	2.124	1.818	1.373	0.941	0.918	1.047	1.587	3.593	7.915
315.0	91.80	99.45	105.3	87.35	84.00	86.89	99.40	116.5	137.3	168.3	199.4	244.3	308.6	348.9	195.5	183.8	482.3	 1339	 3194	 9220	 2827	30.05	6.038	4.610	3.419	2.518	2.189	1.799	1.652	1.513	1.242	1.132	1.041	0.881	0.783	0.746	0.632	0.671	0.585	0.534	0.497	0.430	0.465	0.398	0.427	0.460	0.510	0.580	0.595	0.522	0.498	0.670	0.582	0.562	0.575	0.597	0.659	0.704	0.723	0.787	0.881	0.882	0.938	1.012	0.988	1.150	1.208	1.306	1.433	1.681	2.164	1.828	1.245	0.959	0.915	1.345	2.265
320.0	98.30	127.9	127.9	102.1	92.18	97.39	113.1	130.8	151.7	182.2	209.5	234.3	259.2	352.2	304.8	154.7	193.6	364.5	882.3	 5100	 9567	419.7	19.20	6.155	4.211	3.068	2.684	2.074	1.830	1.720	1.251	1.399	1.130	0.846	0.867	0.834	0.664	0.739	0.527	0.535	0.508	0.466	0.496	0.505	0.417	0.505	0.590	0.605	0.679	0.555	0.506	0.605	0.596	0.631	0.654	0.658	0.765	0.670	0.816	0.706	0.841	0.972	1.062	1.141	1.064	1.060	1.257	1.177	1.237	1.423	1.679	2.189	2.151	1.402	0.988	0.982	1.170
325.0	118.1	168.6	176.6	129.5	105.8	108.3	122.6	140.1	158.4	189.5	218.6	240.0	246.7	285.4	354.4	226.0	142.8	154.2	244.1	 1437	 6843	 8418	349.2	10.26	5.242	4.033	3.054	2.431	2.186	1.882	1.473	1.412	1.236	1.058	1.012	0.770	0.720	0.683	0.579	0.638	0.548	0.545	0.554	0.479	0.490	0.605	0.714	0.760	0.845	0.683	0.603	0.784	0.590	0.676	0.787	0.677	0.768	0.727	0.775	0.948	0.885	0.997	1.126	1.200	1.229	1.090	1.225	1.205	1.209	1.369	1.434	1.494	2.183	2.147	1.521	0.944	1.004
330.0	138.3	208.3	230.2	179.5	135.5	119.8	128.7	146.8	163.0	193.4	223.9	252.5	249.8	247.8	276.3	298.5	206.9	121.5	111.0	362.3	 1833	 5728	 7725	 1533	22.81	5.916	4.192	3.197	2.564	2.367	1.946	1.524	1.380	1.140	1.046	0.918	0.802	0.741	0.668	0.599	0.518	0.508	0.537	0.495	0.511	0.625	0.661	0.912	0.993	0.970	0.829	0.882	0.757	0.747	0.814	0.818	0.777	0.849	0.871	0.898	0.908	0.993	1.062	1.118	1.202	1.149	1.283	1.216	1.360	1.369	1.473	1.372	1.603	1.741	1.937	1.822	1.437
335.0	153.3	240.3	273.0	218.3	163.8	136.8	137.7	151.7	172.1	203.6	236.0	254.0	257.1	245.1	231.3	239.5	293.2	179.6	95.94	129.8	443.5	 1347	 3766	 9868	 2436	27.69	5.880	4.583	3.311	2.726	2.322	1.811	1.531	1.384	1.096	0.995	0.902	0.798	0.787	0.658	0.633	0.602	0.599	0.495	0.630	0.743	0.774	0.966	1.164	1.150	0.988	1.113	0.856	0.926	0.836	0.727	0.918	0.972	0.967	0.894	0.917	1.079	1.089	1.141	1.185	1.177	1.351	1.397	1.464	1.365	1.507	1.472	1.379	1.400	1.431	1.545	2.016
340.0	158.5	254.8	294.7	240.9	177.9	148.5	149.5	157.9	176.8	205.3	230.9	254.8	258.9	245.2	225.5	205.9	251.4	257.5	119.1	85.35	139.5	331.8	965.1	 5751	 9993	368.1	17.83	5.615	4.328	2.986	2.577	1.966	1.670	1.539	1.228	1.049	1.022	0.834	0.841	0.732	0.688	0.543	0.633	0.539	0.599	0.800	0.846	0.986	1.237	1.207	1.034	1.179	0.982	0.978	0.877	0.861	0.924	1.009	1.079	1.026	0.982	1.107	1.117	1.116	1.212	1.274	1.399	1.450	1.404	1.484	1.544	1.458	1.432	1.268	1.257	1.294	1.562
345.0	162.3	250.4	312.4	257.3	190.7	166.4	156.5	163.1	177.1	204.5	230.5	252.8	254.2	244.0	222.3	196.4	196.7	256.5	187.2	88.45	78.03	110.3	244.8	 1589	 7716	 8352	312.9	9.297	5.182	4.091	2.963	2.347	1.938	1.651	1.258	1.066	1.123	0.971	0.897	0.695	0.689	0.557	0.572	0.592	0.618	0.793	0.833	1.036	1.191	1.287	1.188	1.221	1.076	0.977	0.864	0.900	0.936	0.994	1.011	0.957	0.959	1.062	1.143	1.119	1.179	1.329	1.432	1.338	1.392	1.471	1.367	1.369	1.400	1.183	1.170	1.147	1.180
350.0	153.6	234.6	297.1	270.0	211.3	176.6	171.3	172.5	181.9	202.2	226.2	243.3	249.1	239.6	219.2	194.0	176.9	190.1	217.7	160.8	82.70	71.66	90.36	383.8	 2069	 6297	 7337	 1341	20.88	5.569	4.049	2.903	2.265	1.896	1.506	1.175	1.193	1.000	0.947	0.741	0.665	0.668	0.633	0.609	0.667	0.799	0.843	1.015	1.117	1.188	1.191	1.230	1.101	1.075	0.921	0.916	0.962	1.005	0.999	1.016	1.022	1.059	1.275	1.146	1.195	1.221	1.242	1.388	1.364	1.380	1.300	1.387	1.350	1.302	1.144	1.153	1.202
355.0	141.7	228.9	285.1	266.9	227.9	195.6	193.0	187.8	190.3	201.0	226.6	237.0	240.8	233.8	217.1	196.9	176.7	163.6	165.3	205.7	147.8	79.21	66.97	122.3	487.6	 1463	 3811	 9001	 2286	25.87	5.437	3.677	2.921	2.340	1.712	1.325	1.190	1.116	1.011	0.846	0.770	0.778	0.677	0.511	0.703	0.709	0.780	1.042	1.084	1.189	1.143	1.272	1.158	1.141	1.124	0.958	1.019	1.062	1.084	1.082	1.194	1.057	1.136	1.240	1.133	1.219	1.185	1.412	1.343	1.330	1.244	1.422	1.346	1.318	1.030	1.189	1.219
360.0	133.2	214.3	283.8	268.1	234.6	210.0	207.0	194.3	203.7	206.4	225.9	233.6	236.3	233.6	215.7	197.9	180.4	163.4	149.6	174.9	202.3	111.3	67.08	70.82	141.0	350.8	970.3	 5475	 9485	358.1	15.57	4.746	3.635	2.670	1.886	1.551	1.329	1.257	0.991	0.968	0.779	0.774	0.662	0.617	0.775	0.722	0.802	1.077	1.189	1.142	1.132	1.198	1.149	1.195	1.077	1.037	1.107	1.115	1.087	1.138	1.126	1.215	1.109	1.272	1.134	1.152	1.179	1.358	1.350	1.321	1.402	1.357	1.394	1.260	1.193	1.190	1.196
365.0	128.8	204.5	267.4	262.9	242.9	226.0	217.3	209.7	206.9	213.2	223.5	232.4	235.7	232.0	216.2	198.7	183.6	166.1	151.0	148.8	193.6	172.4	87.37	66.63	70.79	108.2	239.9	 1527	 7712	 7852	278.3	8.575	4.624	3.229	2.313	1.677	1.392	1.237	1.145	0.978	0.829	0.782	0.709	0.669	0.698	0.739	0.869	0.915	1.182	1.087	1.105	1.211	1.265	1.268	1.104	1.108	1.065	1.186	1.091	1.180	1.200	1.247	1.220	1.262	1.170	1.161	1.168	1.373	1.280	1.326	1.276	1.354	1.327	1.205	1.288	1.144	1.159
370.0	129.0	197.4	257.7	270.4	253.1	240.6	235.1	222.7	220.0	220.9	229.4	233.8	238.9	230.6	215.5	201.9	190.1	175.1	160.5	146.7	154.6	183.0	153.0	87.26	65.84	62.79	84.58	366.1	 2103	 6210	 7228	 1256	17.92	4.439	3.198	2.262	1.799	1.424	1.291	1.061	0.952	0.755	0.754	0.706	0.702	0.780	0.770	0.982	1.125	1.088	1.134	1.274	1.297	1.247	1.263	1.215	1.193	1.285	1.210	1.183	1.326	1.224	1.206	1.270	1.222	1.280	1.300	1.333	1.263	1.249	1.241	1.322	1.259	1.252	1.312	1.155	1.154
375.0	129.2	192.5	252.8	272.7	274.9	270.2	253.1	245.7	236.9	231.7	242.0	243.3	254.8	238.7	214.5	204.1	192.8	183.8	170.6	156.1	146.2	150.1	178.0	152.3	84.24	66.31	63.38	120.2	497.6	 1447	 4083	 8860	 1938	21.97	4.593	2.989	2.328	1.778	1.514	1.197	1.203	0.899	0.842	0.729	0.764	0.871	0.739	0.977	1.174	1.055	1.142	1.399	1.306	1.384	1.350	1.367	1.336	1.286	1.279	1.375	1.303	1.192	1.277	1.405	1.316	1.312	1.352	1.360	1.392	1.433	1.308	1.239	1.239	1.355	1.303	1.287	1.270
380.0	122.3	187.5	242.4	279.8	291.1	282.2	260.9	250.6	242.8	243.8	252.6	253.0	266.5	241.5	216.1	204.0	197.6	186.1	176.7	162.8	149.6	143.4	156.2	188.3	125.4	78.49	70.45	77.61	149.6	353.3	 1076	 5809	 8403	299.0	12.36	3.750	2.764	2.039	1.766	1.254	1.074	1.080	0.930	0.724	0.753	0.875	0.867	1.012	1.158	1.056	1.039	1.374	1.247	1.493	1.399	1.388	1.449	1.468	1.339	1.440	1.363	1.281	1.329	1.279	1.472	1.447	1.372	1.253	1.311	1.435	1.329	1.268	1.383	1.366	1.178	1.239	1.325
385.0	119.8	178.8	236.4	276.2	300.1	290.2	270.7	263.4	250.3	252.1	261.8	259.9	274.3	244.7	216.8	204.4	196.4	188.9	178.0	169.4	158.2	145.5	142.9	176.0	172.7	99.72	79.82	75.78	77.42	113.9	281.1	 1651	 7182	 6463	231.0	5.772	3.427	2.490	1.962	1.402	1.166	1.058	1.040	0.815	0.817	0.877	0.905	1.102	1.101	1.087	1.099	1.418	1.416	1.490	1.391	1.507	1.321	1.487	1.436	1.392	1.371	1.363	1.226	1.427	1.346	1.337	1.397	1.325	1.341	1.526	1.352	1.325	1.289	1.326	1.279	1.312	1.231
390.0	122.6	179.2	237.5	273.4	292.4	294.0	277.6	268.5	256.3	258.6	262.8	255.9	266.0	238.6	213.8	203.5	196.5	188.6	181.7	172.8	162.1	150.4	141.4	144.9	163.6	145.1	98.94	78.40	64.81	62.53	100.0	406.9	 2078	 5390	 4506	977.8	14.41	3.447	2.440	1.861	1.458	1.204	1.014	0.862	0.822	0.961	0.968	1.017	1.104	1.018	1.110	1.315	1.395	1.455	1.430	1.581	1.419	1.476	1.420	1.350	1.476	1.410	1.381	1.429	1.375	1.339	1.421	1.320	1.339	1.547	1.345	1.334	1.379	1.288	1.250	1.275	1.245
395.0	115.6	172.9	231.2	261.3	285.1	290.9	284.7	273.5	265.5	262.7	262.3	254.4	256.5	233.8	211.0	200.2	192.8	186.3	180.2	173.0	164.5	155.0	144.9	138.6	133.8	149.1	144.9	94.16	68.02	55.91	60.77	127.7	484.4	 1244	 3034	 6878	 1571	17.51	3.345	2.429	1.753	1.466	1.162	1.094	0.805	1.011	1.026	1.048	1.071	1.038	1.029	1.371	1.422	1.468	1.365	1.559	1.408	1.552	1.507	1.566	1.427	1.416	1.427	1.464	1.370	1.416	1.269	1.265	1.379	1.405	1.346	1.415	1.296	1.275	1.266	1.333	1.193
400.0	113.5	168.6	227.4	262.5	284.9	290.4	286.6	276.7	272.5	258.6	267.1	256.9	257.2	231.2	210.2	196.0	187.1	185.6	179.4	173.7	164.1	156.2	147.5	140.2	128.4	128.6	157.4	127.7	77.34	60.11	57.84	71.97	133.4	292.0	770.5	 4635	 6595	257.3	9.616	2.903	2.331	1.625	1.343	1.206	1.040	1.076	0.968	1.009	1.077	1.069	1.085	1.342	1.359	1.431	1.526	1.506	1.542	1.535	1.418	1.607	1.465	1.424	1.426	1.436	1.413	1.462	1.366	1.260	1.401	1.491	1.349	1.287	1.347	1.271	1.182	1.215	1.304
405.0	101.8	165.2	227.8	260.1	282.9	284.0	283.4	279.0	275.1	267.4	266.1	258.1	259.4	226.1	205.5	191.7	185.7	182.0	176.7	171.3	165.0	156.8	149.2	142.6	130.1	120.8	140.0	154.5	96.05	66.90	63.13	63.72	58.66	81.16	184.0	 1289	 5389	 5233	196.8	4.659	2.500	1.826	1.508	1.269	1.102	1.176	0.906	1.011	1.132	1.226	1.110	1.393	1.349	1.484	1.417	1.445	1.660	1.519	1.414	1.627	1.457	1.306	1.404	1.309	1.409	1.490	1.368	1.341	1.336	1.570	1.224	1.195	1.217	1.345	1.147	1.155	1.127
410.0	105.1	166.4	219.6	246.1	276.2	280.3	285.9	282.9	275.5	267.3	264.3	250.6	250.6	221.7	199.8	184.8	179.4	175.1	171.1	166.6	162.2	154.6	147.7	141.4	128.8	117.9	117.7	133.2	125.7	83.29	64.25	59.37	42.02	35.94	53.49	297.9	 1471	 4374	 3747	856.5	12.15	2.536	1.878	1.543	1.290	1.115	1.036	1.046	1.153	1.111	1.071	1.306	1.326	1.400	1.402	1.394	1.566	1.504	1.489	1.531	1.541	1.356	1.324	1.366	1.345	1.480	1.328	1.294	1.234	1.447	1.254	1.207	1.189	1.222	1.214	1.235	1.135
