Sample:	'1
File name:	c2024122603小清河滨州魏桥大沟  100倍.FD3
Run date:	'18:40:54, 01/02/2025
Operator:	Administrator
Comment:	'

Instrument
Model:	F-2700 FL Spectrophotometer
Serial number:	23B8-004
ROM Version:	4J14000 07

Instrument parameters
Measurement type:	3-D scan
Data mode:	Fluorescence
EX  Start WL:	220.0 nm
EX  End WL:	600.0 nm
EX Sampling interval:	5.0 nm
EM  Start WL:	230.0 nm
EM  End WL:	650.0 nm
EM Sampling interval:	5.0 nm
Scan speed:	12000 nm/min
EX Slit:	5.0 nm
EM Slit:	5.0 nm
PMT Voltage:	700 V
Response:	Auto 
Corrected spectra:	Off
Contour interval:	50.000

Peak integration
Integration method:	Rectangular
Sensitivity:	1
Threshold:	1.000

Peaks
No.	ApexEX/EM(nm)	Height(Data)
1	225.0/400.0	250.7
2	225.0/490.0	184.3
3	230.0/505.0	160.4
4	235.0/515.0	135.1
5	240.0/265.0	423.5
6	240.0/525.0	115.9
7	245.0/270.0	418.5
8	245.0/540.0	105.2
9	250.0/550.0	101.3
10	270.0/300.0	9181
11	270.0/590.0	698.3
12	300.0/335.0	357.0
13	305.0/345.0	278.8
14	310.0/350.0	219.8
15	315.0/355.0	202.4
16	320.0/360.0	187.9
17	325.0/370.0	145.8
18	330.0/375.0	137.7
19	335.0/380.0	141.1
20	345.0/395.0	93.87
21	350.0/400.0	100.1
22	355.0/405.0	81.85
23	360.0/415.0	64.98
24	365.0/420.0	68.83
25	370.0/425.0	60.03
26	380.0/440.0	46.12
27	385.0/445.0	38.95
28	390.0/300.0	19.20
29	390.0/450.0	30.06
30	390.0/590.0	1.786
31	395.0/460.0	28.98
32	400.0/465.0	25.09
33	405.0/470.0	18.50
34	410.0/480.0	17.08
35	415.0/485.0	15.63
36	420.0/490.0	12.03
37	425.0/500.0	11.39
38	430.0/505.0	10.78
39	435.0/510.0	8.211
40	440.0/300.0	13.94
41	440.0/520.0	7.853
42	445.0/525.0	6.654
43	455.0/540.0	4.946
44	460.0/545.0	4.031
45	465.0/555.0	3.089
46	470.0/560.0	2.726
47	480.0/575.0	1.677
48	485.0/580.0	1.582
49	540.0/595.0	3.235
50	545.0/300.0	38.80

Data points
	220.0	225.0	230.0	235.0	240.0	245.0	250.0	255.0	260.0	265.0	270.0	275.0	280.0	285.0	290.0	295.0	300.0	305.0	310.0	315.0	320.0	325.0	330.0	335.0	340.0	345.0	350.0	355.0	360.0	365.0	370.0	375.0	380.0	385.0	390.0	395.0	400.0	405.0	410.0	415.0	420.0	425.0	430.0	435.0	440.0	445.0	450.0	455.0	460.0	465.0	470.0	475.0	480.0	485.0	490.0	495.0	500.0	505.0	510.0	515.0	520.0	525.0	530.0	535.0	540.0	545.0	550.0	555.0	560.0	565.0	570.0	575.0	580.0	585.0	590.0	595.0	600.0
230.0	154.4	2490	3403	624.4	18.87	2.966	3.156	2.193	2.344	3.360	2.761	2.817	1.428	1.118	0.832	0.467	0.397	0.372	0.239	0.239	0.163	0.120	0.145	0.150	0.074	0.060	0.081	0.048	0.034	0.023	0.109	0.041	0.052	0.055	0.043	0.130	0.067	0.070	0.092	0.111	0.293	0.554	0.425	0.192	0.089	0.170	2.383	8.026	10.02	5.706	1.688	0.224	0.028	0.012	0.029	0.041	0.020	0.022	0.031	-0.002	-0.007	-0.021	-0.020	-0.009	-0.019	-0.011	-0.012	-0.021	-0.009	-0.040	-0.002	-0.054	-0.028	-0.026	-0.023	-0.046	-0.042
235.0	182.1	735.0	2874	3335	543.4	27.98	4.433	2.589	2.685	3.798	3.331	3.185	1.768	0.995	0.950	0.611	0.273	0.467	0.330	0.388	0.240	0.154	0.096	0.125	0.153	0.034	0.016	0.086	0.005	0.073	0.121	0.044	0.081	0.029	0.052	0.053	0.073	0.136	0.083	0.165	0.138	0.256	0.465	0.506	0.405	0.188	0.543	2.084	4.757	7.799	9.787	9.098	3.421	0.501	0.067	0.040	0.060	-0.007	0.005	-0.019	-0.005	0.013	-0.011	-0.005	-0.014	0.024	-0.001	0.013	0.050	-0.021	-0.042	-0.040	-0.018	-0.006	-0.032	-0.030	-0.079
240.0	263.6	280.9	981.3	3638	3424	419.5	14.10	4.387	3.977	3.600	4.221	2.804	1.863	1.188	0.710	0.711	0.394	0.498	0.294	0.275	0.244	0.161	0.070	0.225	0.138	0.077	0.063	0.137	0.097	0.105	0.103	0.022	0.076	0.106	0.111	0.096	0.031	0.126	0.144	0.098	0.054	0.082	0.161	0.387	0.604	0.681	0.369	0.570	1.164	2.491	6.303	14.15	14.81	8.540	2.776	0.217	0.120	0.025	0.035	0.024	0.026	0.005	-0.045	0.003	-0.010	0.012	-0.009	0.000	0.038	-0.012	-0.061	-0.039	-0.044	0.001	0.023	-0.070	-0.061
245.0	205.9	312.4	283.9	1451	4703	3248	298.0	8.085	5.021	3.977	5.301	3.344	2.300	1.390	0.999	0.812	0.673	0.401	0.343	0.248	0.371	0.148	0.121	0.237	0.123	0.075	0.177	0.099	0.042	0.080	0.036	0.024	0.077	0.141	0.090	0.069	0.022	0.051	0.069	0.106	0.107	0.067	0.138	0.139	0.300	0.659	0.596	0.556	0.375	0.638	1.584	5.319	12.63	18.65	16.51	7.826	1.658	0.129	0.023	0.002	0.022	0.049	0.007	-0.010	-0.015	0.036	0.007	-0.026	0.004	-0.011	-0.051	0.003	-0.032	0.017	-0.045	0.002	-0.061
250.0	74.89	229.1	309.2	421.4	1685	4277	4539	1138	50.43	6.372	6.002	4.663	2.785	1.612	0.957	0.802	0.704	0.671	0.394	0.303	0.447	0.199	0.131	0.196	0.178	0.204	0.164	0.143	0.075	0.073	0.098	0.033	0.045	0.124	0.077	0.126	0.033	0.049	0.093	0.086	0.149	0.025	0.068	0.060	0.163	0.218	0.395	0.746	0.843	0.724	0.566	1.298	3.147	6.340	11.49	17.15	20.22	17.26	8.350	1.786	0.105	0.047	0.000	0.030	-0.024	0.019	0.019	-0.022	-0.010	-0.001	-0.035	-0.013	-0.068	-0.007	-0.042	-0.040	-0.047
255.0	25.75	66.62	242.7	384.4	459.0	1137	4422	6750	1535	45.67	8.135	5.383	3.831	2.163	1.379	1.266	0.873	0.737	0.631	0.451	0.421	0.193	0.199	0.354	0.305	0.323	0.216	0.228	0.190	0.042	0.048	0.077	0.100	0.060	0.070	0.104	0.061	0.097	0.026	0.114	0.117	0.032	0.038	0.031	0.125	0.052	0.198	0.287	0.460	0.761	1.132	1.192	0.969	1.530	2.734	4.260	8.030	21.52	32.21	25.73	12.20	1.919	0.121	0.014	0.021	-0.006	0.058	0.016	0.065	0.002	-0.013	0.026	-0.035	-0.029	-0.001	-0.001	-0.034
260.0	19.25	23.91	94.86	345.9	348.3	305.9	1402	6290	6818	272.8	23.90	8.557	4.319	2.679	1.665	1.346	1.157	0.703	0.707	0.550	0.400	0.277	0.135	0.217	0.327	0.274	0.139	0.214	0.236	0.097	0.089	0.185	0.122	0.023	0.092	0.123	0.080	0.068	0.041	0.034	0.074	0.050	0.104	0.102	0.176	0.116	0.142	0.180	0.163	0.369	0.783	1.551	1.436	0.918	0.821	1.118	1.930	5.792	14.84	29.45	38.79	23.64	8.485	0.783	0.067	0.072	0.060	0.049	0.020	0.008	-0.023	-0.028	-0.012	-0.016	-0.018	-0.005	-0.014
265.0	17.57	19.41	29.41	172.5	423.5	244.8	355.6	2222	8084	6040	213.7	14.52	5.868	4.118	2.534	1.441	1.302	0.965	0.872	0.656	0.546	0.476	0.405	0.304	0.227	0.229	0.224	0.131	0.215	0.114	0.111	0.215	0.159	0.207	0.183	0.112	0.054	0.129	0.067	0.080	0.091	0.082	0.146	0.119	0.114	0.073	0.112	0.061	0.111	0.115	0.294	0.671	1.387	1.842	1.159	0.538	0.527	1.365	3.511	8.863	22.42	38.44	31.71	19.44	4.451	0.335	0.103	0.094	0.124	0.031	0.012	-0.022	0.040	-0.036	0.004	0.000	-0.022
270.0	51.60	36.51	29.61	61.79	217.5	418.5	310.0	566.0	2691	7026	7459	854.9	52.32	7.182	3.862	2.275	1.688	1.160	1.021	0.783	0.682	0.607	0.320	0.363	0.303	0.249	0.293	0.237	0.141	0.153	0.165	0.298	0.237	0.288	0.277	0.239	0.095	0.172	0.128	0.103	0.175	0.155	0.084	0.198	0.162	0.198	0.116	0.095	0.085	0.113	0.130	0.263	0.497	1.042	1.511	1.858	1.563	0.853	1.031	2.190	5.451	11.46	19.03	30.98	31.72	31.11	13.66	4.173	0.507	0.042	0.004	0.023	-0.010	-0.003	0.032	0.012	-0.006
275.0	494.2	287.3	163.4	119.0	136.1	274.3	622.8	450.9	869.7	2258	6814	9999.9	1215	59.47	7.515	4.034	2.552	1.627	1.352	1.088	1.082	0.767	0.481	0.539	0.466	0.282	0.310	0.254	0.342	0.211	0.196	0.603	0.971	1.075	1.005	0.948	0.815	0.791	0.637	0.750	0.790	0.841	0.821	0.799	0.879	0.775	0.552	0.494	0.456	0.439	0.360	0.361	0.385	0.573	0.690	1.016	2.119	3.228	2.500	1.800	2.388	4.071	6.218	9.171	12.25	26.30	46.49	32.11	21.22	4.558	0.404	0.108	0.111	0.129	0.038	0.093	0.014
280.0	1684	1093	694.6	482.5	327.7	333.9	728.7	1274	1472	2132	3784	9999.9	9448	871.3	27.05	6.549	3.812	2.249	1.963	1.212	1.112	0.987	0.773	0.680	0.564	0.533	0.484	0.387	0.396	0.393	0.388	1.421	2.986	4.083	3.661	2.745	2.520	2.359	2.171	2.385	2.564	2.888	2.753	2.903	3.006	2.742	2.097	1.886	1.721	1.332	1.342	1.537	1.039	1.088	1.034	1.165	1.871	3.321	5.118	5.463	5.229	6.069	7.438	9.028	10.20	13.43	22.95	38.39	55.92	31.43	16.10	2.277	0.272	0.260	0.203	0.254	0.100
285.0	2954	2038	1347	953.3	680.8	561.9	946.8	2006	2702	3678	4299	5971	9999.9	7210	124.2	12.48	5.600	3.291	2.568	1.701	1.438	1.145	0.950	0.783	0.665	0.628	0.668	0.492	0.572	0.338	0.944	2.788	5.616	8.340	7.735	5.874	5.158	4.592	4.553	4.414	5.113	5.260	5.524	6.312	5.972	5.501	4.672	4.201	3.777	3.256	3.084	3.224	2.494	1.949	2.016	2.095	2.809	4.003	5.847	8.737	11.25	12.40	13.30	15.48	17.72	17.14	18.41	21.13	31.33	44.97	54.33	27.29	9.530	1.086	0.424	0.382	0.279
290.0	5877	4153	2974	2103	1266	957.0	1396	2643	4527	6295	6616	5896	5036	7817	7054	1558	30.96	5.663	3.911	2.908	1.973	1.615	1.203	0.963	0.993	0.687	0.835	0.646	0.634	0.598	1.179	4.100	9.343	13.26	13.52	10.91	9.497	8.309	7.694	8.052	8.397	9.113	9.668	10.66	10.10	9.685	8.179	8.025	6.885	6.209	5.735	6.006	4.566	3.609	3.192	3.247	4.358	5.820	8.124	11.17	15.05	19.82	24.16	26.95	28.72	26.55	25.42	23.82	20.59	18.52	24.47	32.52	32.84	35.26	18.03	7.667	1.187
295.0	7739	5726	4095	2927	1750	1230	1728	3122	5308	7833	8644	6950	3624	2536	5314	8700	693.5	30.55	5.957	4.237	3.016	2.250	1.777	1.342	1.212	1.029	1.021	0.739	0.541	0.712	1.546	5.123	11.95	16.92	18.21	14.53	12.63	11.12	10.02	10.24	10.44	11.47	12.50	13.09	13.49	12.42	10.96	10.91	9.343	8.566	7.516	8.158	6.142	4.603	3.954	4.159	5.573	6.986	9.698	12.86	17.44	22.63	27.23	33.47	38.62	34.86	31.82	29.07	21.48	13.62	10.39	10.62	10.75	19.47	39.06	51.52	27.29
300.0	8077	6151	4483	3207	1891	1291	1800	3217	5337	7801	9181	7444	3460	1375	1677	6667	5837	527.7	14.68	5.546	3.542	2.784	1.983	1.704	1.355	1.118	0.985	0.875	0.691	0.639	1.592	5.567	12.71	18.42	19.20	15.84	13.90	11.92	10.88	10.88	11.21	12.44	13.66	13.93	13.94	13.61	12.05	11.58	10.36	9.349	8.594	8.702	6.841	5.258	4.347	4.329	5.618	7.115	10.02	13.38	18.04	22.57	27.61	33.28	38.68	38.80	35.84	30.94	22.69	13.29	8.105	6.204	4.668	6.319	12.40	29.12	48.12
305.0	7958	5960	4440	3141	1861	1249	1678	3006	5018	7245	8478	7515	3494	1204	678.8	2053	6982	4831	75.63	7.688	4.051	3.397	2.447	1.919	1.331	1.208	1.111	0.955	0.905	0.788	1.426	5.389	11.83	18.32	18.55	15.76	14.29	11.76	10.36	10.47	10.83	11.86	12.88	13.50	13.71	13.67	11.63	11.16	10.41	8.978	8.209	8.500	6.700	5.136	3.930	4.245	5.091	6.720	9.782	12.75	16.70	21.48	26.42	30.80	34.54	34.97	34.65	32.39	22.94	13.19	7.964	5.594	3.941	3.501	4.204	7.973	16.93
310.0	6712	5221	3894	2716	1601	1061	1409	2475	4182	5976	6913	6278	3503	1288	504.3	587.7	2048	4928	5042	1225	21.34	4.516	2.855	2.201	1.640	1.346	1.092	0.890	0.840	0.791	1.477	4.435	10.26	15.63	16.53	14.28	12.54	10.68	9.337	8.771	9.294	10.07	10.98	11.57	11.72	11.65	10.51	10.01	9.373	7.860	7.096	7.397	5.709	4.313	3.651	3.487	4.382	5.885	7.937	10.67	13.95	18.01	21.69	25.43	28.79	27.96	27.48	26.62	21.40	14.21	8.989	5.918	3.863	2.971	2.452	2.997	4.720
315.0	5254	4207	3123	2190	1292	829.2	1083	1871	3163	4530	5255	4725	2856	1528	539.8	270.6	517.3	1173	3266	6198	488.3	20.17	4.199	2.708	2.119	1.611	1.104	1.193	0.834	0.717	1.393	3.474	8.032	12.13	13.27	11.77	10.51	8.705	7.480	6.761	7.543	7.939	8.740	9.123	9.172	9.401	8.356	8.409	7.522	6.440	5.765	6.071	4.634	3.527	2.915	2.798	3.543	4.673	6.116	8.082	10.64	13.80	16.38	19.54	21.89	21.76	20.56	19.50	16.25	11.49	9.204	7.123	4.581	2.855	1.991	1.723	1.982
320.0	4193	3431	2536	1778	1045	673.8	855.5	1483	2472	3544	4135	3728	2236	1380	733.2	221.6	178.5	293.0	856.5	4278	4123	381.4	8.935	2.988	2.458	1.666	1.301	0.961	0.881	0.854	1.342	2.753	6.523	9.815	10.61	10.14	8.832	7.404	6.340	5.753	5.968	6.426	6.831	7.301	7.614	7.432	7.038	6.731	6.217	5.039	4.821	5.008	3.911	2.969	2.376	2.110	2.826	3.506	4.955	6.465	8.692	10.97	13.03	15.66	16.95	16.94	16.72	15.74	12.87	8.800	6.988	6.566	5.953	4.020	2.289	1.337	1.131
325.0	3430	2824	2127	1450	864.9	552.8	688.5	1160	1927	2785	3247	2967	1804	1046	809.5	317.6	106.6	95.96	212.5	1227	4686	3543	56.18	4.949	3.072	2.025	1.421	1.050	1.115	0.854	1.297	2.565	4.816	8.053	8.657	8.283	7.342	6.251	5.300	4.804	4.798	5.421	5.488	6.083	6.036	6.297	5.637	5.524	5.294	4.378	3.860	3.936	3.220	2.222	1.986	1.668	2.496	3.054	3.776	4.936	6.718	8.454	10.46	11.94	13.58	13.43	13.47	12.77	9.991	7.260	5.464	4.631	4.759	4.584	3.507	1.867	1.183
330.0	2598	2182	1654	1136	647.7	421.3	506.6	843.2	1395	2010	2372	2207	1387	792.3	553.5	459.4	192.3	60.45	67.94	291.6	1334	3480	3559	898.3	15.68	2.869	1.917	1.400	1.242	1.017	1.028	2.059	4.001	6.014	6.857	6.231	5.783	4.751	4.081	3.643	3.543	3.959	4.067	4.371	4.646	4.682	4.089	4.257	4.084	3.345	3.037	3.151	2.543	1.734	1.461	1.389	1.775	2.248	2.783	3.618	4.776	5.903	7.254	8.730	10.12	9.927	9.542	9.376	7.507	5.731	4.321	3.516	3.137	2.825	2.835	2.794	2.221
335.0	1920	1691	1290	876.9	513.1	324.3	370.1	607.9	974.9	1403	1667	1594	1057	615.8	369.9	297.3	357.0	94.51	40.82	83.92	311.6	821.2	2389	4474	389.3	13.77	2.774	1.845	1.492	1.114	1.187	1.616	2.877	4.665	5.050	4.898	4.469	3.585	2.982	2.766	2.744	2.862	3.010	3.330	3.389	3.489	3.244	3.265	3.027	2.563	2.308	2.422	1.912	1.479	1.190	1.080	1.241	1.612	2.095	2.670	3.459	4.188	5.045	6.108	6.775	6.921	6.778	7.044	5.617	4.492	3.567	2.737	2.426	1.890	1.677	1.428	2.040
340.0	1546	1334	1019	712.9	427.2	266.4	296.3	470.6	737.6	1068	1279	1231	859.7	522.3	299.8	191.9	273.3	264.9	64.39	38.75	85.84	197.0	634.6	3283	3267	302.0	5.713	2.110	1.745	1.116	1.251	1.400	2.384	3.835	4.218	4.044	3.599	2.989	2.500	2.300	2.145	2.169	2.240	2.471	2.742	2.869	2.594	2.706	2.661	2.110	1.927	2.039	1.734	1.262	0.988	0.806	1.109	1.206	1.772	1.996	2.656	3.128	3.738	4.665	5.004	5.480	5.123	5.316	4.522	3.682	2.791	2.291	1.808	1.506	1.221	1.009	1.281
345.0	1227	1091	847.2	599.6	361.2	241.2	255.2	376.2	578.9	827.0	991.8	976.5	707.0	455.8	266.8	150.9	148.8	278.8	172.2	38.01	35.85	57.89	153.9	960.2	3567	2762	45.98	3.143	2.089	1.414	1.166	1.315	1.984	3.136	3.408	3.374	2.932	2.437	1.967	1.948	1.747	1.742	1.859	2.062	2.154	2.360	2.259	2.204	2.064	1.707	1.582	1.638	1.480	1.088	0.770	0.730	0.813	1.158	1.381	1.475	2.117	2.409	3.114	3.741	3.998	4.074	4.098	4.088	3.606	3.024	2.374	1.973	1.740	1.330	1.074	0.848	0.796
350.0	965.4	858.7	673.2	483.0	302.9	204.0	207.7	291.9	433.5	604.9	735.3	737.7	562.0	377.1	228.7	130.8	94.51	140.2	219.8	124.4	36.30	27.18	46.20	225.2	1052	2688	2612	207.9	11.57	1.861	1.458	1.380	1.690	2.548	2.763	2.714	2.449	2.085	1.703	1.564	1.415	1.401	1.425	1.579	1.727	1.825	1.724	1.786	1.723	1.401	1.197	1.320	1.069	0.873	0.695	0.752	0.720	0.931	1.100	1.165	1.663	1.911	2.316	2.647	3.123	3.035	3.218	3.193	2.815	2.260	2.036	1.814	1.409	1.202	0.902	0.742	0.672
355.0	743.9	674.0	524.7	382.8	257.7	168.5	166.9	226.3	318.7	443.2	536.7	553.1	438.9	313.5	197.0	118.0	80.42	75.93	111.7	202.4	110.0	26.55	22.52	59.86	242.7	637.5	1919	3047	324.6	7.990	1.936	1.572	1.705	2.140	2.380	2.031	2.017	1.601	1.418	1.268	1.193	1.100	1.085	1.302	1.413	1.346	1.311	1.420	1.346	1.072	0.992	1.113	0.861	0.752	0.505	0.547	0.566	0.741	0.824	0.861	1.106	1.264	1.515	1.863	2.133	2.246	2.326	2.239	2.256	1.747	1.625	1.428	1.248	1.017	0.745	0.681	0.587
360.0	612.9	537.9	464.6	332.3	223.1	155.2	149.9	187.9	266.5	353.2	433.5	442.2	366.3	276.7	177.2	111.5	75.99	60.54	64.89	138.7	187.9	54.98	20.06	24.27	63.22	150.3	523.9	2593	2694	48.53	3.725	1.824	1.868	1.943	2.099	1.796	2.061	1.346	1.174	1.139	0.935	0.864	1.049	1.100	1.199	1.126	1.119	1.292	1.296	1.002	0.883	0.946	0.721	0.687	0.635	0.428	0.626	0.548	0.782	0.725	1.007	1.208	1.265	1.469	1.844	1.840	1.896	1.732	1.633	1.541	1.413	1.330	1.089	0.899	0.732	0.576	0.590
365.0	504.9	504.0	404.4	292.6	196.9	143.2	143.9	169.6	222.7	293.5	358.0	371.1	319.0	244.7	162.2	105.3	76.71	57.79	52.98	73.71	169.8	133.1	31.58	17.34	23.57	41.98	125.6	803.0	3025	2088	39.69	2.618	1.837	1.835	1.777	1.626	1.558	1.233	1.104	0.998	0.814	0.702	0.831	0.784	1.001	1.003	1.000	1.022	1.035	0.983	0.693	0.801	0.616	0.581	0.498	0.369	0.514	0.536	0.659	0.617	0.904	1.040	1.046	1.163	1.537	1.507	1.609	1.419	1.433	1.344	1.323	0.996	0.904	0.775	0.692	0.554	0.513
370.0	438.4	413.1	338.1	244.7	172.2	131.0	128.8	146.0	186.0	235.8	282.6	300.9	266.7	210.8	145.7	99.92	74.99	61.20	52.46	51.40	83.62	145.8	99.44	29.74	15.74	18.21	35.64	187.3	924.0	2261	2122	180.9	8.662	2.006	1.826	1.620	1.394	1.313	0.979	0.826	0.815	0.728	0.797	0.796	0.952	0.932	0.875	0.897	0.795	0.777	0.691	0.692	0.627	0.527	0.490	0.398	0.445	0.476	0.568	0.622	0.756	0.838	0.874	0.979	1.139	1.248	1.247	1.163	1.200	1.165	1.150	0.944	0.919	0.770	0.658	0.534	0.549
375.0	396.2	336.6	293.8	216.5	151.0	123.3	113.9	129.7	157.5	192.8	226.9	243.2	215.5	180.7	129.5	96.83	75.02	62.81	54.05	47.86	49.44	72.62	137.7	95.08	21.89	13.64	16.26	48.36	211.5	546.0	1737	2531	262.5	5.965	1.894	1.485	1.377	1.097	1.040	0.789	0.766	0.628	0.726	0.705	0.836	0.846	0.770	0.786	0.758	0.561	0.687	0.674	0.533	0.468	0.386	0.355	0.479	0.496	0.468	0.476	0.639	0.665	0.736	0.724	0.921	0.978	1.018	0.960	0.962	1.022	0.943	0.749	0.769	0.663	0.628	0.521	0.530
380.0	332.5	320.3	265.5	206.3	150.2	120.0	107.4	117.2	136.8	162.6	190.6	206.6	187.1	163.6	119.8	93.53	75.49	65.09	54.97	48.59	42.73	45.08	89.38	141.1	49.15	14.88	11.90	17.37	52.74	127.4	487.2	2228	2022	39.99	2.890	1.761	1.500	1.222	0.871	0.768	0.738	0.561	0.576	0.659	0.674	0.740	0.637	0.703	0.657	0.531	0.542	0.585	0.558	0.399	0.396	0.388	0.424	0.400	0.400	0.457	0.472	0.608	0.635	0.614	0.870	0.784	0.820	0.792	0.776	0.893	0.880	0.672	0.720	0.573	0.584	0.496	0.404
385.0	310.9	275.6	239.9	185.7	139.1	108.2	102.3	110.3	123.1	141.6	169.5	179.6	167.4	148.2	112.5	88.30	74.56	66.49	57.17	50.70	43.23	38.45	50.79	115.2	108.2	27.09	11.91	11.20	17.73	33.57	114.8	705.8	2316	1472	30.49	2.177	1.533	1.141	0.843	0.778	0.645	0.627	0.555	0.659	0.655	0.664	0.563	0.687	0.580	0.530	0.472	0.564	0.487	0.321	0.378	0.354	0.331	0.463	0.439	0.502	0.352	0.511	0.578	0.518	0.747	0.660	0.643	0.688	0.708	0.744	0.755	0.662	0.577	0.492	0.485	0.513	0.402
390.0	270.7	253.3	214.5	174.2	123.5	99.56	95.84	99.59	111.7	125.4	143.0	153.9	144.9	128.7	102.1	85.92	75.14	66.44	59.57	52.05	44.92	38.47	36.72	55.92	102.1	76.34	26.04	10.27	9.944	12.70	30.07	163.2	711.1	1638	1457	139.0	6.798	1.435	0.960	0.945	0.686	0.641	0.550	0.547	0.602	0.649	0.586	0.631	0.589	0.508	0.503	0.566	0.460	0.440	0.400	0.337	0.299	0.455	0.373	0.487	0.451	0.506	0.513	0.493	0.636	0.624	0.620	0.614	0.576	0.653	0.569	0.561	0.538	0.574	0.451	0.534	0.406
395.0	230.5	238.9	211.2	158.3	116.7	88.21	90.30	87.81	95.82	108.5	122.3	129.6	125.0	114.3	96.09	80.88	74.73	67.19	61.74	54.53	46.48	40.42	34.50	33.62	48.40	93.87	75.21	18.30	8.484	8.221	11.87	40.41	162.3	398.3	1235	1773	210.7	4.180	1.099	0.951	0.792	0.650	0.588	0.595	0.663	0.629	0.566	0.512	0.585	0.478	0.484	0.519	0.446	0.406	0.301	0.339	0.336	0.293	0.368	0.405	0.446	0.462	0.508	0.426	0.532	0.488	0.625	0.603	0.493	0.511	0.594	0.477	0.559	0.575	0.410	0.524	0.421
400.0	229.1	250.7	195.5	163.1	110.4	88.15	85.54	82.24	87.81	96.87	105.7	118.6	113.9	107.5	90.65	80.31	74.11	66.95	61.40	55.33	46.51	40.82	34.71	28.24	29.62	58.21	100.1	44.38	10.98	7.291	7.571	13.18	39.59	92.58	353.0	1577	1460	33.78	1.868	0.984	0.796	0.671	0.608	0.573	0.591	0.718	0.507	0.607	0.568	0.548	0.477	0.468	0.576	0.421	0.381	0.318	0.372	0.309	0.354	0.360	0.366	0.407	0.455	0.426	0.435	0.409	0.525	0.511	0.458	0.578	0.487	0.417	0.427	0.521	0.455	0.460	0.556
405.0	211.6	223.6	198.3	156.0	114.0	83.25	78.76	79.85	82.97	90.05	97.50	110.7	101.8	98.75	88.42	80.25	73.28	66.88	60.24	55.04	47.16	41.59	34.77	28.34	25.17	31.94	76.07	81.85	23.06	7.657	6.462	7.180	12.27	23.73	82.68	503.5	1676	1069	26.01	1.448	0.890	0.721	0.576	0.618	0.616	0.651	0.550	0.688	0.499	0.521	0.458	0.428	0.466	0.356	0.308	0.365	0.336	0.326	0.348	0.344	0.348	0.401	0.363	0.320	0.461	0.427	0.424	0.455	0.486	0.524	0.591	0.488	0.453	0.443	0.409	0.450	0.432
410.0	212.4	216.4	198.3	148.5	109.6	79.50	70.37	75.38	77.92	80.29	89.51	95.39	93.77	90.72	85.15	79.20	72.29	66.39	59.64	54.08	46.85	40.62	34.73	28.15	24.10	23.10	36.35	69.88	61.01	20.33	7.065	5.690	6.269	8.269	21.08	116.2	515.1	1204	854.6	126.3	4.812	0.898	0.745	0.661	0.652	0.557	0.516	0.589	0.537	0.478	0.437	0.417	0.435	0.350	0.276	0.286	0.342	0.323	0.406	0.330	0.300	0.361	0.360	0.325	0.334	0.419	0.388	0.388	0.356	0.313	0.493	0.405	0.419	0.432	0.401	0.430	0.392
415.0	197.9	211.9	196.0	139.7	111.1	77.80	62.72	66.51	70.60	74.72	77.41	85.22	86.78	84.64	78.80	75.08	69.30	63.06	58.61	52.69	46.82	39.65	33.67	27.26	23.38	20.72	20.99	31.79	64.98	51.05	14.53	5.842	4.577	4.809	7.406	28.16	117.1	294.2	848.0	1271	179.7	3.321	0.839	0.760	0.620	0.604	0.677	0.615	0.586	0.499	0.412	0.446	0.547	0.305	0.300	0.312	0.295	0.286	0.353	0.302	0.273	0.316	0.251	0.339	0.298	0.300	0.332	0.298	0.381	0.338	0.525	0.345	0.449	0.441	0.486	0.370	0.396
