Sample:	'1
File name:	Default_20230301_160956.FD3
Run date:	'16:03:35, 03/01/2023
Operator:	user
Comment:	'

Instrument
Model:	F-2700 FL Spectrophotometer
Serial number:	2190-003
ROM Version:	4J14000 07

Instrument parameters
Measurement type:	3-D scan
Data mode:	Fluorescence
EX  Start WL:	220.0 nm
EX  End WL:	600.0 nm
EX Sampling interval:	5.0 nm
EM  Start WL:	230.0 nm
EM  End WL:	650.0 nm
EM Sampling interval:	5.0 nm
Scan speed:	12000 nm/min
EX Slit:	5.0 nm
EM Slit:	5.0 nm
PMT Voltage:	700 V
Response:	Auto 
Corrected spectra:	Off
Contour interval:	50.000

Peak integration
Integration method:	Rectangular
Sensitivity:	1
Threshold:	1.000

Peaks
No.	ApexEX/EM(nm)	Height(Data)
1	225.0/315.0	563.7
2	225.0/335.0	608.7
3	225.0/345.0	616.7
4	225.0/525.0	137.8
5	225.0/560.0	52.36
6	225.0/590.0	100.5
7	225.0/620.0	73.60
8	225.0/635.0	47.17
9	230.0/370.0	547.9
10	230.0/520.0	137.0
11	230.0/640.0	56.55
12	235.0/395.0	526.2
13	235.0/420.0	480.8
14	235.0/505.0	207.5
15	235.0/540.0	87.00
16	235.0/585.0	48.65
17	235.0/600.0	51.49
18	240.0/435.0	437.3
19	240.0/515.0	168.6
20	240.0/555.0	64.24
21	240.0/615.0	28.97
22	245.0/355.0	467.3
23	245.0/380.0	559.3
24	245.0/395.0	518.0
25	245.0/420.0	491.5
26	245.0/565.0	53.60
27	245.0/640.0	27.22
28	250.0/375.0	520.8
29	250.0/540.0	106.2
30	255.0/400.0	493.6
31	255.0/415.0	506.8
32	255.0/550.0	100.2
33	255.0/560.0	97.66
34	260.0/365.0	461.8
35	260.0/565.0	117.1
36	265.0/395.0	471.0
37	265.0/445.0	440.9
38	265.0/465.0	376.8
39	265.0/580.0	162.3
40	270.0/245.0	16.34
41	270.0/295.0	 1802
42	270.0/375.0	484.0
43	270.0/405.0	460.9
44	270.0/435.0	442.7
45	270.0/590.0	168.1
46	275.0/300.0	 1830
47	275.0/390.0	460.0
48	280.0/615.0	94.13
49	285.0/235.0	6.516
50	285.0/250.0	9.184
51	285.0/395.0	448.3
52	290.0/640.0	39.44
53	305.0/240.0	4.023
54	305.0/340.0	397.4
55	310.0/345.0	353.8
56	315.0/280.0	7.160
57	315.0/585.0	14.82
58	320.0/260.0	5.238
59	320.0/360.0	332.4
60	325.0/240.0	2.742
61	325.0/365.0	340.2
62	325.0/605.0	6.851
63	330.0/245.0	3.227
64	330.0/255.0	2.792
65	335.0/380.0	322.9
66	340.0/235.0	2.793
67	340.0/385.0	317.6
68	350.0/395.0	270.8
69	355.0/405.0	266.8
70	355.0/620.0	4.158
71	360.0/275.0	2.272
72	365.0/245.0	1.804
73	365.0/295.0	2.597
74	365.0/415.0	230.5
75	370.0/255.0	2.252
76	370.0/425.0	215.1
77	375.0/280.0	1.782
78	380.0/265.0	2.165
79	385.0/260.0	2.361
80	385.0/600.0	4.621
81	390.0/235.0	2.387
82	390.0/295.0	2.732
83	390.0/325.0	3.799
84	400.0/300.0	2.628
85	410.0/320.0	2.480
86	410.0/625.0	2.825
87	415.0/485.0	56.72
88	420.0/255.0	1.358
89	420.0/635.0	1.658
90	425.0/260.0	1.691
91	425.0/325.0	3.193
92	430.0/250.0	1.477
93	430.0/270.0	1.560
94	430.0/505.0	34.12
95	435.0/245.0	1.448
96	435.0/285.0	2.054
97	435.0/510.0	29.31
98	440.0/340.0	2.223
99	440.0/515.0	25.45
100	445.0/525.0	20.60
101	450.0/530.0	17.67
102	455.0/540.0	14.04
103	480.0/365.0	2.357
104	485.0/360.0	2.314
105	485.0/580.0	3.824
106	490.0/400.0	2.468
107	505.0/395.0	2.602
108	520.0/360.0	2.265
109	530.0/405.0	2.022
110	540.0/380.0	2.696
111	540.0/605.0	2.235
112	545.0/300.0	4.242
113	545.0/370.0	2.061
114	550.0/355.0	2.424
115	565.0/320.0	2.736
116	565.0/465.0	2.319
117	570.0/335.0	2.638
118	570.0/415.0	2.333
119	575.0/385.0	1.746
120	585.0/405.0	1.899
121	590.0/475.0	2.131

Data points
	220.0	225.0	230.0	235.0	240.0	245.0	250.0	255.0	260.0	265.0	270.0	275.0	280.0	285.0	290.0	295.0	300.0	305.0	310.0	315.0	320.0	325.0	330.0	335.0	340.0	345.0	350.0	355.0	360.0	365.0	370.0	375.0	380.0	385.0	390.0	395.0	400.0	405.0	410.0	415.0	420.0	425.0	430.0	435.0	440.0	445.0	450.0	455.0	460.0	465.0	470.0	475.0	480.0	485.0	490.0	495.0	500.0	505.0	510.0	515.0	520.0	525.0	530.0	535.0	540.0	545.0	550.0	555.0	560.0	565.0	570.0	575.0	580.0	585.0	590.0	595.0	600.0
230.0	22.87	478.3	 3652	 2364	133.0	6.410	-0.960	-5.248	0.015	6.574	10.45	-1.173	6.626	2.646	-0.580	2.422	0.901	0.528	1.974	1.484	2.731	1.070	0.583	1.112	1.185	0.648	0.800	0.479	0.651	0.286	0.451	0.808	0.712	0.313	1.038	1.022	0.434	0.808	0.713	0.682	0.851	0.552	0.880	0.521	0.543	0.387	0.580	4.524	8.765	6.951	2.493	0.536	0.295	0.353	0.747	-0.082	0.330	0.137	0.101	0.039	0.033	0.087	0.088	-0.074	-0.062	0.315	-0.043	-0.082	-0.122	-0.113	0.093	0.086	-0.256	-0.500	-0.459	-0.066	-0.343
235.0	28.98	115.2	 1401	 3858	 2369	140.3	4.933	-1.120	6.260	1.527	9.443	-0.958	6.039	6.516	5.040	5.599	-1.508	1.928	2.361	1.232	1.805	-0.694	0.069	2.085	2.793	1.600	0.946	0.819	-0.938	0.667	2.004	0.936	-1.073	0.451	2.387	0.838	1.062	0.339	0.797	0.808	0.664	-0.034	1.691	0.371	0.502	-0.390	0.607	1.960	2.878	4.859	7.831	8.429	3.559	1.033	0.730	0.133	1.078	-0.152	0.385	0.265	-0.177	0.426	-0.323	-0.037	-0.476	0.001	-0.602	-0.045	0.007	0.320	0.027	-0.143	-0.518	-0.330	-0.552	-0.478	-0.167
240.0	26.16	101.7	368.0	 1966	 4695	 1797	99.20	-2.607	2.787	2.630	4.706	2.492	0.511	-1.200	1.200	5.578	0.026	4.023	2.889	0.859	1.685	2.742	0.472	0.643	0.963	0.710	-0.933	0.928	-0.518	0.309	1.084	1.008	-0.032	-0.533	2.021	0.470	0.105	0.407	0.658	1.122	0.448	0.537	0.931	0.228	1.327	0.524	1.496	0.464	0.898	1.788	3.689	8.805	11.31	8.779	2.495	0.610	-0.066	0.766	0.873	0.423	-0.045	0.561	-0.265	0.067	-0.318	-0.084	0.210	0.095	0.425	-0.025	0.234	-0.176	-0.376	-0.239	0.188	0.072	0.012
245.0	57.62	150.4	119.7	508.9	 2960	 5104	 1305	46.35	9.659	0.500	16.34	1.187	1.156	4.564	4.187	4.299	3.468	3.369	2.623	1.318	2.260	2.014	3.227	0.275	0.645	0.315	-0.247	0.527	-1.191	1.804	0.044	-0.252	1.771	0.835	1.096	-0.199	0.037	0.452	0.629	0.885	0.165	1.189	0.279	1.448	0.830	0.444	0.921	0.476	0.701	0.961	1.093	2.859	6.612	13.85	14.39	7.323	1.408	0.508	0.277	0.180	0.219	0.307	0.331	0.489	-0.008	0.134	-0.205	0.341	0.683	0.343	0.564	0.359	-0.412	-0.122	0.135	-0.359	-0.341
250.0	12.51	44.98	103.9	194.3	764.2	 2843	 5126	 3219	378.2	11.01	6.816	4.540	-0.141	9.184	1.269	5.297	2.141	1.688	1.933	-0.040	2.787	0.826	1.760	1.284	-0.181	1.885	0.286	0.690	-1.210	1.426	0.591	0.531	1.199	0.805	0.575	0.208	0.307	0.354	0.203	0.203	0.726	1.070	1.477	0.745	0.516	0.283	0.807	0.472	1.103	1.059	0.449	0.852	1.748	4.567	8.702	12.45	16.12	12.40	6.185	1.204	0.201	0.339	-0.030	0.021	-0.009	0.287	0.264	-0.055	-0.608	0.047	-0.206	0.185	0.109	-0.292	-0.306	-0.509	-0.363
255.0	19.88	16.63	61.67	166.0	277.9	653.8	 2070	 7156	 5529	489.1	9.702	4.826	6.350	9.131	1.466	4.673	4.248	3.525	2.933	2.294	3.729	1.381	2.792	1.152	-0.727	1.472	0.716	0.886	0.921	0.786	2.252	-0.389	1.261	1.055	-0.974	0.270	0.302	1.025	0.767	0.637	1.358	0.683	1.048	0.764	0.341	0.591	1.181	0.771	0.857	0.794	0.671	0.352	0.702	0.623	1.924	3.404	5.727	12.88	26.08	22.83	8.815	0.463	0.973	-0.217	0.092	0.398	0.032	0.053	-0.130	0.239	0.119	-0.002	-0.536	-0.738	-0.429	-0.259	-0.620
260.0	-42.58	4.003	37.71	112.8	210.4	194.4	502.5	 3399	 9463	 4901	223.4	18.09	15.26	4.039	3.119	1.765	1.636	5.125	1.646	3.755	5.238	0.874	0.304	1.550	1.528	2.035	1.691	0.915	-0.555	2.082	1.820	1.393	1.671	2.361	-0.274	-0.358	0.259	1.024	0.331	0.571	0.935	1.691	0.242	0.147	0.394	0.283	0.217	0.894	0.557	0.197	0.551	0.800	0.780	0.576	0.683	1.096	1.499	3.106	12.75	25.26	30.59	20.32	5.348	0.145	0.329	0.150	-0.109	-0.222	0.277	-0.089	0.262	-0.284	-0.688	-0.132	-0.272	-0.330	-1.451
265.0	42.24	27.87	0.790	66.32	171.9	201.2	146.4	850.5	 5359	9999.9	 1314	91.69	11.68	8.263	5.220	-2.972	0.944	4.628	2.831	2.860	0.564	2.069	0.884	0.851	-0.122	1.057	1.058	0.467	1.145	0.786	1.901	0.933	2.165	0.728	0.538	0.811	0.149	0.709	0.842	0.754	0.798	1.188	1.493	0.779	0.186	0.008	0.316	0.574	0.649	0.542	0.580	0.404	0.476	1.188	0.794	-0.015	0.955	0.607	3.395	8.123	20.15	33.59	32.81	13.65	2.124	0.450	-0.022	-0.029	-0.177	-0.072	0.027	-0.386	-0.123	0.453	-0.789	-0.407	-0.453
270.0	34.45	36.12	6.476	33.06	59.31	163.9	218.7	239.0	 1324	 5088	 9634	 5158	390.1	12.84	9.278	5.873	4.099	6.492	2.808	2.027	2.468	2.010	2.044	0.592	0.771	1.838	1.115	0.811	1.519	1.201	1.600	0.867	1.387	0.758	1.101	0.687	0.448	0.775	1.030	0.226	0.441	0.499	1.560	1.279	0.564	0.428	0.830	0.843	0.956	0.514	0.414	0.752	0.304	0.814	0.908	0.829	1.150	0.588	1.425	1.761	5.055	10.93	20.05	30.16	33.64	27.10	10.92	2.270	-0.211	-0.343	0.106	-0.487	-0.486	0.189	0.081	-0.174	-0.276
275.0	115.5	94.69	53.82	24.08	-5.384	56.35	213.5	334.0	391.4	 1257	 3577	9999.9	 7729	456.3	11.04	14.91	5.712	6.412	5.999	2.667	3.878	3.928	3.653	1.969	2.399	1.160	1.708	0.346	2.272	0.276	-0.206	0.898	0.600	1.183	0.644	1.472	1.753	1.145	0.263	1.023	0.180	0.420	-0.080	-0.024	1.099	0.456	1.254	0.995	0.722	1.071	0.663	-0.090	0.734	0.197	0.675	0.902	1.122	0.815	1.414	0.788	1.697	3.088	4.791	8.124	12.63	32.52	53.50	42.70	13.28	0.659	-0.126	-0.247	-0.292	0.292	-0.173	-0.635	0.766
280.0	170.6	112.2	89.13	31.19	13.84	52.49	161.8	393.1	453.2	591.0	 1189	 4996	9999.9	 6016	282.3	14.62	10.25	5.772	5.233	7.160	2.615	3.737	3.173	2.126	2.563	2.726	2.714	0.893	0.687	0.592	0.568	1.782	0.544	0.557	1.698	0.668	1.570	0.928	0.308	0.665	1.024	0.782	1.145	0.959	1.321	0.637	1.018	0.400	1.077	0.732	0.774	0.745	0.556	0.176	0.687	1.083	1.090	0.915	1.787	1.215	1.510	1.451	1.791	2.426	3.744	9.993	25.85	54.96	62.37	32.89	6.773	-0.346	0.560	-0.227	0.186	-0.246	0.332
285.0	327.7	199.0	110.5	65.15	45.56	73.96	138.5	344.2	701.1	702.6	891.2	 1794	 6850	9999.9	 4384	131.3	10.77	9.660	7.628	4.351	3.761	3.460	4.006	2.296	3.026	0.559	3.348	1.961	2.327	0.567	0.714	0.538	0.406	1.984	1.511	1.059	1.256	1.190	0.520	-0.286	1.455	0.400	1.142	2.054	1.291	0.540	1.650	0.762	1.109	0.771	0.439	0.381	1.102	1.251	0.470	0.390	0.283	1.014	1.770	1.938	2.000	1.284	0.821	2.601	2.276	3.576	6.841	18.03	43.71	66.92	56.15	22.15	2.131	0.841	0.475	-0.161	-0.125
290.0	494.5	306.4	141.2	93.65	69.71	117.6	200.4	385.3	740.3	 1160	 1280	 1342	 2230	 6045	9999.9	 9067	230.8	17.80	12.45	7.677	5.906	4.265	3.483	3.780	2.958	2.360	2.509	2.045	1.530	1.652	1.161	0.739	0.707	2.055	2.493	1.055	1.430	1.723	0.397	1.183	1.729	1.253	1.654	1.322	1.252	1.291	1.527	1.283	1.281	0.647	0.986	0.326	0.974	1.126	0.868	0.509	0.713	0.890	1.092	1.499	1.863	2.559	3.110	3.469	2.822	2.437	3.903	5.755	11.33	21.50	37.42	52.23	55.92	39.82	16.42	2.505	-0.139
295.0	573.4	403.9	256.7	155.6	115.6	152.8	240.8	458.3	768.5	 1218	 1802	 1577	 1255	 1601	 3421	9999.9	9999.9	301.0	16.39	10.25	8.215	5.244	5.815	3.079	3.038	2.688	3.792	0.897	1.817	2.597	1.376	0.954	2.410	2.493	2.732	1.148	1.258	1.503	1.735	0.896	1.107	2.089	1.751	1.451	2.214	0.260	1.126	1.441	1.211	0.697	1.015	0.813	0.572	0.786	0.643	1.055	1.045	1.101	1.066	1.279	1.640	2.031	2.903	4.062	3.198	4.217	3.273	3.183	3.519	5.143	9.386	12.44	23.17	53.00	81.02	61.07	18.73
300.0	687.3	539.5	319.6	172.1	143.8	197.0	261.5	488.5	757.0	 1213	 1744	 1830	 1098	667.8	922.9	 4476	9999.9	 9689	200.0	13.27	10.03	5.773	5.109	2.526	3.317	2.948	3.270	0.489	2.424	1.811	2.542	1.781	2.467	1.926	1.664	1.892	2.628	1.320	0.850	1.041	1.476	1.940	1.814	1.552	1.759	1.527	1.174	1.403	1.624	1.254	0.971	0.859	0.792	0.331	0.841	0.905	0.891	1.381	0.861	2.096	0.974	2.052	2.271	3.449	3.455	4.242	2.274	2.320	1.608	2.509	2.201	3.028	6.068	14.10	40.93	82.33	85.45
305.0	673.9	589.6	370.9	213.8	160.9	186.9	268.0	450.9	738.7	 1109	 1574	 1787	 1239	498.0	381.0	 1152	 6249	9999.9	 2762	109.6	12.72	8.933	6.251	4.671	4.121	4.296	3.786	2.061	0.349	1.248	2.174	1.533	0.934	2.514	1.428	1.914	1.106	1.551	0.903	1.805	2.215	1.843	1.338	1.474	1.755	1.521	1.153	1.326	1.883	1.456	1.048	1.106	1.723	0.924	1.109	0.985	0.721	1.746	1.276	2.091	1.474	2.667	2.224	2.723	3.228	3.789	3.773	2.676	1.651	1.504	0.861	1.397	1.858	3.238	9.439	27.50	62.41
310.0	660.0	523.4	369.6	244.6	176.6	194.6	247.5	429.1	673.5	981.1	 1311	 1413	 1263	692.6	337.6	395.5	 1546	 5809	9999.9	 8514	158.3	16.94	8.830	7.644	5.330	5.206	3.641	4.209	1.832	1.845	1.600	2.432	2.236	2.339	1.673	2.278	2.170	1.215	1.396	1.596	1.331	1.809	1.848	1.720	1.561	1.590	1.245	1.116	1.436	1.335	1.231	0.999	0.950	1.494	1.095	1.075	0.611	1.683	1.590	2.104	1.266	2.009	2.507	2.775	2.722	3.299	3.052	3.267	2.986	1.645	0.890	0.681	0.882	0.836	2.634	6.642	15.31
315.0	495.0	563.7	459.2	282.2	184.8	187.0	232.5	389.9	578.8	837.5	 1086	 1135	987.7	835.6	542.9	265.6	437.9	 1352	 3320	9999.9	9999.9	216.6	15.77	12.69	5.827	5.569	4.327	4.204	4.699	1.579	1.036	2.039	1.994	1.514	2.699	1.792	2.078	1.712	2.035	1.317	1.675	1.584	2.025	1.819	1.662	1.542	1.687	0.963	1.744	1.634	1.005	0.953	1.182	0.764	0.499	1.135	1.425	1.400	1.175	1.138	1.493	1.912	1.749	2.204	2.416	2.391	3.368	3.141	1.692	2.042	2.373	1.817	0.939	0.674	0.400	1.360	3.557
320.0	530.0	546.4	466.9	331.9	177.4	189.1	228.2	346.6	538.4	719.6	955.3	975.8	847.5	729.4	706.2	327.0	199.8	367.0	795.8	 4512	9999.9	 9199	153.9	13.94	9.508	9.226	5.719	4.801	4.604	2.529	2.131	2.361	2.633	2.549	2.862	2.113	2.400	1.211	2.480	1.336	1.487	1.604	1.086	1.047	2.053	1.474	1.809	0.714	1.279	1.314	1.005	0.785	1.510	0.645	1.037	1.425	1.144	1.455	1.944	1.467	1.478	1.941	2.281	1.845	2.347	2.030	2.596	1.799	1.997	2.736	2.123	1.692	1.673	0.670	0.339	0.027	0.700
325.0	499.4	534.4	501.5	335.9	216.0	205.7	223.5	369.7	497.2	642.2	847.0	910.2	781.9	632.4	645.0	510.7	195.1	155.9	231.5	 1092	 6354	9999.9	 1948	98.21	12.91	8.600	5.798	5.123	4.109	3.021	2.469	2.571	2.200	2.592	3.799	1.114	1.281	1.256	1.283	1.132	2.468	3.193	1.861	1.875	1.733	2.178	1.417	1.981	1.539	1.489	0.720	1.475	0.834	0.813	1.265	1.405	0.865	1.664	1.520	1.476	1.774	1.488	1.608	2.274	1.429	2.591	2.155	2.057	1.303	2.079	2.330	1.473	1.757	1.871	1.314	0.716	0.049
330.0	476.7	605.5	532.2	356.6	270.7	236.4	242.0	338.7	445.3	590.2	743.1	818.4	720.4	595.0	509.1	510.2	371.1	164.0	119.2	292.4	 1539	 5810	9999.9	 7432	625.3	16.12	7.365	6.570	4.953	3.027	3.681	3.437	2.261	2.809	2.031	2.233	2.260	1.575	1.208	2.046	1.489	1.441	1.352	2.058	1.526	1.468	1.288	2.174	1.807	1.109	1.034	1.258	0.978	1.150	1.139	1.248	0.970	1.260	1.013	1.336	1.792	1.319	1.831	1.951	2.105	2.104	1.625	1.819	1.400	2.043	1.725	1.365	1.367	1.601	1.401	1.212	0.540
335.0	477.1	608.7	580.9	423.4	306.0	291.9	268.5	340.9	416.0	522.4	647.6	723.5	678.4	582.1	479.5	397.6	387.7	330.0	135.0	131.2	391.8	 1335	 3403	9999.9	9999.9	174.3	13.05	10.61	7.953	4.774	3.732	3.333	2.277	2.065	1.527	2.251	1.713	1.487	2.412	2.008	1.661	1.276	2.146	1.243	1.627	1.755	1.239	1.962	1.280	1.117	1.209	1.214	0.933	1.153	0.820	1.090	0.902	1.198	1.360	0.864	1.769	1.450	0.836	1.449	1.698	1.476	1.541	2.038	1.518	1.433	2.638	1.119	1.298	0.414	0.406	1.232	1.098
340.0	466.7	535.4	583.5	466.4	351.9	307.2	302.9	334.7	427.7	515.5	591.7	667.2	638.9	565.3	474.8	361.9	314.7	397.4	243.2	109.4	150.7	343.1	809.5	 4784	9999.9	 8981	129.9	13.63	10.34	8.201	5.484	4.222	3.900	3.193	3.040	2.920	1.461	2.072	2.117	2.248	1.108	1.687	2.193	1.967	2.223	1.942	1.122	1.563	1.527	2.101	1.145	0.984	1.073	1.173	1.702	0.831	1.660	1.454	1.486	1.337	1.803	1.848	1.124	0.970	1.855	0.932	1.488	1.479	1.929	1.455	1.444	0.936	1.277	0.826	0.687	0.248	0.985
345.0	479.3	616.7	590.3	405.1	408.8	369.8	320.1	357.3	424.9	502.9	571.3	617.1	620.6	550.5	488.9	365.7	284.0	315.4	353.8	161.7	112.8	138.0	227.7	 1158	 6899	9999.9	 6201	84.87	12.28	9.478	7.884	5.084	4.400	3.798	3.511	2.823	1.631	2.195	1.649	1.536	0.975	1.302	1.875	1.656	1.566	2.056	1.427	1.267	1.548	1.545	1.206	1.416	1.223	1.384	1.469	0.943	1.549	1.077	1.184	1.029	1.457	1.616	1.556	1.542	1.763	1.383	1.355	1.037	1.640	1.655	1.558	0.930	1.299	0.957	1.284	0.289	0.702
350.0	464.2	541.1	548.9	452.6	435.8	400.7	364.4	391.4	412.6	483.4	518.1	581.9	579.6	528.6	473.3	370.3	286.8	257.0	310.9	302.0	171.3	111.9	116.7	310.6	 1691	 6410	9999.9	 6281	542.1	15.35	9.194	6.645	3.901	3.526	3.561	3.767	2.441	2.463	2.460	1.776	1.883	2.050	1.373	1.302	1.461	1.738	2.043	1.861	1.458	1.704	1.416	1.346	1.336	1.465	1.755	1.334	1.620	1.313	1.579	1.153	1.798	1.795	1.733	0.996	1.753	1.184	2.056	1.818	1.344	1.682	1.256	1.187	1.468	1.378	1.420	0.860	0.488
355.0	338.2	471.0	518.0	483.1	408.1	467.3	408.0	402.3	431.6	463.5	504.1	533.9	540.3	512.7	460.3	382.2	303.8	267.9	258.9	297.9	299.5	161.3	118.3	141.2	432.1	 1468	 3775	9999.9	 9986	146.0	13.86	10.34	6.409	4.473	3.513	3.394	3.159	2.496	2.162	2.633	1.693	2.117	1.653	1.731	1.675	2.490	1.327	1.529	1.860	1.304	1.967	1.625	1.641	1.703	1.312	1.506	1.720	1.024	1.736	1.547	1.611	1.747	1.461	0.950	1.421	1.052	2.424	1.458	1.912	1.568	1.354	0.916	1.148	0.959	1.036	0.869	1.155
360.0	320.2	438.5	520.9	502.6	510.9	437.7	438.0	419.7	448.5	452.4	490.6	518.4	525.4	503.5	459.0	382.0	327.7	291.3	259.5	253.3	332.4	254.7	141.2	120.9	162.6	378.3	900.9	 5321	9999.9	 7917	104.0	13.19	8.525	5.776	4.879	4.960	2.079	3.930	2.743	2.074	1.372	1.342	1.596	1.092	1.130	2.333	1.659	1.594	2.207	1.130	1.457	1.427	1.744	2.314	1.012	0.862	1.634	1.223	1.345	0.990	2.265	1.584	1.778	1.081	1.244	1.733	1.748	1.466	1.261	2.265	1.204	1.068	1.001	0.852	1.154	0.798	1.099
365.0	345.1	482.6	527.8	518.8	498.7	447.7	505.6	432.7	461.8	436.2	458.4	476.4	502.9	488.2	447.3	395.3	343.8	303.3	283.1	252.1	286.9	340.2	203.1	135.2	114.7	144.6	250.1	 1301	 7466	9999.9	 5600	66.82	11.35	7.694	4.725	4.652	3.544	3.100	2.784	2.886	1.932	1.813	1.301	2.324	2.169	2.434	1.895	1.410	2.408	1.533	1.088	1.726	2.357	1.909	1.473	1.037	1.433	1.532	0.901	1.740	1.689	0.895	1.311	1.145	1.493	1.724	1.542	1.361	1.147	0.885	1.863	1.541	1.123	0.825	1.106	0.973	1.537
370.0	345.2	462.2	547.9	534.5	490.6	493.6	508.3	459.5	454.4	440.7	475.7	462.8	483.5	484.9	457.7	409.5	372.4	337.6	307.2	285.5	268.4	306.8	305.3	200.0	132.6	113.1	118.7	338.1	 1840	 6939	9999.9	 5464	83.93	12.80	7.614	4.956	4.401	3.377	3.743	2.378	2.449	2.250	1.432	2.329	1.743	2.206	1.798	1.492	1.683	1.608	1.231	2.046	2.114	1.132	1.829	1.462	1.210	1.343	0.856	1.281	1.851	1.520	1.377	1.220	1.260	2.061	1.716	1.432	1.284	0.549	1.157	1.150	1.101	1.054	0.738	1.227	1.231
375.0	340.2	452.8	515.6	526.6	545.5	480.5	520.8	469.0	448.9	466.1	484.0	465.6	470.9	457.4	443.2	425.9	386.5	358.5	345.1	315.0	290.1	277.5	298.8	308.6	188.4	128.6	102.3	136.3	453.0	 1585	 4192	9999.9	 8250	111.7	11.02	7.756	5.592	4.332	4.207	3.101	3.350	2.507	2.093	1.227	2.383	2.141	2.434	1.297	1.370	1.499	1.406	2.078	1.751	1.884	1.756	1.556	1.796	0.805	0.594	0.996	1.204	1.450	1.125	1.030	1.718	1.585	1.123	1.584	1.536	1.211	1.304	1.133	1.147	0.744	1.331	1.532	1.105
380.0	395.4	390.4	488.4	553.8	553.7	559.3	495.9	510.4	451.2	461.9	479.6	452.2	470.1	452.4	441.0	431.3	381.8	368.0	351.7	332.8	312.5	293.7	280.2	322.9	271.2	156.7	112.9	102.8	154.3	394.7	996.7	 5988	9999.9	 6408	77.13	10.45	6.419	6.535	4.064	3.490	3.673	2.135	2.787	1.413	2.107	2.141	1.668	1.380	1.107	0.914	1.044	2.123	2.313	1.666	1.642	1.059	1.688	1.432	1.567	1.681	1.214	0.855	1.063	1.253	2.696	0.887	1.398	1.136	1.432	0.748	1.546	0.742	0.705	1.042	1.386	1.260	1.542
385.0	413.0	389.2	464.8	516.8	544.6	520.0	487.6	489.1	482.6	447.7	451.0	453.9	451.0	452.1	435.2	416.1	390.4	388.6	367.4	345.1	326.1	302.4	278.4	284.0	317.6	211.1	133.5	107.7	100.1	137.5	261.6	 1485	 8434	9999.9	 1033	39.74	8.426	6.440	4.379	2.822	3.341	3.533	2.423	2.490	1.551	2.076	2.340	1.776	1.545	1.471	1.760	1.906	1.067	1.201	1.433	1.514	1.740	1.966	1.552	1.091	1.373	0.917	1.325	0.888	2.574	1.039	1.516	0.364	1.039	0.754	1.475	1.746	0.577	0.663	0.916	1.601	1.720
390.0	354.7	436.5	459.9	523.4	543.6	515.6	516.4	496.9	481.0	465.8	446.0	460.0	453.4	437.9	433.9	430.0	399.8	391.9	375.3	357.5	337.5	317.6	290.1	266.0	280.2	279.6	185.3	129.8	102.9	94.31	105.3	367.0	 2120	 7204	9999.9	 4060	60.74	10.23	7.289	5.327	3.730	3.303	3.121	2.268	2.265	2.101	2.072	2.132	1.783	1.854	1.455	1.499	1.265	1.514	1.470	1.196	1.899	1.173	1.580	1.240	1.166	1.123	1.421	0.836	1.953	1.736	1.998	0.872	1.309	1.093	1.536	1.673	0.599	1.270	1.171	1.482	1.698
395.0	362.7	465.8	507.3	526.2	498.5	518.0	509.8	479.8	457.5	471.0	445.3	445.9	441.9	448.3	430.1	434.5	395.9	386.7	379.2	366.2	348.8	324.5	295.7	277.2	258.1	267.6	270.8	175.5	124.7	100.9	84.22	129.2	503.9	 1639	 4486	9999.9	 6318	81.61	9.491	7.173	4.825	3.941	2.998	2.946	2.646	2.669	2.511	2.345	2.086	2.170	1.689	1.844	1.462	1.436	1.874	1.429	1.482	2.602	1.228	1.900	1.343	1.969	1.445	1.219	1.594	1.172	1.898	1.140	1.385	1.560	0.764	1.118	0.652	1.027	1.080	1.923	1.381
