Sample:	'1
File name:	Default_20231029_112040.FD3
Run date:	'11:14:19, 10/29/2023
Operator:	user
Comment:	'

Instrument
Model:	F-2700 FL Spectrophotometer
Serial number:	2190-003
ROM Version:	4J14000 07

Instrument parameters
Measurement type:	3-D scan
Data mode:	Fluorescence
EX  Start WL:	220.0 nm
EX  End WL:	600.0 nm
EX Sampling interval:	5.0 nm
EM  Start WL:	230.0 nm
EM  End WL:	650.0 nm
EM Sampling interval:	5.0 nm
Scan speed:	12000 nm/min
EX Slit:	5.0 nm
EM Slit:	5.0 nm
PMT Voltage:	700 V
Response:	Auto 
Corrected spectra:	Off
Contour interval:	50.000

Peak integration
Integration method:	Rectangular
Sensitivity:	1
Threshold:	1.000

Peaks
No.	ApexEX/EM(nm)	Height(Data)
1	230.0/580.0	-74.54
2	230.0/625.0	-78.04
3	235.0/605.0	-62.69
4	240.0/525.0	7.705
5	245.0/265.0	90.27
6	245.0/530.0	12.13
7	245.0/635.0	-39.98
8	250.0/365.0	 1284
9	250.0/540.0	28.92
10	255.0/445.0	258.6
11	255.0/555.0	25.84
12	260.0/285.0	279.8
13	260.0/565.0	22.91
14	265.0/290.0	309.8
15	265.0/460.0	221.2
16	265.0/575.0	18.64
17	270.0/295.0	475.3
18	270.0/590.0	27.13
19	275.0/305.0	569.4
20	275.0/600.0	32.73
21	280.0/310.0	571.1
22	280.0/445.0	244.8
23	280.0/615.0	30.40
24	285.0/315.0	527.2
25	285.0/360.0	291.3
26	285.0/385.0	281.3
27	285.0/395.0	274.1
28	285.0/625.0	19.72
29	290.0/320.0	495.7
30	290.0/375.0	285.5
31	290.0/400.0	272.9
32	290.0/640.0	13.35
33	295.0/330.0	358.5
34	295.0/405.0	257.7
35	300.0/335.0	338.0
36	300.0/425.0	220.1
37	305.0/275.0	-6.917
38	305.0/340.0	362.4
39	305.0/400.0	256.4
40	305.0/565.0	7.048
41	310.0/345.0	306.4
42	310.0/385.0	255.5
43	315.0/355.0	266.0
44	320.0/360.0	294.1
45	320.0/600.0	-2.053
46	325.0/365.0	281.3
47	330.0/370.0	257.0
48	335.0/380.0	277.3
49	340.0/295.0	-2.761
50	340.0/385.0	265.2
51	340.0/565.0	7.783
52	340.0/585.0	1.386
53	345.0/390.0	229.8
54	350.0/270.0	-3.151
55	350.0/400.0	224.4
56	355.0/405.0	225.4
57	360.0/410.0	191.5
58	365.0/415.0	189.4
59	370.0/425.0	181.3
60	375.0/430.0	156.0
61	380.0/345.0	-1.231
62	380.0/435.0	141.2
63	385.0/445.0	130.6
64	390.0/305.0	-1.813
65	395.0/455.0	95.93
66	400.0/465.0	85.53
67	405.0/470.0	68.09
68	410.0/475.0	56.61
69	415.0/485.0	50.84
70	420.0/490.0	40.06
71	425.0/495.0	34.43
72	430.0/505.0	28.04
73	435.0/510.0	21.20
74	440.0/515.0	18.31
75	445.0/525.0	15.41
76	450.0/530.0	12.89
77	455.0/535.0	11.14
78	460.0/545.0	9.256
79	475.0/565.0	3.015
80	485.0/580.0	0.987
81	490.0/365.0	1.475
82	500.0/355.0	1.099
83	540.0/295.0	0.247
84	550.0/305.0	-0.117
85	555.0/310.0	-0.168
86	570.0/315.0	-0.105
87	575.0/320.0	-0.239
88	580.0/325.0	-0.669

Data points
	220.0	225.0	230.0	235.0	240.0	245.0	250.0	255.0	260.0	265.0	270.0	275.0	280.0	285.0	290.0	295.0	300.0	305.0	310.0	315.0	320.0	325.0	330.0	335.0	340.0	345.0	350.0	355.0	360.0	365.0	370.0	375.0	380.0	385.0	390.0	395.0	400.0	405.0	410.0	415.0	420.0	425.0	430.0	435.0	440.0	445.0	450.0	455.0	460.0	465.0	470.0	475.0	480.0	485.0	490.0	495.0	500.0	505.0	510.0	515.0	520.0	525.0	530.0	535.0	540.0	545.0	550.0	555.0	560.0	565.0	570.0	575.0	580.0	585.0	590.0	595.0	600.0
230.0	-141.3	-116.4	347.8	473.4	-0.046	-58.78	-54.25	-40.62	-34.17	-33.89	-27.32	-27.19	-22.63	-17.86	-14.76	-12.66	-10.50	-9.453	-7.858	-6.527	-6.446	-5.961	-5.700	-5.143	-5.037	-4.204	-4.623	-4.439	-4.067	-4.053	-3.664	-3.554	-3.064	-3.339	-2.852	-2.677	-2.528	-2.439	-2.085	-2.539	-2.296	-1.956	-1.884	-2.078	-2.160	-2.006	-1.772	-1.319	-0.956	-0.430	-0.638	-1.702	-1.596	-1.356	-1.586	-1.847	-1.992	-1.857	-1.664	-1.648	-1.925	-2.042	-1.725	-1.914	-1.752	-1.688	-1.834	-1.866	-1.933	-2.207	-1.998	-1.913	-1.982	-1.987	-2.089	-2.089	-2.207
235.0	-107.7	-126.7	47.42	699.9	799.0	52.57	-53.46	-40.84	-37.20	-32.66	-30.97	-24.34	-19.93	-21.36	-14.05	-12.52	-9.916	-11.43	-7.420	-6.228	-5.607	-5.513	-5.590	-5.437	-4.724	-4.613	-4.376	-4.997	-3.724	-4.287	-4.056	-3.051	-2.634	-3.350	-2.983	-2.212	-2.211	-2.569	-2.345	-2.427	-2.202	-2.572	-1.981	-1.612	-2.108	-2.141	-1.614	-1.800	-1.583	-0.603	0.249	0.327	-0.771	-1.484	-1.484	-1.829	-1.253	-2.180	-1.684	-1.709	-1.668	-2.094	-1.718	-1.887	-1.743	-1.779	-1.610	-2.235	-1.829	-2.013	-2.311	-2.173	-2.223	-2.020	-2.297	-1.661	-2.423
240.0	-114.3	-123.4	-64.82	241.1	 1238	851.7	25.10	-43.03	-34.33	-36.65	-23.65	-20.45	-20.13	-17.75	-16.68	-11.49	-10.71	-10.35	-8.128	-7.321	-6.528	-5.284	-5.594	-5.553	-4.488	-3.846	-4.221	-4.816	-3.704	-4.226	-3.819	-2.841	-2.813	-3.033	-2.930	-2.286	-2.661	-2.564	-1.913	-2.130	-2.039	-2.633	-2.200	-2.013	-1.784	-2.093	-1.903	-1.855	-1.631	-0.995	-0.763	0.323	1.053	0.344	-0.871	-1.488	-1.416	-1.791	-1.635	-1.793	-1.763	-1.951	-2.095	-1.988	-1.573	-1.810	-1.603	-2.249	-1.709	-1.811	-2.161	-2.148	-2.247	-2.050	-2.063	-2.085	-2.385
245.0	-133.2	-118.8	-81.64	-15.92	562.7	 1669	972.6	-8.547	-33.63	-32.44	-28.81	-23.73	-20.90	-18.59	-16.25	-11.19	-10.53	-9.703	-8.055	-7.264	-5.901	-5.158	-5.197	-5.192	-5.372	-4.568	-3.873	-4.141	-4.195	-4.348	-3.843	-2.966	-3.113	-2.737	-3.024	-3.074	-2.599	-2.441	-2.139	-2.089	-2.003	-2.454	-1.960	-2.341	-1.839	-2.334	-1.590	-2.216	-1.426	-1.309	-1.290	-1.276	0.258	1.433	2.321	0.036	-1.218	-2.026	-1.597	-2.015	-1.892	-2.078	-1.740	-1.779	-1.823	-1.756	-1.605	-2.168	-1.825	-1.914	-1.928	-1.769	-1.992	-2.229	-1.935	-1.652	-2.369
250.0	-133.0	-112.3	-76.11	-44.34	92.26	697.4	 2090	 1401	216.7	-30.85	-27.35	-25.67	-20.30	-15.65	-13.22	-12.19	-9.720	-8.795	-7.227	-8.052	-6.361	-5.025	-5.551	-5.178	-5.044	-4.386	-4.060	-3.931	-4.446	-3.627	-3.511	-3.448	-3.586	-3.088	-2.525	-3.139	-2.724	-2.906	-2.393	-2.480	-2.334	-2.100	-2.085	-2.304	-2.150	-2.257	-1.583	-1.762	-1.486	-1.387	-1.219	-1.660	-0.876	-0.646	0.526	1.387	2.595	2.489	0.172	-1.465	-1.661	-1.824	-1.775	-1.774	-1.869	-1.917	-1.932	-2.071	-1.860	-2.132	-1.951	-2.032	-1.806	-1.864	-1.991	-2.125	-2.123
255.0	-129.0	-128.2	-103.2	-19.22	16.35	119.5	594.5	 2249	 2136	253.8	-27.42	-24.54	-18.90	-17.81	-13.98	-11.84	-10.68	-8.359	-8.713	-7.413	-6.502	-5.152	-5.384	-5.562	-5.682	-4.037	-4.394	-4.010	-4.407	-3.223	-3.816	-3.191	-3.671	-3.489	-2.695	-2.985	-2.822	-2.743	-2.361	-2.295	-2.406	-2.510	-2.349	-1.926	-2.163	-1.912	-1.764	-1.735	-1.747	-1.247	-1.307	-1.375	-1.461	-1.340	-1.240	-1.424	-0.429	2.741	5.044	5.095	1.351	-1.615	-1.904	-1.976	-1.849	-1.749	-1.751	-1.680	-1.982	-1.931	-2.038	-1.906	-1.881	-1.902	-1.953	-2.141	-1.925
260.0	-153.1	-104.8	-106.4	-47.07	45.06	35.90	99.51	847.4	 3205	 1806	141.4	-21.04	-15.37	-15.94	-14.67	-11.76	-9.904	-7.561	-7.335	-6.005	-6.117	-6.040	-5.677	-5.305	-4.858	-4.773	-4.575	-4.197	-4.650	-4.063	-4.134	-3.298	-3.767	-3.234	-3.277	-2.592	-2.454	-2.219	-2.471	-2.485	-2.113	-2.476	-1.903	-2.390	-2.097	-1.724	-1.405	-1.723	-1.911	-1.359	-1.165	-1.408	-0.994	-1.625	-1.581	-1.885	-1.525	-0.737	0.842	5.649	7.812	3.658	-0.396	-2.104	-1.701	-2.286	-2.145	-2.134	-2.059	-1.981	-1.492	-1.900	-2.074	-2.149	-1.862	-2.223	-2.296
265.0	-121.4	-112.9	-105.9	-62.56	-7.340	90.27	9.387	178.0	 1448	 3908	 1454	34.29	-18.89	-17.07	-11.73	-10.49	-9.062	-7.898	-7.489	-7.814	-5.792	-5.496	-5.559	-5.299	-5.309	-5.239	-3.786	-3.788	-4.295	-3.775	-3.792	-3.353	-2.476	-2.860	-3.208	-2.563	-2.955	-2.489	-2.600	-2.733	-1.996	-1.939	-2.129	-1.917	-2.040	-1.946	-1.707	-1.641	-1.886	-0.905	-1.327	-1.345	-1.083	-1.072	-1.377	-1.563	-1.532	-1.385	-1.425	0.723	3.647	6.793	8.719	2.930	-1.504	-2.091	-1.682	-2.154	-2.240	-1.956	-1.715	-1.913	-2.207	-2.047	-1.817	-2.337	-2.057
270.0	-129.6	-125.3	-94.30	-70.47	-54.62	31.52	91.74	36.98	320.1	 1578	 3400	 2675	332.9	-12.61	-11.28	-10.10	-9.194	-8.526	-7.712	-6.752	-6.120	-5.290	-5.711	-3.801	-4.774	-4.124	-3.151	-3.905	-4.356	-4.137	-3.862	-3.894	-3.132	-2.770	-2.778	-2.904	-2.771	-2.473	-2.401	-2.409	-2.408	-2.091	-1.999	-1.991	-1.835	-1.623	-1.346	-1.755	-1.594	-1.245	-1.438	-1.586	-1.536	-1.069	-1.379	-1.148	-1.327	-1.509	-1.679	-1.165	-0.623	0.781	3.439	6.405	7.706	5.621	0.848	-1.508	-1.939	-2.254	-1.591	-1.720	-1.933	-2.039	-2.172	-2.114	-2.126
275.0	-118.1	-131.0	-88.75	-79.98	-76.20	-31.37	55.08	153.8	99.44	345.0	981.2	 3931	 4031	326.9	-10.50	-8.007	-8.478	-6.917	-9.182	-7.352	-6.076	-5.032	-5.100	-4.827	-3.910	-4.176	-4.019	-3.533	-3.166	-3.943	-3.009	-3.347	-3.239	-3.107	-2.381	-2.520	-2.048	-2.649	-2.190	-2.530	-2.621	-2.409	-2.124	-1.746	-1.576	-1.713	-1.460	-1.639	-1.274	-1.402	-1.425	-1.500	-1.735	-1.300	-1.817	-0.892	-1.332	-1.062	-1.281	-1.271	-1.435	-1.384	-0.774	0.381	2.039	6.574	12.46	9.432	1.581	-1.626	-1.776	-1.771	-1.711	-2.037	-2.064	-2.041	-2.315
280.0	-134.6	-103.5	-98.90	-65.07	-59.94	-34.42	5.842	155.8	191.6	95.66	252.3	 1430	 5224	 3244	119.0	-7.322	-7.952	-8.056	-6.671	-5.286	-6.798	-5.876	-5.542	-4.482	-4.451	-4.915	-4.392	-3.496	-2.807	-2.888	-2.946	-3.547	-2.705	-2.240	-2.533	-2.334	-2.060	-2.457	-2.106	-2.559	-2.355	-2.078	-1.686	-1.999	-2.010	-1.623	-1.589	-1.885	-1.309	-1.239	-1.502	-1.724	-1.886	-1.529	-1.695	-1.270	-1.736	-1.265	-1.313	-0.588	-1.139	-1.640	-1.716	-1.257	-0.962	0.970	4.895	11.88	13.25	6.959	-0.371	-2.215	-2.156	-1.899	-1.844	-2.045	-2.433
285.0	-129.8	-107.1	-72.50	-66.98	-44.14	-31.33	1.131	55.96	279.8	147.5	119.8	402.8	 2257	 5894	912.0	34.18	-7.289	-7.437	-5.931	-4.238	-4.780	-5.380	-6.064	-4.066	-4.364	-5.154	-4.442	-3.714	-3.021	-4.076	-3.864	-3.782	-2.804	-3.174	-2.789	-2.121	-2.383	-2.338	-2.151	-2.141	-2.161	-1.949	-2.125	-2.363	-2.325	-1.841	-1.812	-1.919	-1.235	-1.208	-1.214	-1.770	-1.616	-1.826	-1.724	-1.703	-1.647	-1.599	-1.692	-0.969	-1.077	-1.452	-1.650	-1.635	-1.275	-1.233	-0.192	2.458	9.168	15.03	11.72	3.095	-1.586	-1.761	-1.997	-1.743	-2.294
290.0	-124.6	-112.1	-65.39	-50.98	-33.93	-10.90	5.509	19.41	134.4	309.8	238.6	201.8	644.1	 2383	 4345	 2720	207.5	-4.131	-5.498	-5.226	-5.393	-5.147	-4.793	-4.497	-4.013	-4.935	-3.483	-4.052	-3.098	-3.680	-3.536	-3.417	-2.720	-2.945	-2.461	-2.649	-2.235	-2.540	-2.054	-2.147	-2.231	-2.154	-2.312	-2.117	-2.256	-2.072	-1.793	-1.986	-1.276	-1.294	-1.352	-1.553	-1.534	-1.869	-1.669	-1.665	-1.690	-1.815	-1.702	-1.626	-1.109	-1.044	-0.766	-1.018	-1.216	-1.337	-1.055	-0.799	0.876	3.584	7.572	10.22	11.48	8.242	1.860	-1.479	-2.087
295.0	-134.3	-93.77	-57.03	-33.21	-22.15	1.922	11.92	26.29	81.59	186.3	475.3	305.7	305.7	620.0	 1300	 4485	 3866	215.6	-4.692	-4.202	-5.145	-3.761	-3.858	-4.725	-2.761	-3.294	-4.113	-4.018	-3.674	-3.121	-3.514	-3.853	-2.710	-2.974	-2.125	-2.609	-3.148	-2.906	-2.395	-1.669	-1.651	-2.179	-1.933	-2.041	-2.326	-2.153	-1.571	-1.715	-1.369	-1.425	-1.411	-1.735	-1.395	-1.602	-1.675	-1.255	-1.594	-1.278	-1.570	-1.592	-0.912	-1.138	-1.028	-0.509	0.247	-1.070	-1.307	-1.473	-0.835	-0.570	0.440	1.056	2.802	11.19	16.39	11.26	1.758
300.0	-127.6	-81.59	-62.85	-35.99	-27.88	9.003	28.35	57.69	77.87	150.3	368.4	557.2	285.2	241.9	351.9	 1665	 5653	 2755	90.85	-4.941	-4.790	-4.338	-3.856	-4.490	-3.596	-4.730	-3.715	-3.609	-4.119	-3.579	-3.413	-3.740	-3.668	-2.994	-2.767	-2.158	-2.765	-2.781	-2.298	-2.018	-2.068	-2.308	-1.872	-2.171	-2.306	-2.281	-1.720	-1.743	-1.517	-1.160	-1.148	-1.616	-1.140	-1.413	-1.584	-1.461	-1.725	-1.070	-1.666	-1.396	-1.094	-1.680	-1.240	-1.124	-0.019	-0.241	-0.792	-1.530	-1.255	-1.573	-1.046	-1.096	-1.319	1.800	6.873	15.19	17.66
305.0	-131.9	-83.58	-42.82	-30.67	-12.38	10.73	28.71	57.63	86.48	139.2	262.2	569.4	485.5	201.5	154.4	429.9	 2540	 5743	518.6	22.15	-2.306	-4.233	-4.327	-4.554	-3.256	-4.172	-4.645	-4.457	-3.565	-3.670	-2.703	-3.849	-2.944	-2.516	-1.813	-2.436	-2.032	-2.823	-2.869	-2.170	-1.894	-2.012	-2.034	-2.641	-2.253	-2.153	-1.598	-1.466	-1.118	-1.040	-1.090	-1.453	-0.918	-0.931	-1.412	-1.634	-1.699	-1.053	-1.894	-1.501	-1.346	-1.568	-1.137	-1.156	-0.771	-0.571	-0.117	-0.480	-1.175	-1.364	-1.287	-1.472	-1.905	-1.033	0.337	3.687	12.58
310.0	-122.2	-98.52	-28.46	-8.599	5.647	11.57	36.93	68.46	94.20	152.3	219.6	374.9	571.1	398.1	146.4	153.1	624.9	 2455	 3704	 1902	137.0	-1.485	-2.806	-3.982	-4.403	-3.836	-4.088	-4.103	-3.086	-3.607	-3.297	-3.467	-3.187	-2.721	-2.580	-2.517	-2.363	-2.600	-2.585	-2.369	-2.006	-2.218	-1.807	-2.244	-2.139	-2.092	-1.842	-1.324	-1.368	-1.016	-1.000	-1.363	-1.413	-1.122	-1.145	-1.451	-1.384	-1.172	-1.691	-1.741	-1.667	-1.422	-1.303	-1.457	-0.897	-0.940	-0.773	-0.168	-0.555	-1.031	-1.230	-1.761	-1.904	-1.334	-1.413	-0.735	1.538
315.0	-117.0	-67.46	-55.77	-14.40	3.620	12.64	47.20	73.42	94.07	150.0	213.7	280.7	356.6	527.2	327.7	109.6	186.8	577.2	 1220	 4529	 2797	160.6	-2.787	-2.519	-3.702	-2.881	-2.947	-3.399	-3.693	-3.883	-2.828	-3.464	-3.531	-2.986	-2.695	-1.955	-3.002	-2.703	-2.192	-2.594	-2.371	-1.876	-2.247	-2.247	-2.005	-1.480	-1.934	-1.200	-1.597	-1.313	-1.001	-1.298	-1.460	-1.596	-1.339	-1.676	-1.333	-1.523	-1.381	-1.626	-1.231	-1.462	-1.199	-1.308	-1.205	-1.174	-1.131	-1.231	-0.802	-0.566	-0.105	-0.585	-1.380	-1.807	-1.351	-1.261	-1.093
320.0	-107.2	-82.11	-22.70	-3.596	29.44	45.94	65.17	91.09	125.9	167.8	213.4	268.9	298.0	377.9	495.7	193.2	96.89	160.5	298.2	 1842	 5205	 2093	62.06	-2.625	-3.079	-3.484	-3.035	-2.876	-3.517	-3.830	-2.809	-3.279	-3.184	-2.524	-2.702	-2.711	-2.121	-2.958	-2.545	-2.381	-1.891	-2.356	-1.965	-2.047	-1.904	-1.634	-1.648	-1.453	-1.356	-1.423	-1.259	-1.564	-0.807	-1.269	-1.527	-1.470	-1.202	-1.772	-1.157	-1.657	-1.353	-1.372	-0.729	-1.228	-1.230	-1.032	-1.456	-1.396	-1.193	-1.112	-0.825	-0.239	-1.561	-1.600	-1.488	-1.600	-1.650
325.0	-90.15	-36.61	-17.01	32.15	81.71	68.52	133.0	142.2	153.7	177.3	220.7	236.0	277.7	283.9	429.8	354.8	114.1	80.60	94.53	447.8	 2612	 5132	358.4	14.20	-1.643	-2.066	-2.359	-2.797	-3.124	-3.303	-2.920	-3.309	-2.739	-2.358	-3.033	-2.470	-2.390	-2.302	-2.385	-2.204	-2.014	-2.346	-2.367	-2.579	-2.128	-1.568	-1.835	-1.457	-1.174	-1.354	-1.408	-1.440	-0.840	-1.371	-1.234	-1.305	-0.937	-1.728	-1.374	-1.491	-1.237	-1.073	-1.160	-1.347	-1.097	-1.415	-1.410	-1.211	-1.431	-1.570	-0.831	-0.976	-0.669	-0.870	-1.207	-1.650	-1.957
330.0	-101.6	-45.65	49.15	108.0	172.4	194.3	241.6	229.6	231.2	252.4	265.3	257.8	273.1	263.9	273.0	358.5	282.9	109.3	58.34	128.5	640.8	 2419	 3742	 1384	98.16	-0.691	-1.819	-1.757	-3.310	-2.040	-2.802	-3.349	-2.085	-2.828	-2.692	-2.655	-2.106	-2.654	-2.311	-2.101	-1.946	-2.384	-2.356	-2.280	-1.853	-1.761	-1.461	-1.586	-1.660	-0.920	-1.192	-1.204	-0.964	-1.288	-0.757	-1.143	-0.899	-1.246	-1.087	-1.154	-0.934	-1.050	-1.055	-1.395	-1.369	-1.251	-1.375	-1.108	-1.365	-1.224	-1.162	-1.350	-0.883	-1.125	-0.958	-0.887	-1.604
335.0	-100.8	-27.99	93.82	216.4	344.0	398.7	475.9	439.3	325.5	338.1	300.8	280.2	276.3	274.4	229.4	230.2	338.0	271.7	91.94	70.11	172.4	558.5	 1335	 4345	 2118	117.0	-1.179	-1.900	-2.430	-1.671	-2.673	-3.800	-2.546	-3.116	-2.924	-1.996	-2.161	-2.394	-2.498	-2.414	-2.296	-2.556	-2.533	-2.155	-1.722	-1.818	-1.509	-1.296	-1.429	-0.656	-0.947	-0.618	-0.759	-0.571	-0.265	-0.356	-0.509	-0.612	-0.578	-0.771	-0.989	-0.908	-0.904	-1.011	-0.971	-1.203	-1.376	-0.991	-1.111	-1.420	-1.512	-0.972	-0.992	-1.419	-1.341	-1.025	-0.904
340.0	-105.2	7.114	155.7	338.8	442.0	582.2	631.8	605.5	486.5	421.6	364.0	286.4	295.3	277.4	244.9	206.7	233.2	362.4	189.5	70.47	77.69	152.9	324.5	 1984	 4886	 1637	47.69	-1.153	-1.695	-1.917	-2.052	-3.253	-2.372	-2.354	-2.680	-2.185	-2.316	-1.637	-2.156	-2.327	-2.601	-1.697	-2.077	-1.963	-2.468	-1.838	-1.715	-1.323	-0.975	-0.348	-0.615	-0.287	-0.450	-0.442	-0.144	0.098	-0.039	-0.093	-0.161	-0.707	-0.588	-0.389	-0.922	-1.087	-1.232	-1.407	-1.014	-1.286	-1.125	-1.175	-1.209	-1.492	-0.710	-1.627	-1.165	-1.725	-1.107
345.0	-107.0	35.48	205.2	412.4	604.5	716.9	826.1	745.6	590.3	500.6	393.5	290.1	287.6	278.3	246.9	209.1	186.8	282.4	306.4	124.6	65.53	69.88	95.83	493.9	 2803	 4739	279.8	11.69	-0.345	-1.635	-2.492	-3.056	-1.231	-2.150	-1.919	-2.284	-1.705	-2.489	-1.363	-2.355	-1.661	-2.174	-2.347	-2.410	-2.026	-1.871	-1.063	-1.628	-0.957	-0.659	-0.555	-0.218	-0.387	-0.439	-0.076	-0.072	-0.148	0.425	-0.330	-0.348	-0.428	-0.056	-0.673	-0.823	-0.680	-0.885	-0.557	-1.303	-0.927	-0.959	-1.355	-1.409	-1.105	-1.234	-1.475	-1.274	-1.860
350.0	-71.73	36.36	284.1	532.8	757.5	922.5	 1047	878.6	758.1	597.9	423.7	312.0	276.5	283.4	261.8	225.9	187.6	200.5	270.1	264.8	119.7	66.20	60.79	139.8	704.4	 2487	 3665	 1142	85.20	-0.548	-1.772	-2.143	-2.277	-2.125	-2.575	-2.293	-2.338	-2.451	-1.841	-2.428	-1.896	-2.276	-2.235	-2.003	-2.020	-1.689	-1.176	-1.312	-0.795	-0.622	-0.371	0.114	-0.104	0.313	0.913	0.187	0.209	0.712	0.254	0.117	-0.392	0.181	-0.407	-0.857	-0.713	-1.092	-1.020	-1.262	-1.026	-0.900	-1.188	-1.296	-1.262	-1.188	-1.447	-1.324	-1.510
355.0	-74.65	62.63	288.5	591.8	846.8	 1128	 1166	 1011	832.1	671.3	433.9	307.5	290.4	287.9	259.7	233.2	211.4	192.2	200.0	266.0	252.8	107.3	74.68	70.37	189.1	579.4	 1481	 4202	 1811	92.97	-1.246	-2.006	-1.622	-1.405	-2.106	-1.781	-2.477	-2.915	-1.871	-2.238	-1.818	-2.242	-1.577	-2.028	-1.989	-1.703	-1.253	-1.302	-0.690	-0.192	-0.058	0.890	0.330	0.462	1.049	1.041	1.099	0.820	0.902	0.485	-0.256	0.176	-0.484	-0.769	-1.003	-0.940	-1.553	-1.295	-1.129	-0.995	-1.379	-1.371	-1.218	-1.527	-1.335	-1.502	-1.103
360.0	-68.51	70.98	286.1	648.7	913.1	 1206	 1225	 1086	895.3	701.2	493.2	328.3	276.4	291.3	268.0	242.3	228.3	204.8	194.0	208.5	294.1	197.9	92.68	69.43	82.24	159.8	367.0	 2151	 4669	 1398	35.33	-1.065	-1.205	-1.636	-1.659	-1.831	-1.926	-2.388	-2.266	-2.230	-1.822	-2.076	-2.196	-1.882	-1.920	-1.985	-1.021	-0.980	-0.734	0.041	-0.177	0.345	0.236	0.830	1.421	1.229	0.854	0.898	0.696	0.460	-0.074	0.053	-0.148	-0.464	-1.080	-0.830	-1.209	-0.779	-0.928	-1.128	-1.360	-1.261	-1.054	-1.326	-1.501	-1.567	-1.568
365.0	-44.95	63.74	301.2	658.9	931.2	 1226	 1284	 1071	898.2	702.8	509.4	315.7	285.3	279.2	265.3	248.2	228.6	212.2	197.7	188.2	239.1	281.3	146.3	84.97	71.59	76.05	112.6	553.3	 2876	 4498	242.3	9.346	-0.060	-1.564	-1.986	-2.290	-1.978	-2.238	-2.107	-1.750	-1.835	-1.553	-1.859	-1.445	-1.796	-1.939	-1.081	-0.743	-0.765	-0.194	0.029	0.548	0.404	1.027	1.475	1.262	0.978	0.924	0.784	0.365	0.287	0.003	0.224	-0.571	-1.045	-0.796	-0.874	-1.158	-0.753	-1.517	-1.135	-1.402	-1.072	-1.431	-1.407	-1.682	-1.593
370.0	-49.24	65.51	304.7	594.5	920.4	 1172	 1215	 1070	867.0	713.6	484.0	308.5	290.4	278.9	273.2	257.4	249.5	222.9	213.8	196.9	201.0	247.8	257.0	144.9	89.51	72.90	66.56	153.1	730.8	 2527	 3671	980.3	70.09	-0.187	-1.441	-1.587	-2.058	-1.860	-2.027	-1.956	-1.551	-1.985	-1.992	-1.489	-1.527	-1.613	-1.094	-1.178	-0.866	-0.264	0.065	0.253	0.249	1.113	1.003	1.173	0.961	0.873	0.607	0.366	0.163	0.060	0.355	-0.460	-0.757	-0.816	-1.015	-0.982	-0.769	-1.085	-1.209	-1.356	-1.068	-1.070	-1.133	-1.150	-1.359
375.0	-62.74	53.03	287.5	584.7	889.7	 1104	 1170	 1044	846.6	679.6	463.5	297.3	278.9	281.5	285.5	258.9	250.9	244.8	236.0	210.4	198.1	200.6	242.2	252.6	135.5	86.58	74.82	77.03	188.8	585.5	 1553	 4211	 1527	80.91	0.276	-0.930	-1.955	-1.630	-1.669	-2.157	-1.928	-2.278	-2.090	-1.693	-1.563	-1.858	-1.054	-1.211	-0.761	-0.564	0.007	-0.110	0.422	1.061	1.174	0.670	0.989	0.748	0.876	0.212	0.038	-0.096	-0.044	0.059	-0.445	-0.759	-1.115	-0.861	-1.250	-1.030	-1.310	-1.205	-0.819	-0.806	-1.381	-1.060	-1.439
380.0	-81.86	31.89	265.3	547.0	814.3	 1103	 1104	969.0	791.3	643.4	462.0	315.1	279.4	266.7	279.6	268.5	260.6	257.7	247.6	228.9	214.2	198.2	204.5	277.3	208.9	110.3	83.68	66.01	77.04	154.5	380.4	 2179	 4466	 1211	32.19	-0.262	-0.793	-1.622	-1.427	-2.116	-1.899	-2.449	-2.284	-1.546	-1.670	-1.926	-1.224	-1.074	-0.908	-0.580	-0.286	0.116	0.391	0.712	0.989	0.419	1.092	0.868	0.383	0.178	0.259	-0.131	-0.335	-0.732	-0.801	-1.359	-1.443	-1.030	-0.606	-1.200	-1.191	-1.201	-1.217	-1.221	-0.912	-1.234	-1.223
385.0	-63.66	46.34	249.0	521.7	761.7	981.1	997.7	915.5	754.4	624.1	443.1	310.7	269.0	281.3	268.1	269.4	254.1	248.5	255.5	232.1	224.7	210.3	193.1	222.7	265.2	161.2	95.72	70.00	58.14	64.15	105.3	560.7	 2852	 4144	189.5	7.007	0.023	-0.515	-1.194	-1.305	-1.566	-2.002	-1.364	-1.917	-1.684	-1.544	-1.471	-1.441	-0.679	-0.325	-0.485	0.293	-0.005	0.758	0.927	0.136	0.468	0.333	0.310	0.125	-0.268	-0.461	-0.794	-0.768	-1.035	-1.604	-1.281	-1.039	-0.858	-1.231	-1.228	-1.051	-1.281	-1.108	-0.919	-1.470	-1.586
