Sample:	'1
File name:	´äÅÄºÓÈë»´¿Ú.FD3
Run date:	'10:57:56, 04/03/2024
Operator:	Administrator
Comment:	'

Instrument
Model:	F-2700 FL Spectrophotometer
Serial number:	23B8-004
ROM Version:	4J14000 07

Instrument parameters
Measurement type:	3-D scan
Data mode:	Fluorescence
EX  Start WL:	220.0 nm
EX  End WL:	600.0 nm
EX Sampling interval:	5.0 nm
EM  Start WL:	230.0 nm
EM  End WL:	650.0 nm
EM Sampling interval:	5.0 nm
Scan speed:	12000 nm/min
EX Slit:	5.0 nm
EM Slit:	5.0 nm
PMT Voltage:	700 V
Response:	Auto 
Corrected spectra:	Off
Contour interval:	50.000

Peak integration
Integration method:	Rectangular
Sensitivity:	1
Threshold:	1.000

Peaks
No.	ApexEX/EM(nm)	Height(Data)
1	230.0/340.0	1368
2	230.0/585.0	81.79
3	230.0/605.0	73.09
4	230.0/620.0	66.51
5	240.0/400.0	974.0
6	245.0/405.0	977.4
7	245.0/535.0	235.1
8	250.0/545.0	193.2
9	255.0/280.0	537.5
10	255.0/560.0	150.5
11	260.0/285.0	588.7
12	260.0/425.0	895.9
13	260.0/570.0	125.1
14	265.0/585.0	126.2
15	270.0/300.0	1322
16	270.0/600.0	119.9
17	275.0/305.0	1617
18	275.0/330.0	1307
19	275.0/610.0	111.0
20	280.0/310.0	1490
21	280.0/625.0	90.99
22	285.0/635.0	67.48
23	315.0/355.0	521.1
24	320.0/365.0	531.9
25	455.0/335.0	5.542
26	505.0/275.0	3.007
27	520.0/285.0	3.815
28	540.0/295.0	5.970
29	545.0/300.0	7.155
30	555.0/305.0	8.015
31	560.0/310.0	7.761
32	570.0/315.0	7.471
33	585.0/325.0	6.230

Data points
	220.0	225.0	230.0	235.0	240.0	245.0	250.0	255.0	260.0	265.0	270.0	275.0	280.0	285.0	290.0	295.0	300.0	305.0	310.0	315.0	320.0	325.0	330.0	335.0	340.0	345.0	350.0	355.0	360.0	365.0	370.0	375.0	380.0	385.0	390.0	395.0	400.0	405.0	410.0	415.0	420.0	425.0	430.0	435.0	440.0	445.0	450.0	455.0	460.0	465.0	470.0	475.0	480.0	485.0	490.0	495.0	500.0	505.0	510.0	515.0	520.0	525.0	530.0	535.0	540.0	545.0	550.0	555.0	560.0	565.0	570.0	575.0	580.0	585.0	590.0	595.0	600.0
230.0	29.73	1805	6315	2326	93.27	8.841	7.943	5.830	5.438	5.147	5.005	4.804	4.243	3.860	3.348	3.292	3.055	2.786	2.488	2.358	2.025	2.075	1.757	1.760	1.709	1.537	1.417	1.348	1.277	1.311	1.269	1.278	1.112	1.046	0.942	0.821	0.714	0.747	0.639	0.640	0.662	0.668	0.723	0.619	0.549	0.541	2.513	12.71	22.79	17.26	6.691	1.375	0.458	0.329	0.342	0.327	0.308	0.254	0.237	0.250	0.205	0.200	0.195	0.179	0.180	0.206	0.164	0.145	0.163	0.131	0.111	0.096	0.128	0.067	0.070	0.071	0.090
235.0	73.61	459.5	3248	6497	2991	176.1	10.65	7.536	6.602	7.404	5.520	5.816	4.757	4.288	4.096	3.203	2.909	3.197	2.476	2.455	2.333	1.908	2.014	1.684	1.743	1.808	1.515	1.429	1.273	1.439	1.293	1.261	1.128	1.039	0.920	0.936	0.836	0.684	0.730	0.599	0.706	0.651	0.776	0.825	0.737	0.671	1.006	3.411	8.058	15.07	22.09	23.99	12.86	2.979	0.434	0.330	0.314	0.348	0.257	0.214	0.211	0.200	0.239	0.275	0.243	0.181	0.180	0.162	0.196	0.115	0.110	0.117	0.107	0.129	0.070	0.062	0.118
240.0	100.7	182.1	850.3	4639	8358	2531	93.21	10.19	9.099	8.207	6.701	6.472	5.957	4.909	4.190	3.588	3.492	2.841	2.890	2.444	2.378	2.189	2.078	1.855	1.808	1.885	1.651	1.677	1.373	1.395	1.357	1.218	1.053	1.038	1.037	0.909	0.774	0.748	0.865	0.717	0.574	0.582	0.656	0.622	0.789	0.832	0.784	1.174	2.186	4.338	10.79	28.07	39.80	24.43	11.31	1.665	0.354	0.371	0.316	0.275	0.268	0.199	0.290	0.224	0.133	0.151	0.145	0.150	0.188	0.133	0.114	0.125	0.106	0.131	0.090	0.093	0.086
245.0	71.57	184.6	253.9	1346	7283	8888	461.5	39.45	12.56	9.972	8.382	7.390	6.288	4.895	4.391	4.033	3.350	2.846	3.016	2.709	2.433	2.513	1.942	2.003	1.954	1.839	1.751	1.652	1.591	1.447	1.277	1.229	1.072	1.025	0.977	0.911	0.817	0.848	0.753	0.641	0.617	0.618	0.632	0.612	0.678	0.921	0.914	0.974	1.021	1.379	2.791	8.625	24.16	42.63	47.22	22.23	7.721	0.738	0.381	0.289	0.230	0.252	0.301	0.234	0.166	0.200	0.190	0.194	0.133	0.167	0.113	0.123	0.087	0.121	0.122	0.094	0.076
250.0	33.90	118.7	226.8	405.9	2047	6725	9999.9	4422	134.9	15.81	12.31	9.917	7.977	5.892	5.521	4.368	3.835	3.739	3.456	2.794	2.813	2.487	2.319	2.275	2.062	1.911	1.802	1.947	1.543	1.616	1.304	1.380	1.073	1.060	0.996	0.908	0.923	0.942	0.740	0.691	0.701	0.677	0.591	0.611	0.581	0.658	0.776	0.993	1.129	1.240	1.237	2.341	5.908	12.59	24.97	37.38	41.50	47.47	17.31	8.015	0.925	0.340	0.274	0.272	0.287	0.234	0.202	0.172	0.156	0.172	0.146	0.145	0.113	0.124	0.120	0.095	0.136
255.0	33.66	46.54	130.8	335.8	568.2	1589	5763	9999.9	2497	165.7	21.04	14.25	12.83	7.666	5.967	5.236	4.728	4.223	3.770	3.098	2.791	2.732	2.481	2.410	2.071	2.082	1.921	2.050	1.614	1.812	1.352	1.421	1.156	1.126	1.056	0.919	0.859	0.915	0.790	0.738	0.675	0.710	0.655	0.598	0.607	0.604	0.635	0.583	0.687	1.036	1.461	1.809	1.996	3.174	6.035	8.828	14.39	40.08	77.30	88.41	27.62	9.726	0.753	0.356	0.323	0.260	0.302	0.233	0.268	0.158	0.205	0.111	0.124	0.149	0.148	0.094	0.126
260.0	22.05	31.05	55.67	230.8	373.8	427.4	1520	8928	9999.9	2078	112.9	21.05	14.37	10.48	8.479	6.591	5.543	4.797	4.061	3.088	3.090	2.893	2.396	2.645	2.176	2.182	1.989	2.027	1.671	1.835	1.738	1.393	1.311	1.126	1.031	1.054	0.913	0.999	0.805	0.842	0.832	0.797	0.695	0.751	0.587	0.611	0.645	0.509	0.560	0.668	0.977	1.686	2.208	1.787	1.868	2.345	3.630	10.23	29.69	72.84	110.3	100.1	24.26	4.995	0.526	0.306	0.392	0.307	0.219	0.295	0.237	0.267	0.131	0.148	0.161	0.196	0.137
265.0	26.72	30.52	36.16	99.56	316.8	309.7	391.3	2628	9999.9	9999.9	1612	54.60	20.35	13.67	10.49	7.768	6.129	5.421	4.620	3.673	3.439	3.307	2.718	2.643	2.451	2.326	2.312	2.041	1.875	1.855	1.941	1.579	1.329	1.237	1.162	1.055	0.910	0.924	0.832	1.006	0.884	0.883	0.739	0.692	0.574	0.627	0.708	0.608	0.570	0.558	0.685	0.971	1.745	2.083	1.838	1.132	1.268	2.678	7.252	19.77	52.72	112.8	153.1	33.94	17.65	1.908	0.514	0.423	0.329	0.375	0.293	0.294	0.152	0.190	0.164	0.200	0.186
270.0	42.45	49.21	41.78	50.40	134.1	325.3	328.5	657.1	3108	9999.9	9999.9	5931	97.71	22.97	16.01	10.90	8.605	7.018	5.948	4.589	4.090	3.748	3.090	3.102	3.038	2.679	2.398	2.393	2.022	2.044	1.879	1.759	1.587	1.388	1.319	1.213	1.054	1.001	0.895	0.938	0.951	0.908	0.805	0.730	0.726	0.743	0.730	0.593	0.631	0.600	0.536	0.627	0.874	1.126	1.683	2.104	2.133	1.622	2.159	4.908	12.47	30.18	66.94	89.07	127.9	108.1	80.78	12.76	2.734	0.504	0.367	0.399	0.263	0.233	0.247	0.240	0.250
275.0	78.87	86.71	78.97	60.98	60.04	131.2	406.4	432.4	764.2	2392	9647	9999.9	8699	113.9	25.68	17.45	12.50	9.723	7.450	6.343	5.193	4.454	3.683	3.618	3.164	3.070	3.002	2.674	2.113	2.193	2.203	1.977	1.767	1.728	1.451	1.216	1.213	1.097	1.018	0.863	0.956	0.893	0.841	0.998	0.830	0.997	0.969	0.871	0.686	0.639	0.611	0.601	0.660	0.685	0.750	1.132	1.935	3.007	2.502	1.922	3.457	7.352	15.62	20.74	34.13	71.06	170.0	234.1	35.24	19.34	1.967	0.583	0.455	0.419	0.358	0.397	0.236
280.0	128.3	160.9	144.6	96.25	55.16	66.19	214.9	537.5	376.0	625.7	2567	9999.9	9999.9	1208	77.15	25.17	16.35	13.43	9.153	7.284	6.305	5.257	4.672	3.941	3.445	3.311	3.022	2.723	2.519	2.474	2.587	2.369	2.146	1.842	1.566	1.423	1.320	1.151	1.071	1.162	1.017	1.036	0.965	1.053	1.124	1.228	1.136	1.145	0.958	0.949	0.699	0.799	0.642	0.695	0.670	0.803	1.055	2.046	3.049	3.183	2.348	2.458	4.128	5.431	8.247	17.29	51.34	142.4	202.8	234.1	33.26	14.17	1.026	0.541	0.475	0.528	0.404
285.0	205.4	291.9	275.1	182.9	87.42	61.47	109.5	388.3	588.7	334.9	757.8	3267	9999.9	9999.9	925.2	51.55	23.57	16.61	11.61	8.767	6.887	6.307	5.019	4.463	3.868	3.743	3.167	3.003	2.558	2.649	2.557	2.472	2.008	2.036	1.873	1.635	1.462	1.250	1.121	1.162	1.126	1.178	1.111	1.229	1.458	1.638	1.516	1.453	1.570	1.238	1.144	1.101	0.768	0.822	0.744	0.848	0.871	1.080	1.667	3.071	3.815	2.847	2.031	2.337	2.911	5.016	12.69	34.99	71.94	180.5	257.7	209.2	27.49	8.452	0.783	0.591	0.621
290.0	357.3	517.8	528.0	347.7	165.4	96.34	111.9	223.1	548.8	720.7	617.8	1125	3646	9999.9	9999.9	3745	65.56	27.06	17.49	11.66	9.488	8.005	6.273	5.462	4.627	4.153	3.581	3.586	3.042	2.999	2.761	2.647	2.390	2.082	2.036	2.023	1.739	1.606	1.464	1.432	1.304	1.320	1.402	1.494	1.776	2.039	2.178	2.335	2.297	1.921	1.721	1.483	1.128	1.011	0.878	0.856	0.948	0.896	1.220	1.697	2.569	3.502	4.099	3.977	3.135	3.045	4.854	9.776	18.15	44.62	86.05	145.7	179.3	208.1	142.9	19.69	8.931
295.0	500.2	735.2	778.6	527.9	252.4	152.5	159.4	232.2	405.0	789.7	1142	905.6	1343	2628	9999.9	9999.9	5508	76.03	28.51	18.08	13.01	10.16	7.702	6.612	5.708	5.121	4.447	4.140	3.709	3.347	3.004	3.091	2.675	2.322	2.481	2.188	2.030	1.923	1.609	1.543	1.699	1.629	1.650	1.821	2.101	2.705	2.758	3.124	3.054	2.801	2.192	1.909	1.536	1.171	1.158	1.142	1.209	1.093	1.287	1.730	2.068	2.489	3.437	5.128	5.970	5.391	4.483	5.057	7.170	12.50	21.49	34.48	42.82	73.14	167.5	292.5	255.3
300.0	586.8	879.7	936.2	633.1	323.2	199.3	198.3	275.0	428.1	704.7	1322	1239	969.7	989.4	2709	9999.9	9999.9	4213	60.06	24.79	17.21	12.72	9.419	8.127	6.605	5.884	5.133	4.660	3.911	3.697	3.647	3.105	2.777	2.787	2.621	2.408	2.271	2.089	1.940	1.815	1.850	1.616	1.839	1.968	2.309	3.089	3.230	3.742	3.656	3.262	2.495	2.378	1.761	1.575	1.332	1.303	1.378	1.435	1.413	2.003	2.096	2.626	3.110	3.847	5.687	7.155	7.009	5.484	5.106	5.938	7.644	10.20	11.35	18.08	43.32	119.6	258.1
305.0	638.8	990.1	1034	694.7	368.7	244.4	246.1	336.6	496.5	723.6	1168	1617	1124	718.6	863.4	3209	9999.9	9999.9	596.4	44.13	23.84	16.51	12.06	10.17	8.087	6.867	5.685	5.138	4.603	4.131	3.619	3.511	3.241	2.970	2.660	2.534	2.402	2.234	2.065	2.016	1.934	2.046	2.112	2.279	2.334	3.110	3.431	4.070	3.982	3.439	2.705	2.420	2.164	1.844	1.623	1.392	1.718	1.817	1.713	2.186	2.513	2.890	3.486	3.759	4.915	5.864	7.750	8.015	6.384	5.241	5.009	4.975	4.621	5.648	11.20	28.35	70.58
310.0	621.7	973.3	1079	749.3	420.5	294.6	298.7	393.8	552.4	784.3	1093	1446	1490	893.9	530.5	907.6	3556	9999.9	9999.9	9999.9	52.31	26.66	17.87	13.77	10.53	8.199	7.150	6.168	5.297	4.840	4.279	4.146	3.518	3.310	3.054	2.870	2.568	2.553	2.274	2.118	2.098	2.032	2.119	2.305	2.682	3.139	3.581	4.028	4.321	3.655	3.024	2.732	2.244	2.074	1.789	1.613	1.938	2.072	2.229	2.438	2.839	3.376	3.840	4.124	4.930	5.249	6.202	7.173	7.761	7.742	6.331	4.865	3.525	3.249	4.329	7.719	17.05
315.0	636.5	968.9	1077	768.6	465.8	341.3	356.6	449.4	599.5	823.5	1098	1309	1368	1264	626.2	442.5	947.9	2432	9999.9	9999.9	4108	61.71	27.25	19.10	14.34	10.17	8.627	7.894	5.800	5.971	4.913	4.485	4.100	3.690	3.612	3.249	2.779	2.836	2.498	2.198	2.383	2.297	2.265	2.402	2.643	3.426	3.724	4.261	4.173	3.541	3.257	3.256	2.538	2.358	2.064	2.046	2.250	2.196	2.434	2.769	3.196	3.898	3.936	4.692	4.712	5.693	5.632	6.487	6.381	6.700	7.471	7.095	5.304	3.386	3.109	3.513	5.507
320.0	643.0	997.9	1105	798.7	493.7	372.6	389.6	487.0	630.6	851.2	1119	1291	1265	1243	907.2	416.3	399.5	671.9	2654	9999.9	9999.9	3373	50.79	26.42	18.18	13.13	10.62	9.179	7.006	6.796	5.652	5.191	4.896	4.084	3.672	3.279	3.128	2.870	2.700	2.253	2.385	2.442	2.475	2.641	2.933	3.532	3.980	4.357	4.497	3.813	3.224	3.162	2.697	2.270	2.232	2.117	2.421	2.438	2.520	3.065	3.158	4.001	4.231	4.987	4.981	5.616	5.735	6.270	6.165	6.400	6.327	6.857	6.743	5.207	3.650	2.709	3.068
325.0	683.7	1046	1192	869.5	540.3	406.9	422.5	511.4	654.8	873.9	1134	1298	1266	1115	1020	582.0	316.0	299.2	699.8	3240	9999.9	9999.9	472.6	42.17	23.62	16.80	13.06	10.52	8.649	7.518	6.264	5.619	5.031	4.191	3.829	3.374	3.266	2.899	2.784	2.551	2.480	2.643	2.758	2.794	3.203	3.641	3.929	4.581	4.764	4.169	3.519	3.391	2.935	2.506	2.454	2.353	2.573	2.718	2.794	2.938	3.474	3.985	4.441	4.916	5.166	5.657	5.892	6.039	6.003	6.033	5.948	5.991	5.896	6.230	5.209	3.871	2.886
330.0	695.2	1089	1299	1007	641.8	472.6	454.1	540.0	673.9	892.1	1134	1307	1282	1095	898.4	762.4	475.1	266.0	290.1	828.1	3669	9999.9	9999.9	9999.9	46.70	26.02	18.08	14.17	10.46	9.170	7.364	6.561	5.415	4.844	4.231	3.763	3.510	3.045	2.889	2.795	2.723	2.827	2.707	2.961	3.216	3.862	4.283	4.944	5.043	4.486	3.948	3.759	3.663	2.840	2.797	2.570	2.715	3.038	2.937	3.245	3.472	3.915	4.491	4.958	5.364	5.917	5.812	6.303	6.298	6.364	6.063	5.937	5.450	5.293	4.896	5.151	4.696
335.0	687.1	1122	1353	1098	744.7	541.9	504.2	578.8	702.5	901.7	1134	1296	1291	1123	866.1	681.6	668.2	403.7	245.5	317.1	918.4	2427	9999.9	9999.9	3454	54.04	25.76	20.04	13.99	11.49	9.485	7.743	5.989	5.245	4.753	4.556	3.750	3.414	3.236	3.036	2.753	2.905	2.836	2.915	3.437	4.097	4.548	5.542	5.529	4.848	4.135	4.573	4.054	3.250	3.104	2.749	3.073	3.074	3.068	3.388	3.668	4.243	4.322	4.953	5.414	5.942	6.025	6.157	6.317	6.305	6.233	5.927	5.410	5.061	4.633	4.331	4.509
340.0	671.7	1099	1368	1137	796.2	588.9	543.1	600.3	704.6	890.7	1111	1269	1272	1119	878.0	653.9	621.1	562.8	299.8	228.5	325.7	640.6	2794	9999.9	9999.9	3001	45.84	26.09	16.92	13.34	10.86	8.626	7.138	5.972	5.169	4.533	3.864	3.777	3.397	3.451	3.160	2.846	2.957	3.266	3.537	4.055	4.651	5.188	5.406	5.058	4.434	4.476	3.987	3.405	3.345	3.125	3.067	2.957	3.142	3.474	3.651	4.099	4.474	4.837	5.345	5.595	5.854	6.210	6.128	6.158	6.255	5.943	5.414	5.307	4.664	4.243	3.964
345.0	658.1	1070	1326	1175	840.9	618.4	552.4	606.3	702.3	871.7	1080	1220	1232	1106	890.2	663.9	552.4	585.0	437.8	249.8	218.6	260.1	720.5	3624	9999.9	9999.9	423.1	39.12	21.79	16.52	12.66	9.742	7.637	6.519	5.254	4.459	4.184	3.685	3.361	3.239	3.032	2.859	3.155	3.264	3.523	3.894	4.381	5.079	5.353	5.018	4.414	4.537	4.139	3.489	3.131	3.274	3.402	3.129	3.453	3.474	3.740	4.032	4.535	5.037	5.357	5.530	5.803	6.094	5.949	6.022	6.219	5.800	5.480	5.332	4.910	4.302	3.895
350.0	645.5	989.6	1284	1142	859.3	673.8	591.3	628.9	708.8	853.6	1032	1159	1171	1066	884.3	681.6	556.1	510.0	519.8	399.4	253.1	216.9	287.5	913.2	4107	9999.9	9999.9	9297	41.74	23.23	16.19	11.97	8.750	7.191	5.751	4.872	4.257	3.698	3.342	3.164	3.028	2.904	2.824	3.025	3.240	3.894	4.229	4.939	5.015	4.647	4.433	4.730	4.283	3.802	3.381	3.228	3.485	3.429	3.386	3.690	3.883	4.107	4.329	4.615	4.843	5.428	5.430	5.691	5.831	5.831	5.788	5.741	5.379	5.228	4.858	4.265	4.079
355.0	591.4	950.0	1208	1094	898.5	729.6	644.0	666.4	719.7	858.8	994.8	1109	1115	1039	878.0	710.0	597.0	517.7	481.2	521.1	392.6	261.9	230.1	336.2	1017	2471	9999.9	9999.9	3211	49.41	23.34	15.87	11.51	8.522	6.489	5.529	4.415	4.017	3.569	3.433	3.025	2.986	2.811	3.137	3.156	3.717	3.957	4.618	4.744	4.691	4.397	4.612	4.067	3.690	3.597	3.348	3.636	3.770	3.543	3.558	4.042	4.212	4.480	4.563	4.697	5.260	5.187	5.399	5.366	5.527	5.568	5.524	5.147	5.124	4.754	4.443	4.253
360.0	575.3	905.6	1117	1082	904.7	756.5	688.3	699.8	761.3	847.0	979.6	1066	1069	1012	879.5	734.5	631.3	549.4	493.5	500.7	512.5	345.0	256.4	236.0	349.4	645.0	2866	9999.9	9999.9	2867	42.57	21.93	14.21	10.30	7.468	6.315	4.953	4.131	3.818	3.454	3.144	3.196	2.873	2.902	3.247	3.481	4.001	4.347	4.636	4.471	4.198	4.628	4.237	3.771	3.700	3.349	3.597	3.526	3.635	3.730	3.843	4.215	4.490	4.696	4.555	4.963	5.006	5.020	5.362	5.673	5.706	5.444	5.198	4.924	4.638	4.409	4.278
365.0	543.0	861.5	1082	1062	920.3	790.5	730.8	723.9	775.7	861.0	966.5	1041	1045	987.8	869.8	749.8	658.2	585.1	523.6	497.2	531.9	467.1	311.4	246.9	224.0	256.4	728.7	3981	9999.9	9999.9	396.8	36.08	18.76	13.04	9.403	7.045	5.847	4.822	4.178	4.044	3.283	3.186	2.808	3.080	3.108	3.629	3.713	4.490	4.620	4.356	4.053	4.364	4.289	4.040	3.891	3.566	3.992	3.870	3.744	3.880	4.159	4.277	4.353	4.680	4.669	5.016	5.144	5.326	5.438	5.154	5.389	5.297	5.500	5.037	4.688	4.362	4.599
370.0	555.3	813.5	1028	1018	924.2	821.2	768.0	769.6	799.7	875.9	963.4	1014	1016	964.0	861.2	761.8	690.8	633.2	581.3	542.9	519.8	531.2	450.5	316.4	245.0	205.2	272.8	982.5	4168	9999.9	9999.9	8649	37.70	19.68	13.14	9.111	6.985	5.680	4.907	4.434	3.739	3.426	3.229	3.182	3.209	3.540	3.674	4.251	4.394	4.217	4.045	4.483	4.378	4.153	3.953	3.801	4.066	4.058	3.824	4.070	4.285	4.282	4.470	4.720	4.787	4.834	4.953	5.210	5.235	5.031	5.183	5.161	5.273	4.985	4.633	4.759	4.750
375.0	523.2	776.8	980.4	1011	952.9	872.2	812.0	809.1	829.9	885.7	959.7	992.8	985.7	943.8	852.7	770.5	722.3	679.2	637.5	595.0	552.4	530.0	539.1	448.4	305.2	236.1	206.5	328.5	1013	2519	9999.9	9999.9	2825	42.63	18.80	12.87	9.135	7.196	5.794	4.781	4.151	3.927	3.570	3.319	3.382	3.553	3.772	4.491	4.187	4.041	3.932	4.458	4.667	4.210	4.020	3.794	3.970	4.029	3.943	4.293	4.573	4.460	4.560	4.509	4.858	5.072	5.010	4.828	5.028	4.985	5.102	5.050	5.230	4.799	4.847	4.754	4.802
380.0	496.0	741.2	963.3	1005	967.5	919.2	842.3	831.8	830.5	893.5	952.5	983.7	970.6	921.4	848.2	773.8	738.5	704.0	669.0	631.9	589.1	548.4	533.2	533.9	386.1	278.5	219.6	207.2	328.6	643.1	2958	9999.9	9999.9	2450	34.81	17.37	11.95	8.855	6.557	5.523	4.683	4.125	3.756	3.470	3.378	3.885	3.764	4.202	4.276	3.853	4.026	4.614	4.739	4.429	4.185	4.131	4.291	4.436	4.149	4.195	4.746	4.593	4.611	4.639	4.687	4.735	4.875	4.820	4.778	5.056	5.142	4.870	5.029	4.885	5.133	4.943	4.705
385.0	481.3	750.7	957.0	989.5	967.1	920.8	866.4	853.0	853.8	895.8	947.1	961.4	949.5	906.8	839.5	777.2	747.6	720.5	692.3	656.2	621.0	579.1	539.4	542.0	482.5	337.0	255.4	209.1	198.6	241.0	741.6	3883	9999.9	9999.9	1811	28.42	15.16	11.02	7.718	6.320	5.353	4.686	4.122	3.749	3.784	3.755	3.926	4.285	4.246	3.872	4.103	4.622	4.540	4.629	4.017	4.254	4.355	4.380	4.152	4.427	4.446	4.346	4.846	4.699	4.673	4.751	4.813	4.727	4.590	4.909	4.905	4.870	4.969	4.826	4.687	4.941	4.944
390.0	472.7	716.3	933.4	981.4	963.0	944.8	898.4	882.5	870.3	900.6	934.1	949.2	928.6	890.6	837.7	777.2	753.1	733.2	708.0	683.0	650.8	615.0	572.5	537.7	523.2	448.0	324.4	253.0	208.6	184.1	265.5	950.7	4058	9999.9	9999.9	6843	30.64	15.92	10.67	8.267	6.218	5.414	4.504	4.102	4.140	3.882	4.180	4.414	4.314	3.998	4.065	4.651	4.666	4.513	4.343	4.405	4.605	4.468	4.397	4.496	4.269	4.403	4.735	4.529	4.828	4.847	4.677	4.752	4.571	4.763	4.928	5.099	4.763	4.986	4.991	5.012	4.974
395.0	493.6	714.7	902.7	966.8	963.1	950.6	918.3	905.3	897.7	907.1	927.7	936.7	911.2	874.1	820.2	777.2	750.7	734.7	722.1	702.5	677.2	646.7	610.0	561.0	526.2	508.6	429.5	316.6	258.0	211.2	192.3	312.2	980.5	2474	9999.9	9999.9	2374	36.34	15.40	11.60	8.378	6.665	5.130	4.725	4.484	4.460	4.288	4.381	4.474	4.125	3.967	4.694	4.651	4.889	4.596	4.641	4.813	4.876	4.668	4.792	4.523	4.612	4.680	4.424	4.678	4.733	4.678	4.695	4.686	4.668	4.918	5.026	4.625	4.774	4.770	4.983	5.107
400.0	484.8	730.7	880.4	955.4	974.0	961.2	935.0	918.8	899.6	904.4	917.1	927.5	898.5	860.5	807.3	771.8	745.0	735.7	723.3	707.8	687.2	666.9	634.3	589.3	539.7	509.3	491.2	390.3	298.4	245.9	199.1	187.5	308.4	619.5	2748	9999.9	9999.9	2133	29.38	13.99	10.38	8.119	5.999	4.975	4.793	4.704	4.266	4.535	4.591	4.100	3.993	4.704	4.713	4.683	4.726	4.661	4.707	4.770	4.395	4.993	4.358	4.860	4.493	4.501	4.907	4.484	4.608	4.559	4.742	4.753	4.668	4.839	4.746	4.536	4.751	4.549	5.066
405.0	486.2	705.6	870.8	951.5	970.2	977.4	928.1	920.9	888.8	896.3	913.2	902.2	888.4	841.9	795.3	755.1	732.6	726.2	713.2	710.0	693.0	670.3	645.9	607.4	556.8	510.6	495.9	456.8	345.2	277.1	222.6	181.0	172.3	215.1	671.6	3329	9999.9	9999.9	1645	23.98	12.54	9.383	6.944	5.700	5.204	4.831	4.364	4.877	4.654	4.185	4.251	4.624	4.798	4.772	4.476	4.560	4.712	5.089	4.587	4.548	4.613	4.778	4.617	4.412	4.597	4.536	4.634	4.450	4.684	4.469	4.687	4.602	4.613	4.763	4.681	4.515	4.793
410.0	464.9	685.3	860.0	932.1	961.9	955.6	928.3	920.2	898.6	899.8	901.4	886.7	859.7	820.3	771.3	732.5	717.6	704.8	698.8	692.6	679.5	669.2	650.2	618.3	576.1	527.2	491.2	474.8	424.1	333.9	258.4	204.2	163.6	140.4	217.7	797.1	3314	9999.9	9999.9	6414	27.55	13.33	8.788	7.209	5.663	5.464	4.650	4.896	4.582	4.280	4.112	4.647	4.899	4.785	4.634	4.524	4.791	4.894	4.670	4.827	4.755	4.735	4.697	4.639	4.428	4.541	4.491	4.459	4.499	4.543	4.457	4.807	4.515	4.420	4.638	4.483	4.607
415.0	466.5	674.6	810.3	908.3	946.1	948.4	920.6	905.0	893.9	888.5	877.1	867.8	831.1	791.8	739.6	703.2	687.4	676.8	674.2	666.5	663.6	655.0	643.2	619.4	581.4	540.6	500.1	465.5	449.8	407.4	302.6	236.0	183.7	140.8	131.6	237.9	784.1	2359	8481	9999.9	8977	34.56	13.12	9.073	6.826	6.002	5.117	4.902	4.872	4.599	4.217	4.886	4.766	4.708	4.786	4.388	4.860	4.665	4.724	4.762	4.583	4.670	4.840	4.645	4.435	4.324	4.446	4.009	4.388	4.487	4.608	4.628	4.060	4.280	4.361	4.391	4.401
