Sample:	'1
File name:	T2025041715по╪рдоге.FD3
Run date:	'15:55:20, 04/21/2025
Operator:	Administrator
Comment:	'

Instrument
Model:	F-2700 FL Spectrophotometer
Serial number:	23B8-004
ROM Version:	4J14000 07

Instrument parameters
Measurement type:	3-D scan
Data mode:	Fluorescence
EX  Start WL:	220.0 nm
EX  End WL:	600.0 nm
EX Sampling interval:	5.0 nm
EM  Start WL:	230.0 nm
EM  End WL:	650.0 nm
EM Sampling interval:	5.0 nm
Scan speed:	12000 nm/min
EX Slit:	5.0 nm
EM Slit:	5.0 nm
PMT Voltage:	700 V
Response:	Auto 
Corrected spectra:	Off
Contour interval:	50.000

Peak integration
Integration method:	Rectangular
Sensitivity:	1
Threshold:	1.000

Peaks
No.	ApexEX/EM(nm)	Height(Data)
1	225.0/575.0	67.61
2	225.0/610.0	52.32
3	225.0/625.0	52.68
4	230.0/340.0	1165
5	230.0/500.0	283.4
6	235.0/510.0	242.7
7	240.0/265.0	348.8
8	240.0/525.0	207.4
9	245.0/270.0	345.9
10	245.0/535.0	186.6
11	250.0/275.0	434.6
12	250.0/550.0	150.0
13	255.0/280.0	541.6
14	255.0/560.0	129.9
15	260.0/285.0	548.0
16	260.0/575.0	101.8
17	265.0/585.0	99.59
18	270.0/300.0	918.5
19	270.0/595.0	88.18
20	275.0/305.0	1196
21	275.0/610.0	89.17
22	280.0/310.0	1146
23	280.0/620.0	78.82
24	285.0/315.0	1077
25	285.0/635.0	58.78
26	290.0/325.0	947.2
27	315.0/355.0	352.9
28	320.0/360.0	327.3
29	325.0/370.0	302.6
30	330.0/375.0	297.0
31	335.0/380.0	295.0
32	340.0/390.0	263.8
33	345.0/395.0	249.6
34	350.0/400.0	250.2
35	360.0/415.0	212.1
36	365.0/420.0	208.6
37	430.0/505.0	28.22
38	440.0/520.0	19.87
39	445.0/525.0	16.84
40	460.0/340.0	3.782
41	475.0/350.0	3.408
42	505.0/275.0	3.026
43	510.0/280.0	3.328
44	520.0/285.0	3.701
45	530.0/290.0	3.652
46	540.0/295.0	4.511
47	545.0/300.0	5.517
48	555.0/305.0	6.299
49	560.0/310.0	6.261
50	575.0/315.0	6.132
51	580.0/320.0	6.017
52	585.0/325.0	5.764

Data points
	220.0	225.0	230.0	235.0	240.0	245.0	250.0	255.0	260.0	265.0	270.0	275.0	280.0	285.0	290.0	295.0	300.0	305.0	310.0	315.0	320.0	325.0	330.0	335.0	340.0	345.0	350.0	355.0	360.0	365.0	370.0	375.0	380.0	385.0	390.0	395.0	400.0	405.0	410.0	415.0	420.0	425.0	430.0	435.0	440.0	445.0	450.0	455.0	460.0	465.0	470.0	475.0	480.0	485.0	490.0	495.0	500.0	505.0	510.0	515.0	520.0	525.0	530.0	535.0	540.0	545.0	550.0	555.0	560.0	565.0	570.0	575.0	580.0	585.0	590.0	595.0	600.0
230.0	55.43	679.3	2161	871.5	41.86	7.617	6.297	5.345	4.697	4.204	3.771	3.246	2.995	2.781	2.316	1.889	1.750	1.531	1.332	1.279	1.156	1.110	1.070	0.998	0.979	0.891	0.915	0.766	0.764	0.807	0.723	0.729	0.742	0.712	0.686	0.609	0.598	0.596	0.587	0.594	0.588	0.670	0.769	0.621	0.558	0.492	0.990	3.924	8.008	6.667	2.879	0.801	0.413	0.382	0.373	0.372	0.389	0.356	0.367	0.367	0.377	0.342	0.388	0.365	0.363	0.361	0.357	0.400	0.351	0.342	0.373	0.342	0.334	0.367	0.350	0.364	0.348
235.0	123.4	209.0	1175	2456	578.6	70.02	8.635	6.079	4.633	4.441	4.401	3.764	3.095	2.429	2.365	2.214	1.799	1.924	1.445	1.261	1.075	1.169	1.047	0.874	1.076	1.059	0.935	0.903	0.824	0.839	0.775	0.778	0.810	0.707	0.792	0.592	0.720	0.559	0.654	0.611	0.543	0.601	0.705	0.695	0.793	0.622	0.593	1.304	2.961	5.059	7.832	9.070	5.183	1.534	0.552	0.431	0.380	0.417	0.381	0.404	0.435	0.371	0.372	0.395	0.359	0.345	0.333	0.418	0.337	0.345	0.317	0.372	0.372	0.375	0.355	0.389	0.365
240.0	162.7	153.7	339.5	1817	2468	461.9	41.03	7.887	5.584	4.332	4.618	4.044	3.152	2.961	2.479	2.187	1.808	1.706	1.424	1.161	1.093	1.237	1.161	0.978	0.991	0.976	0.931	0.956	0.817	0.838	0.859	0.769	0.721	0.819	0.702	0.566	0.667	0.620	0.625	0.541	0.565	0.569	0.557	0.571	0.928	0.868	0.688	0.632	1.036	1.664	3.904	9.763	14.19	10.79	4.880	1.106	0.464	0.414	0.416	0.412	0.346	0.352	0.380	0.404	0.349	0.327	0.332	0.391	0.331	0.386	0.312	0.372	0.436	0.362	0.387	0.400	0.400
245.0	109.4	221.7	160.6	583.8	2286	2671	362.4	21.18	6.749	5.943	5.266	3.846	3.704	3.156	2.510	2.435	2.052	1.747	1.435	1.435	1.219	1.186	1.139	0.960	0.954	0.863	0.946	0.864	0.917	0.927	0.794	0.847	0.758	0.688	0.642	0.604	0.669	0.663	0.557	0.616	0.663	0.527	0.577	0.502	0.739	0.740	1.010	0.904	0.748	0.684	1.204	3.159	8.240	14.09	17.29	10.46	3.768	0.825	0.404	0.463	0.399	0.370	0.450	0.422	0.356	0.366	0.386	0.349	0.378	0.411	0.373	0.363	0.395	0.350	0.374	0.453	0.393
250.0	60.23	151.5	252.0	244.0	693.7	2162	3095	1257	94.60	7.345	5.997	5.109	4.059	3.455	2.609	2.275	2.170	1.706	1.449	1.693	1.421	1.221	1.215	1.055	0.968	0.998	0.993	0.923	0.928	0.899	0.813	0.780	0.710	0.721	0.715	0.677	0.663	0.660	0.658	0.589	0.641	0.617	0.583	0.573	0.694	0.561	0.671	0.923	1.135	0.986	0.840	1.102	2.299	4.436	8.755	13.57	18.84	18.18	11.88	4.312	0.913	0.408	0.434	0.461	0.409	0.370	0.390	0.418	0.452	0.394	0.439	0.410	0.413	0.399	0.427	0.392	0.427
255.0	42.91	58.21	153.7	321.7	262.5	536.2	1897	4659	1886	112.4	9.119	7.004	4.747	4.166	3.281	2.652	2.326	1.928	1.604	1.688	1.444	1.300	1.223	1.128	1.092	1.017	0.950	0.887	0.945	0.997	0.991	0.801	0.744	0.858	0.675	0.662	0.562	0.621	0.584	0.597	0.610	0.642	0.704	0.640	0.577	0.545	0.578	0.590	0.695	0.872	1.314	1.481	1.243	1.361	2.357	3.568	5.959	13.38	27.82	29.71	19.93	5.716	0.870	0.529	0.443	0.486	0.360	0.396	0.401	0.415	0.439	0.544	0.418	0.352	0.408	0.404	0.470
260.0	46.89	39.12	64.04	253.8	325.0	190.7	538.5	3127	5978	1453	62.36	9.046	5.718	5.550	3.703	2.895	2.611	2.069	1.620	1.735	1.638	1.235	1.125	1.111	1.114	0.948	1.019	1.035	1.016	0.995	1.010	0.747	0.750	0.862	0.741	0.711	0.627	0.630	0.605	0.648	0.652	0.606	0.660	0.614	0.590	0.542	0.532	0.565	0.580	0.622	0.943	1.531	2.123	1.362	1.046	1.233	1.751	3.765	10.35	23.21	39.51	29.33	17.13	3.740	0.569	0.508	0.422	0.455	0.369	0.470	0.432	0.512	0.386	0.406	0.436	0.443	0.569
265.0	48.84	36.29	33.66	115.8	348.8	269.2	166.4	945.5	4966	6124	1070	24.94	7.705	6.748	4.591	3.436	2.705	2.280	2.095	1.716	1.645	1.532	1.312	1.280	1.106	1.051	1.079	1.003	1.157	0.942	1.085	0.897	0.898	0.760	0.753	0.755	0.787	0.655	0.773	0.616	0.665	0.632	0.554	0.639	0.590	0.575	0.506	0.540	0.490	0.466	0.504	0.849	1.740	2.003	1.771	0.999	0.820	1.321	2.825	6.521	17.27	35.62	51.42	28.09	12.56	1.728	0.638	0.534	0.443	0.437	0.453	0.491	0.493	0.402	0.482	0.433	0.504
270.0	67.23	48.24	35.89	51.27	152.8	345.9	299.6	272.9	1429	4430	6660	2607	69.69	9.208	6.311	4.182	3.583	2.729	2.274	2.053	1.833	1.595	1.521	1.334	1.204	1.239	1.201	1.108	1.067	1.044	1.015	1.011	0.888	0.851	0.858	0.804	0.809	0.705	0.711	0.708	0.674	0.639	0.616	0.619	0.668	0.660	0.626	0.551	0.580	0.505	0.483	0.548	0.838	1.157	1.704	2.120	2.018	1.472	1.221	1.981	4.422	9.758	20.42	33.30	46.85	44.83	19.07	9.577	1.693	0.521	0.518	0.494	0.525	0.503	0.490	0.462	0.497
275.0	121.4	95.06	77.93	52.31	59.59	141.3	434.6	341.3	371.9	1067	3368	9348	1289	78.48	9.203	6.390	4.372	3.451	2.649	2.600	2.050	1.734	1.547	1.329	1.575	1.363	1.077	0.994	1.212	1.084	1.076	1.146	1.033	0.942	0.762	0.895	0.772	0.833	0.784	0.805	0.656	0.729	0.670	0.683	0.729	0.753	0.716	0.698	0.708	0.611	0.484	0.603	0.640	0.638	0.838	1.151	1.989	3.026	2.574	1.494	1.596	2.628	5.134	8.079	12.68	24.48	53.03	73.45	29.06	12.73	1.325	0.599	0.544	0.506	0.579	0.560	0.574
280.0	153.2	154.6	128.4	83.37	49.20	65.09	242.7	541.6	278.9	296.4	910.1	5345	9535	1011	40.37	8.157	5.873	3.865	3.545	2.991	2.501	2.118	1.718	1.388	1.608	1.444	1.150	1.151	1.280	1.168	1.058	1.116	1.017	1.078	1.024	0.942	0.809	0.811	0.793	0.808	0.728	0.787	0.719	0.848	0.770	0.846	0.880	0.883	0.779	0.657	0.587	0.654	0.659	0.550	0.677	0.747	1.056	2.061	3.328	3.260	1.949	1.269	1.883	2.434	3.457	6.322	16.56	42.41	70.76	76.21	25.18	7.245	0.827	0.624	0.575	0.612	0.569
285.0	225.5	218.2	184.4	121.8	63.16	55.30	108.3	413.2	548.0	203.1	292.4	1508	7084	8248	681.7	17.23	7.016	4.781	3.895	2.941	2.861	2.170	1.836	1.656	1.572	1.444	1.360	1.288	1.169	1.224	1.011	1.183	1.055	1.180	1.089	1.013	0.975	0.905	0.809	0.790	0.858	0.867	0.764	0.930	0.832	1.055	0.915	1.057	1.049	0.833	0.679	0.666	0.680	0.639	0.643	0.670	0.733	1.064	1.775	2.652	3.701	2.564	1.419	1.328	1.522	2.230	4.483	10.94	25.73	59.00	84.47	34.11	19.07	2.968	0.594	0.760	0.680
290.0	293.6	307.0	262.2	168.0	96.86	72.43	83.37	185.0	480.6	565.0	245.2	487.8	1943	5662	7265	2260	38.88	7.607	5.205	3.803	3.108	2.529	2.180	1.803	1.769	1.692	1.422	1.467	1.304	1.338	1.287	1.193	1.126	1.142	1.184	1.159	1.115	1.075	0.990	0.840	0.859	0.912	0.948	0.954	0.928	1.192	1.046	1.288	1.134	1.030	0.826	0.842	0.842	0.652	0.798	0.784	0.772	0.855	1.089	1.388	2.269	3.105	3.652	2.932	2.004	1.618	2.052	3.540	6.885	15.06	29.18	41.38	61.97	54.14	44.41	13.08	3.150
295.0	323.4	390.4	343.8	225.8	132.7	105.1	114.3	146.3	261.2	568.4	737.3	400.8	634.2	1421	3458	9022	727.5	43.36	7.305	5.260	3.942	2.810	2.499	2.162	2.114	1.705	1.476	1.477	1.359	1.505	1.464	1.418	1.220	1.278	1.230	1.136	1.315	1.268	1.102	1.030	0.919	0.933	1.101	0.965	1.122	1.336	1.255	1.512	1.352	1.137	1.035	1.039	0.944	0.742	0.940	0.818	0.931	0.912	1.085	1.194	1.487	1.746	2.535	3.627	4.511	3.331	2.225	2.257	2.871	4.608	7.678	10.15	15.66	25.05	59.79	88.63	34.96
300.0	372.0	434.1	411.9	277.0	176.1	146.0	165.5	203.7	271.5	444.0	918.5	751.0	465.3	541.8	983.6	5141	8371	591.3	22.61	6.576	4.969	3.465	3.181	2.470	2.137	1.698	1.644	1.700	1.590	1.514	1.405	1.333	1.245	1.143	1.285	1.320	1.401	1.366	1.151	0.978	1.005	1.001	1.164	1.065	1.281	1.361	1.427	1.609	1.520	1.341	1.102	1.248	1.239	1.121	0.992	1.059	1.084	1.253	1.348	1.455	1.589	1.754	2.177	2.622	4.051	5.517	5.158	3.101	2.381	2.766	3.435	3.797	4.823	6.800	17.52	43.65	77.55
305.0	417.9	501.5	490.3	346.3	230.1	205.3	241.9	310.4	389.4	526.3	832.6	1196	722.9	482.5	480.4	1503	6595	5221	423.3	10.66	5.865	4.393	3.481	2.782	2.339	1.809	1.820	1.920	1.754	1.714	1.342	1.288	1.208	1.270	1.457	1.321	1.514	1.273	1.226	1.184	1.093	0.976	1.164	1.286	1.328	1.518	1.617	1.710	1.759	1.500	1.267	1.430	1.339	1.283	1.164	1.239	1.481	1.443	1.797	1.857	2.016	2.133	2.654	3.044	3.565	4.549	6.244	6.299	4.728	3.446	3.232	2.770	2.913	3.240	5.550	11.55	26.25
310.0	446.5	572.8	553.4	394.8	284.0	269.2	309.2	385.1	475.5	603.3	781.5	1077	1146	709.8	456.7	567.6	1906	4885	5740	1571	25.91	5.875	4.546	3.366	2.645	2.411	2.348	2.134	1.905	1.882	1.498	1.464	1.424	1.317	1.480	1.489	1.505	1.365	1.271	1.211	1.102	1.111	1.165	1.304	1.400	1.537	1.643	1.934	1.905	1.727	1.483	1.542	1.524	1.432	1.386	1.532	1.685	1.780	2.085	2.167	2.493	2.695	3.002	3.287	3.718	3.987	4.693	5.664	6.261	5.891	4.807	3.451	2.997	2.887	3.218	4.261	7.344
315.0	486.9	636.5	621.3	454.3	330.9	317.8	360.1	436.6	533.3	647.2	793.6	932.5	1050	1077	597.8	402.6	638.3	1245	3302	7531	518.5	23.67	6.270	4.509	3.238	3.005	2.509	2.426	2.190	2.148	1.603	1.502	1.589	1.345	1.474	1.512	1.551	1.252	1.359	1.290	1.219	1.174	1.302	1.314	1.580	1.714	1.972	2.088	2.018	1.812	1.720	1.677	1.748	1.586	1.729	1.785	1.904	2.074	2.165	2.319	2.832	2.812	3.150	3.586	3.939	3.943	4.222	4.793	5.058	5.364	6.116	6.132	4.497	3.284	2.654	2.844	3.414
320.0	532.1	714.7	706.5	501.8	372.1	334.2	384.6	465.1	559.6	674.0	812.5	931.7	940.7	1043	846.6	423.6	382.4	428.9	887.7	4935	6937	412.7	12.90	5.399	4.056	3.194	2.662	2.437	2.355	2.149	1.790	1.502	1.601	1.547	1.500	1.549	1.537	1.362	1.380	1.372	1.313	1.303	1.391	1.330	1.673	1.927	2.058	2.521	2.362	2.035	1.903	1.841	1.877	1.665	1.831	1.823	2.012	2.117	2.415	2.500	2.784	2.868	3.191	3.648	3.933	4.162	4.334	4.578	4.715	4.793	5.108	5.845	6.017	4.802	3.260	2.853	2.632
325.0	593.7	828.9	829.2	603.3	402.2	353.0	392.4	473.5	562.6	668.3	800.7	911.4	909.3	876.4	947.2	563.6	339.4	256.7	269.3	1396	6399	3866	59.30	8.231	5.309	4.090	3.090	2.751	2.375	2.403	1.859	1.709	1.623	1.493	1.424	1.491	1.397	1.437	1.332	1.242	1.309	1.347	1.519	1.445	1.890	2.052	2.231	2.910	2.612	2.400	2.084	2.077	1.883	1.773	1.919	1.955	2.195	2.256	2.343	2.645	2.745	2.833	3.236	3.728	3.956	3.973	4.033	4.478	4.812	4.675	4.680	4.811	5.154	5.764	4.689	3.539	2.665
330.0	629.6	928.2	984.5	753.5	498.1	399.0	397.0	459.8	543.3	638.3	772.8	868.9	872.9	791.5	756.2	698.4	456.5	240.8	153.8	371.6	1820	4390	4828	1168	18.72	5.455	4.028	3.108	2.733	2.448	2.018	1.847	1.673	1.627	1.503	1.475	1.511	1.383	1.413	1.226	1.372	1.388	1.495	1.509	1.842	2.256	2.404	3.007	3.302	2.884	2.571	2.499	2.351	2.036	2.071	2.095	2.221	2.227	2.423	2.552	2.660	2.799	3.083	3.452	3.744	3.930	4.150	4.442	4.377	4.540	4.376	4.077	4.193	4.672	4.590	4.671	4.083
335.0	676.6	1013	1117	941.6	648.4	456.9	424.0	464.4	539.8	623.1	739.9	837.3	843.5	769.8	669.9	579.7	607.0	352.0	161.2	167.6	463.2	1057	3437	6624	412.4	18.03	5.349	4.106	3.536	2.642	2.116	2.070	2.027	1.800	1.676	1.727	1.529	1.521	1.370	1.389	1.417	1.448	1.487	1.559	1.934	2.349	2.680	3.348	3.560	3.139	2.903	3.032	2.932	2.498	2.315	2.250	2.369	2.172	2.393	2.478	2.562	2.802	3.060	3.475	3.618	3.805	3.863	4.153	4.342	4.368	4.120	4.059	4.054	3.795	3.714	3.573	4.147
340.0	683.5	1010	1165	983.2	695.5	489.4	436.0	461.7	518.5	592.2	701.0	793.0	809.7	737.1	642.6	514.1	540.4	490.7	213.2	138.3	174.6	285.3	933.7	5001	5645	334.6	8.872	5.305	3.840	3.311	2.352	2.156	1.992	1.877	1.639	1.722	1.462	1.358	1.381	1.466	1.387	1.449	1.543	1.562	1.821	2.275	2.872	3.383	3.782	3.409	2.937	3.272	3.170	2.587	2.363	2.210	2.161	2.203	2.413	2.536	2.509	2.889	3.070	3.278	3.448	3.713	3.684	4.009	4.354	4.209	4.294	3.956	3.857	3.798	3.369	3.361	3.188
345.0	665.2	989.4	1157	988.6	696.9	496.2	433.1	435.6	496.3	561.8	660.5	737.2	763.2	710.4	608.0	481.1	435.2	488.8	325.4	153.2	122.2	123.9	253.5	1498	5900	3203	49.58	7.173	4.650	3.632	2.814	2.391	1.985	1.929	1.788	1.746	1.480	1.386	1.393	1.409	1.288	1.382	1.482	1.477	1.691	2.262	2.766	3.309	3.511	3.351	3.114	3.405	3.108	2.571	2.325	2.158	2.419	2.214	2.168	2.420	2.413	2.742	2.724	3.307	3.416	3.417	3.478	3.760	3.842	3.946	4.109	3.692	3.737	3.709	3.274	3.337	3.147
350.0	611.9	880.0	1071	979.0	715.9	517.6	428.4	430.2	476.3	530.7	606.5	673.4	693.3	657.5	573.6	468.0	394.6	374.5	380.9	266.7	142.1	106.2	116.4	378.1	1757	4156	4160	977.2	15.28	4.730	3.287	2.692	2.328	1.958	1.697	1.680	1.452	1.473	1.249	1.251	1.273	1.230	1.328	1.388	1.672	2.121	2.472	3.124	3.129	3.090	3.007	3.408	3.039	2.772	2.425	2.122	2.099	2.195	2.249	2.430	2.292	2.555	2.705	2.983	3.216	3.202	3.225	3.524	3.595	3.578	3.591	3.574	3.433	3.395	3.054	3.169	2.788
355.0	539.1	802.7	986.3	924.0	706.3	530.2	443.2	433.5	458.3	504.7	573.0	627.1	634.3	612.6	543.7	457.3	390.7	334.6	307.3	352.9	241.6	128.4	105.9	142.6	430.4	1002	3283	5924	373.4	16.15	4.500	3.407	2.596	2.162	1.850	1.548	1.460	1.470	1.357	1.253	1.142	1.191	1.219	1.475	1.587	2.030	2.247	2.644	2.902	2.918	2.730	3.339	3.072	2.726	2.643	2.248	2.093	2.236	2.330	2.360	2.281	2.479	2.756	2.923	2.961	2.920	2.918	3.155	3.536	3.223	3.435	3.547	3.122	3.441	3.169	3.024	2.991
360.0	518.9	765.3	920.6	870.7	694.8	541.4	451.3	448.1	464.4	491.5	546.1	589.2	595.4	574.3	521.1	449.0	391.8	330.7	282.0	308.9	327.3	181.0	117.5	104.1	145.0	259.5	903.7	4842	5152	310.4	7.885	4.551	3.337	2.473	1.851	1.692	1.661	1.461	1.378	1.214	1.152	1.356	1.251	1.398	1.568	1.868	2.085	2.537	2.699	2.779	2.595	3.005	2.975	2.522	2.608	2.258	2.001	2.104	2.241	2.339	2.281	2.333	2.524	2.852	2.802	2.798	3.036	2.883	3.186	3.112	3.230	3.341	3.117	3.344	3.024	3.114	2.835
365.0	476.5	687.5	822.1	803.0	683.2	539.8	457.0	455.5	451.2	486.0	520.2	561.9	564.7	552.0	501.7	446.3	390.5	339.3	289.5	272.0	327.3	272.4	147.5	109.2	95.14	102.5	234.4	1505	5816	3048	45.69	5.847	3.772	2.953	2.071	1.911	1.691	1.523	1.470	1.272	1.165	1.272	1.215	1.328	1.472	1.805	2.007	2.307	2.559	2.467	2.448	2.898	2.867	2.675	2.417	2.036	2.047	2.167	2.165	2.305	2.347	2.512	2.572	2.726	2.776	2.617	2.775	2.806	2.956	3.004	3.193	3.132	2.899	3.057	3.035	2.721	2.743
370.0	438.9	640.2	766.9	755.5	658.4	545.7	469.1	453.8	455.5	480.0	508.9	531.4	539.8	520.6	486.1	433.5	392.5	349.5	306.5	275.5	273.6	302.6	245.1	146.6	105.4	85.32	97.05	369.8	1772	4513	4155	913.4	14.18	3.740	2.664	2.218	1.864	1.630	1.484	1.369	1.186	1.263	1.284	1.318	1.474	1.695	1.848	2.229	2.425	2.298	2.214	2.806	2.753	2.659	2.499	2.149	2.147	2.336	2.329	2.259	2.347	2.456	2.522	2.657	2.747	2.552	2.668	2.678	2.736	2.896	3.053	2.916	2.802	3.102	2.928	2.783	2.909
375.0	429.2	598.4	703.3	732.7	642.9	553.7	486.5	457.7	460.1	483.4	502.4	510.7	512.2	493.9	473.1	423.5	392.1	360.5	324.7	294.7	269.6	259.8	297.0	237.8	136.9	101.1	83.90	127.6	427.4	1096	3505	5706	324.9	13.69	3.643	2.823	2.100	1.781	1.475	1.391	1.345	1.368	1.372	1.320	1.439	1.681	1.667	2.057	2.314	2.095	2.208	2.537	2.753	2.523	2.510	2.248	2.310	2.396	2.448	2.582	2.477	2.413	2.369	2.641	2.545	2.566	2.553	2.719	3.006	2.725	3.042	2.734	2.869	3.186	2.989	2.774	2.936
380.0	408.8	565.4	671.0	678.5	633.0	556.3	488.6	476.4	469.0	479.6	496.2	505.6	497.7	484.2	456.2	419.2	391.0	363.7	336.5	306.8	276.0	256.2	267.1	295.0	187.0	119.3	92.70	84.68	136.0	274.6	980.5	4713	4741	259.0	6.419	3.411	2.534	2.006	1.709	1.685	1.354	1.357	1.347	1.283	1.342	1.612	1.607	2.105	2.225	2.307	2.135	2.570	2.750	2.609	2.496	2.381	2.273	2.365	2.437	2.386	2.488	2.451	2.425	2.465	2.568	2.477	2.782	2.471	2.837	2.813	2.966	2.721	2.695	3.047	2.771	2.876	3.094
385.0	406.7	530.0	648.8	649.2	616.2	551.5	508.5	485.4	476.0	480.6	487.1	490.1	487.7	472.9	447.7	413.4	389.6	369.1	342.8	318.0	288.8	264.6	248.8	279.0	253.8	149.8	109.5	86.04	82.49	98.81	246.9	1448	5146	2575	37.99	4.771	2.945	2.350	1.741	1.759	1.428	1.395	1.283	1.344	1.458	1.714	1.649	2.093	1.941	2.238	2.001	2.491	2.624	2.504	2.477	2.347	2.397	2.384	2.290	2.391	2.474	2.441	2.620	2.608	2.460	2.398	2.712	2.783	2.747	2.726	2.738	2.713	2.691	2.852	2.647	2.928	2.849
390.0	393.3	511.2	604.7	638.5	614.0	558.2	507.9	497.6	480.4	484.3	477.3	484.8	477.5	460.0	438.3	407.2	384.9	368.7	347.1	325.8	300.4	277.6	255.4	247.5	263.8	226.8	144.8	105.3	85.44	73.42	92.31	350.6	1523	3415	3319	809.8	12.31	3.099	2.328	1.924	1.538	1.588	1.392	1.458	1.445	1.573	1.627	1.957	1.924	2.027	1.961	2.402	2.511	2.462	2.456	2.359	2.627	2.410	2.405	2.569	2.370	2.500	2.486	2.511	2.524	2.502	2.542	2.570	2.603	2.543	2.597	2.525	2.679	2.772	2.707	2.799	2.659
395.0	370.1	502.2	602.8	624.4	601.2	553.4	517.9	506.8	488.1	485.4	478.6	474.8	462.7	451.2	430.5	396.9	380.8	365.0	350.0	331.1	313.2	290.7	268.0	245.5	235.7	249.6	218.1	137.0	104.2	83.95	71.48	113.4	363.5	821.5	2534	4676	277.8	14.32	3.149	2.312	1.949	1.780	1.569	1.448	1.413	1.634	1.682	1.995	2.046	2.017	1.807	2.288	2.590	2.502	2.416	2.397	2.550	2.662	2.456	2.553	2.396	2.416	2.354	2.396	2.486	2.633	2.503	2.489	2.445	2.427	2.443	2.665	2.672	2.556	2.616	2.806	2.857
400.0	377.6	502.1	595.9	606.6	585.6	554.5	527.2	510.4	495.8	480.9	475.6	471.9	448.7	442.3	424.4	393.1	370.6	360.5	348.4	329.4	312.9	294.2	279.5	252.3	236.0	229.1	250.2	182.7	122.5	97.32	77.30	68.59	111.3	204.8	685.8	3483	3844	243.1	7.178	2.844	2.178	1.811	1.606	1.553	1.524	1.783	1.652	1.919	2.034	2.075	1.955	2.334	2.538	2.519	2.663	2.309	2.628	2.492	2.520	2.579	2.637	2.552	2.467	2.450	2.442	2.520	2.575	2.426	2.436	2.444	2.397	2.525	2.508	2.510	2.447	2.707	2.875
405.0	388.9	484.6	578.7	604.6	580.4	559.6	534.4	513.7	501.6	490.8	472.3	466.9	445.8	434.0	411.8	385.3	366.7	355.1	346.4	326.1	313.8	296.6	281.4	259.4	241.8	223.9	236.3	229.4	152.9	112.3	86.85	67.39	61.78	72.29	172.4	1007	3657	2249	35.69	4.235	2.603	1.935	1.763	1.665	1.646	1.777	1.557	1.859	1.893	1.817	1.844	2.329	2.525	2.594	2.476	2.328	2.496	2.572	2.475	2.532	2.685	2.487	2.478	2.447	2.419	2.564	2.404	2.466	2.391	2.480	2.363	2.426	2.602	2.456	2.640	2.653	2.649
410.0	356.3	477.4	558.6	596.0	583.0	561.5	533.1	513.0	499.6	487.4	474.7	465.0	442.6	429.1	400.1	375.1	357.8	346.5	335.4	319.0	308.5	295.8	282.2	266.6	248.0	228.6	218.1	226.8	207.1	144.3	103.3	78.89	59.45	50.30	62.44	242.6	1025	2463	2640	777.0	12.53	2.574	1.908	1.883	1.648	1.753	1.759	1.830	1.879	1.830	1.872	2.300	2.451	2.396	2.447	2.300	2.404	2.597	2.601	2.550	2.515	2.584	2.500	2.387	2.495	2.436	2.517	2.443	2.390	2.399	2.413	2.444	2.603	2.375	2.631	2.558	2.643
