Sample:	'1
File name:	G2025062002天晟金属西排口.FD3
Run date:	'11:07:57, 06/24/2025
Operator:	Administrator
Comment:	'

Instrument
Model:	F-2700 FL Spectrophotometer
Serial number:	23B8-004
ROM Version:	4J14000 07

Instrument parameters
Measurement type:	3-D scan
Data mode:	Fluorescence
EX  Start WL:	220.0 nm
EX  End WL:	600.0 nm
EX Sampling interval:	5.0 nm
EM  Start WL:	230.0 nm
EM  End WL:	650.0 nm
EM Sampling interval:	5.0 nm
Scan speed:	12000 nm/min
EX Slit:	5.0 nm
EM Slit:	5.0 nm
PMT Voltage:	700 V
Response:	Auto 
Corrected spectra:	Off
Contour interval:	50.000

Peak integration
Integration method:	Rectangular
Sensitivity:	1
Threshold:	1.000

Peaks
No.	ApexEX/EM(nm)	Height(Data)
1	225.0/305.0	2437
2	225.0/425.0	464.9
3	230.0/505.0	267.8
4	235.0/515.0	228.9
5	240.0/525.0	196.9
6	245.0/540.0	169.8
7	250.0/415.0	468.1
8	250.0/435.0	459.0
9	250.0/550.0	141.2
10	255.0/285.0	641.6
11	255.0/560.0	121.3
12	260.0/380.0	453.7
13	260.0/575.0	126.2
14	265.0/385.0	458.8
15	265.0/590.0	136.1
16	270.0/300.0	1823
17	270.0/365.0	457.5
18	270.0/600.0	148.8
19	275.0/305.0	1818
20	275.0/610.0	122.7
21	280.0/625.0	82.92
22	300.0/335.0	433.0
23	305.0/345.0	362.7
24	310.0/350.0	305.2
25	315.0/355.0	288.0
26	320.0/360.0	284.1
27	325.0/370.0	256.2
28	330.0/375.0	252.8
29	335.0/380.0	255.2
30	345.0/395.0	207.8
31	350.0/400.0	206.3
32	360.0/415.0	162.3
33	365.0/420.0	158.8
34	375.0/435.0	120.3
35	380.0/440.0	112.2
36	395.0/305.0	3.971
37	395.0/460.0	68.68
38	410.0/480.0	37.26
39	415.0/485.0	31.59
40	425.0/500.0	22.07
41	430.0/505.0	19.02
42	440.0/520.0	13.51
43	445.0/300.0	5.701
44	445.0/525.0	11.48
45	455.0/305.0	5.652
46	455.0/540.0	7.565
47	470.0/560.0	3.753
48	505.0/275.0	3.219
49	510.0/280.0	3.821
50	520.0/285.0	4.082
51	530.0/290.0	4.786
52	535.0/270.0	45.76
53	545.0/300.0	9.028
54	550.0/305.0	9.615
55	560.0/310.0	7.603
56	570.0/315.0	5.645
57	575.0/290.0	41.48
58	585.0/325.0	4.274

Data points
	220.0	225.0	230.0	235.0	240.0	245.0	250.0	255.0	260.0	265.0	270.0	275.0	280.0	285.0	290.0	295.0	300.0	305.0	310.0	315.0	320.0	325.0	330.0	335.0	340.0	345.0	350.0	355.0	360.0	365.0	370.0	375.0	380.0	385.0	390.0	395.0	400.0	405.0	410.0	415.0	420.0	425.0	430.0	435.0	440.0	445.0	450.0	455.0	460.0	465.0	470.0	475.0	480.0	485.0	490.0	495.0	500.0	505.0	510.0	515.0	520.0	525.0	530.0	535.0	540.0	545.0	550.0	555.0	560.0	565.0	570.0	575.0	580.0	585.0	590.0	595.0	600.0
230.0	277.9	4073	5093	696.4	25.42	9.379	7.025	6.086	4.842	4.635	4.037	3.638	2.852	2.344	1.983	1.675	1.507	1.323	1.179	0.984	1.092	0.899	0.842	0.740	0.705	0.678	0.645	0.554	0.608	0.558	0.591	0.494	0.485	0.467	0.450	0.431	0.442	0.423	0.406	0.390	0.602	0.854	0.665	0.456	0.359	0.613	5.611	16.52	18.60	8.857	2.198	0.515	0.309	0.297	0.267	0.289	0.290	0.275	0.311	0.295	0.264	0.255	0.276	0.241	0.310	0.258	0.280	0.286	0.342	0.287	0.316	0.285	0.274	0.278	0.297	0.299	0.277
235.0	219.1	1198	4686	4970	545.7	35.23	9.252	7.562	5.992	5.630	4.340	3.459	3.242	2.391	2.083	1.715	1.649	1.323	1.165	1.075	1.054	0.911	0.899	0.765	0.790	0.663	0.622	0.568	0.559	0.580	0.508	0.454	0.462	0.523	0.455	0.449	0.426	0.395	0.411	0.340	0.388	0.529	0.847	0.842	0.760	0.485	1.486	4.545	9.669	15.15	18.25	14.27	4.539	0.840	0.285	0.272	0.294	0.249	0.307	0.292	0.276	0.266	0.294	0.269	0.269	0.264	0.315	0.272	0.313	0.315	0.255	0.270	0.266	0.302	0.331	0.296	0.245
240.0	293.2	381.2	1681	5975	4347	406.1	20.16	8.216	6.667	5.986	4.181	3.957	3.222	2.753	1.951	1.758	1.506	1.333	1.159	1.069	1.074	0.822	0.858	0.792	0.861	0.697	0.655	0.604	0.581	0.547	0.567	0.493	0.463	0.472	0.520	0.437	0.449	0.394	0.479	0.400	0.418	0.358	0.577	0.678	0.960	0.963	0.787	1.328	2.569	5.328	13.79	26.48	23.94	13.02	3.330	0.444	0.335	0.280	0.306	0.297	0.340	0.286	0.259	0.274	0.263	0.288	0.261	0.276	0.309	0.322	0.271	0.277	0.242	0.260	0.320	0.351	0.274
245.0	232.9	344.6	454.9	2514	7186	3513	288.7	12.27	8.119	6.653	4.261	4.342	3.715	3.121	2.281	1.636	1.708	1.526	1.006	1.320	1.370	1.009	0.870	0.778	0.760	0.764	0.666	0.616	0.603	0.549	0.513	0.588	0.503	0.523	0.490	0.396	0.441	0.411	0.424	0.380	0.412	0.428	0.494	0.402	0.601	0.945	1.166	0.897	0.889	1.503	3.614	10.83	23.82	33.32	22.93	9.680	1.918	0.399	0.310	0.304	0.291	0.321	0.295	0.297	0.298	0.259	0.313	0.320	0.291	0.326	0.274	0.259	0.230	0.284	0.387	0.309	0.281
250.0	97.62	260.9	348.1	669.6	2705	6112	5527	1163	53.54	8.175	6.543	5.404	4.054	3.229	2.430	1.817	1.961	1.724	1.286	1.331	1.196	1.023	0.948	0.809	0.871	0.774	0.805	0.677	0.624	0.669	0.597	0.620	0.502	0.545	0.474	0.389	0.447	0.380	0.408	0.460	0.454	0.397	0.447	0.398	0.414	0.556	0.800	1.010	1.130	1.085	1.249	2.753	6.097	12.53	20.50	24.52	30.55	18.12	9.892	2.265	0.416	0.339	0.313	0.294	0.313	0.282	0.305	0.322	0.301	0.309	0.325	0.278	0.294	0.322	0.319	0.297	0.283
255.0	48.74	94.22	264.6	437.5	691.8	1713	6398	8566	1521	46.63	8.826	6.737	5.518	3.597	3.009	2.011	2.137	1.915	1.429	1.337	1.306	0.986	0.973	0.838	0.836	0.804	0.761	0.730	0.667	0.695	0.604	0.607	0.475	0.549	0.535	0.444	0.479	0.488	0.390	0.413	0.472	0.426	0.467	0.398	0.444	0.485	0.455	0.488	0.708	1.165	1.545	1.662	1.782	3.147	4.945	6.434	14.69	33.03	49.85	28.08	13.75	1.952	0.362	0.383	0.361	0.332	0.334	0.328	0.308	0.275	0.338	0.289	0.306	0.304	0.330	0.300	0.303
260.0	42.02	48.37	115.5	376.2	415.0	446.1	2202	9114	8135	257.2	21.80	8.941	6.314	4.491	3.621	2.884	2.102	2.095	1.524	1.270	1.361	1.121	0.932	0.979	0.989	0.785	0.782	0.738	0.755	0.768	0.651	0.615	0.539	0.496	0.497	0.461	0.487	0.475	0.388	0.441	0.377	0.396	0.456	0.363	0.395	0.424	0.370	0.430	0.427	0.628	1.071	2.072	1.907	1.379	1.564	1.807	3.784	9.842	26.08	45.82	53.74	25.03	9.020	1.026	0.339	0.406	0.374	0.325	0.285	0.338	0.288	0.308	0.351	0.296	0.297	0.308	0.295
265.0	40.40	36.97	50.69	192.9	451.3	291.9	564.2	3568	9999.9	6984	200.1	13.68	7.821	5.166	4.130	2.852	2.380	1.752	1.760	1.536	1.394	1.175	1.206	1.028	0.989	0.966	0.713	0.736	0.781	0.768	0.690	0.568	0.552	0.496	0.476	0.464	0.466	0.490	0.378	0.407	0.405	0.393	0.428	0.469	0.337	0.400	0.406	0.388	0.386	0.390	0.528	1.313	1.925	2.151	1.518	1.005	1.332	2.674	6.522	15.41	36.90	57.57	32.79	20.57	4.408	0.614	0.431	0.385	0.300	0.336	0.384	0.338	0.402	0.437	0.340	0.342	0.282
270.0	52.66	42.49	38.20	77.67	261.6	467.2	368.7	888.7	3714	9140	8826	810.7	44.60	7.788	5.489	3.807	3.170	2.325	1.976	1.791	1.385	1.341	1.215	0.993	1.040	1.033	0.978	0.790	0.785	0.738	0.702	0.706	0.582	0.558	0.549	0.534	0.553	0.553	0.498	0.458	0.434	0.434	0.437	0.468	0.425	0.472	0.418	0.390	0.362	0.365	0.394	0.645	0.927	1.464	2.095	2.453	2.271	1.522	1.978	3.862	9.174	18.29	28.25	45.76	41.64	39.04	14.29	4.356	0.512	0.356	0.393	0.387	0.310	0.416	0.319	0.328	0.350
275.0	115.7	88.18	57.88	55.85	116.1	287.7	596.3	446.5	887.9	2446	8272	9999.9	1128	39.55	8.655	5.514	3.999	3.181	2.516	1.826	1.655	1.399	1.313	1.010	1.176	1.034	0.991	0.889	0.862	0.876	0.689	0.765	0.621	0.628	0.743	0.701	0.640	0.535	0.596	0.563	0.534	0.580	0.517	0.495	0.523	0.535	0.553	0.540	0.534	0.363	0.409	0.507	0.559	0.784	0.912	1.502	2.847	3.219	2.382	1.725	2.498	4.507	6.784	11.22	15.88	38.95	64.82	32.94	21.42	4.326	0.511	0.439	0.412	0.405	0.391	0.375	0.399
280.0	287.9	240.2	146.2	78.44	87.82	164.6	453.9	630.3	372.1	652.1	2677	9999.9	9449	782.7	19.30	7.421	5.001	3.877	2.690	2.392	1.861	1.510	1.388	1.287	1.242	1.108	0.977	0.873	0.856	0.806	0.648	0.732	0.706	0.761	1.042	0.953	0.903	0.729	0.631	0.682	0.714	0.771	0.789	0.667	0.885	0.985	0.922	0.860	0.754	0.470	0.475	0.463	0.533	0.643	0.785	0.930	1.445	2.758	3.821	3.260	1.837	1.738	2.274	3.178	4.400	10.73	26.91	48.91	68.80	31.91	15.81	1.756	0.459	0.466	0.410	0.350	0.461
285.0	675.2	615.7	355.2	137.8	94.10	130.2	254.1	641.6	601.9	368.1	885.3	3801	9999.9	7288	114.6	10.77	5.918	4.486	3.115	2.613	1.987	1.745	1.458	1.423	1.214	1.251	1.024	0.872	0.841	0.782	0.814	0.718	0.806	0.899	1.467	1.397	1.491	1.238	0.895	0.946	1.035	1.147	1.298	1.144	1.392	1.618	1.743	1.792	1.270	0.811	0.608	0.565	0.593	0.664	0.748	0.815	1.011	1.442	2.490	3.667	4.082	2.654	1.831	1.952	2.413	3.831	7.557	15.00	34.97	58.32	68.76	26.73	8.998	0.754	0.529	0.413	0.469
290.0	1412	1417	783.1	265.6	123.8	137.3	203.7	411.0	827.3	911.9	842.0	1441	3723	8474	7626	450.9	28.46	6.713	4.283	3.054	2.501	2.194	1.655	1.578	1.364	1.257	1.156	1.037	0.991	0.753	0.844	0.794	1.026	1.539	2.155	2.514	2.267	1.747	1.450	1.446	1.569	1.804	2.054	2.202	2.732	3.375	3.254	3.371	2.392	1.599	1.009	0.854	0.724	0.768	0.764	0.800	0.996	1.235	1.607	2.150	3.261	4.559	4.786	4.408	3.526	3.698	4.596	6.150	10.44	18.00	30.96	41.48	38.47	42.18	17.82	7.687	1.177
295.0	2096	2114	1205	398.4	152.2	157.0	228.4	384.0	673.6	1280	1450	1184	1436	2297	5947	9189	672.3	25.36	6.097	4.389	3.147	2.646	2.261	1.882	1.441	1.392	1.286	1.149	1.025	0.948	0.868	0.893	1.300	2.043	2.929	3.541	2.915	2.375	2.033	2.023	2.303	2.578	2.967	3.257	3.876	4.889	4.789	4.873	4.021	2.271	1.370	1.120	0.859	0.778	0.896	0.954	1.099	1.275	1.474	2.058	2.625	3.386	4.549	6.738	7.589	6.421	5.466	5.086	6.048	7.263	9.042	10.46	11.89	27.33	51.34	62.13	28.10
300.0	2321	2415	1397	472.0	187.2	174.0	266.5	410.1	671.5	1150	1823	1420	1017	796.8	1746	7493	5861	495.8	11.73	5.649	3.789	2.910	2.596	1.867	1.605	1.458	1.451	1.103	1.021	1.089	1.006	0.944	1.325	2.360	3.299	3.761	3.419	2.760	2.182	2.460	2.644	2.889	3.408	3.946	4.577	5.701	5.496	5.562	4.367	2.662	1.631	1.256	1.004	0.719	0.927	1.009	1.240	1.472	1.630	2.252	2.707	3.297	4.039	5.450	7.644	9.028	7.863	6.115	5.385	5.058	4.416	3.652	3.542	7.291	16.75	38.87	60.82
305.0	2393	2437	1444	488.6	213.4	200.6	297.1	448.8	711.9	1070	1649	1818	1048	505.1	516.0	2398	7871	4865	72.96	8.201	4.894	3.545	2.732	2.413	1.982	1.491	1.443	1.263	1.205	1.028	1.073	0.930	1.428	2.373	3.232	3.971	3.687	2.809	2.292	2.501	2.588	2.941	3.371	4.124	5.184	5.522	5.648	5.652	4.437	2.732	1.812	1.338	1.046	0.861	0.915	1.164	1.399	1.664	1.832	2.286	2.880	3.562	4.293	5.352	6.241	7.772	9.615	8.848	6.633	5.048	3.692	2.347	1.956	2.516	4.590	10.49	24.04
310.0	2253	2214	1349	480.0	214.5	202.8	300.0	447.3	679.4	983.5	1311	1570	1338	553.4	269.2	633.4	2419	5618	5458	1266	20.56	5.015	3.743	2.848	2.255	1.744	1.614	1.440	1.101	1.068	1.112	0.933	1.342	2.246	3.269	3.605	3.370	2.530	2.192	2.289	2.354	2.692	3.061	3.792	4.276	5.309	5.339	5.421	4.316	2.662	1.622	1.461	1.093	1.019	1.022	1.161	1.464	1.597	1.953	2.294	2.743	3.304	4.250	4.724	5.474	6.067	6.983	7.487	7.603	6.987	4.648	2.593	1.693	1.626	1.897	3.247	6.248
315.0	1903	1922	1186	465.1	220.1	205.5	284.2	408.6	615.3	859.9	1077	1153	1122	849.7	301.4	250.7	625.2	1373	3888	6941	496.3	19.75	5.177	3.519	2.745	1.980	1.808	1.567	1.192	1.275	1.209	0.940	1.237	2.099	2.834	3.192	2.862	2.414	1.957	1.988	2.157	2.531	2.688	3.181	4.109	4.573	4.526	4.502	3.627	2.415	1.550	1.484	1.056	0.948	1.020	1.156	1.314	1.531	1.980	2.155	2.437	3.009	3.748	4.234	4.720	5.035	5.459	5.631	5.450	5.258	5.645	4.522	2.898	1.696	1.424	1.795	2.256
320.0	1649	1710	1091	441.8	222.6	207.2	279.3	380.8	548.1	767.5	942.0	978.2	870.3	815.1	520.1	204.4	236.1	365.1	1059	5064	4266	388.1	10.59	4.260	3.369	2.475	2.176	1.788	1.507	1.339	1.184	0.902	1.231	1.880	2.550	2.677	2.528	2.192	1.766	1.859	2.123	2.243	2.473	2.865	3.412	4.048	4.129	4.051	3.450	2.214	1.424	1.405	1.123	1.069	1.068	1.093	1.296	1.558	1.783	2.094	2.237	2.795	3.131	3.501	4.293	4.559	4.930	4.426	4.413	4.108	3.859	4.333	4.392	3.339	1.727	1.413	1.519
325.0	1473	1589	1075	487.4	239.5	211.7	271.4	356.0	504.1	688.7	835.2	866.8	738.9	599.7	649.2	319.3	163.1	149.8	277.4	1485	5231	3726	58.77	6.197	4.460	2.974	2.298	1.778	1.737	1.358	1.158	1.035	1.172	1.567	2.132	2.264	2.183	1.890	1.769	1.716	1.734	1.985	2.278	2.646	3.094	3.622	3.764	4.197	3.452	2.336	1.596	1.521	1.114	1.089	1.046	1.010	1.246	1.468	1.671	1.813	2.189	2.622	3.044	3.289	3.628	4.028	4.379	4.107	4.074	3.635	3.111	3.213	3.687	4.274	3.383	1.991	1.497
330.0	1323	1422	1060	538.8	282.0	220.4	256.4	332.8	445.5	591.8	721.6	751.5	654.9	479.8	464.4	474.9	270.4	119.4	111.4	367.2	1533	3899	4238	1026	17.58	3.843	2.766	2.068	1.824	1.501	1.366	1.171	1.220	1.469	1.822	1.963	1.885	1.530	1.556	1.727	1.612	1.782	2.083	2.325	2.737	3.183	3.453	3.600	3.133	2.330	1.841	1.657	1.349	1.204	1.031	1.161	1.184	1.348	1.703	1.704	2.043	2.304	2.680	2.847	3.303	3.561	3.437	3.593	3.420	3.221	2.827	2.458	2.526	2.858	2.956	3.057	2.857
335.0	1115	1275	1007	589.1	335.6	238.8	246.4	309.6	403.9	509.9	625.7	655.9	586.2	446.3	359.6	350.5	433.0	217.0	90.94	128.5	375.4	932.8	2870	5213	415.6	16.96	4.347	2.557	2.134	1.642	1.462	1.291	1.244	1.334	1.643	1.562	1.644	1.404	1.363	1.449	1.487	1.734	1.867	2.173	2.544	2.820	3.100	3.250	2.942	2.289	1.856	2.001	1.521	1.419	1.105	1.079	1.283	1.389	1.566	1.692	1.858	2.089	2.346	2.725	2.893	3.070	3.059	3.268	3.251	3.029	2.688	2.597	2.305	2.247	2.048	2.216	2.473
340.0	1031	1159	983.4	606.0	361.6	258.9	260.5	304.1	386.3	472.7	566.2	598.1	552.0	428.0	337.2	277.6	358.1	359.7	134.1	85.00	127.4	241.0	765.5	3717	3495	332.5	8.089	3.260	2.485	1.883	1.586	1.219	1.238	1.324	1.506	1.427	1.410	1.350	1.477	1.350	1.315	1.573	1.686	1.861	2.329	2.653	2.823	3.061	3.029	2.446	1.926	2.099	1.560	1.342	1.251	1.119	1.141	1.274	1.454	1.715	1.950	2.017	2.164	2.569	2.585	2.776	2.963	3.010	2.671	2.937	2.644	2.336	2.184	1.995	2.017	1.949	1.823
345.0	902.3	1051	925.6	635.8	393.6	284.5	271.6	301.5	372.9	449.7	525.5	541.6	512.3	421.6	331.5	260.7	253.9	362.7	248.2	96.03	83.28	95.93	202.5	1076	3984	3055	50.54	4.544	2.891	2.153	1.791	1.523	1.222	1.297	1.462	1.480	1.317	1.318	1.474	1.269	1.342	1.412	1.621	1.710	1.977	2.266	2.595	2.913	2.763	2.356	1.924	1.993	1.652	1.450	1.234	1.210	1.266	1.420	1.509	1.727	1.720	2.007	2.225	2.325	2.449	2.639	2.680	2.736	2.585	2.688	2.638	2.234	2.109	1.961	1.881	1.809	1.671
350.0	819.3	923.0	831.4	615.5	422.8	309.9	288.8	311.2	367.8	426.4	481.9	497.7	470.4	400.9	327.7	261.1	222.0	243.3	305.2	210.1	100.1	77.33	89.60	272.7	1158	2905	3015	770.3	14.91	3.099	2.124	1.604	1.252	1.331	1.484	1.413	1.266	1.295	1.170	1.221	1.260	1.224	1.436	1.588	1.728	1.897	2.311	2.430	2.450	2.137	1.902	1.903	1.706	1.599	1.334	1.432	1.362	1.468	1.579	1.669	1.751	1.878	2.123	2.215	2.292	2.267	2.386	2.543	2.536	2.366	2.374	2.164	2.019	2.093	1.898	1.744	1.692
355.0	747.7	797.4	759.9	596.0	431.3	353.2	319.0	332.6	381.2	420.5	454.6	469.5	440.0	391.3	326.9	269.2	227.1	204.4	218.7	288.0	198.9	97.08	77.53	105.3	289.2	695.6	1989	3370	368.6	15.07	2.914	1.990	1.628	1.395	1.442	1.348	1.348	1.300	1.190	1.151	1.152	1.171	1.323	1.543	1.521	1.913	1.995	2.214	2.225	2.028	1.811	1.882	1.748	1.561	1.415	1.582	1.429	1.644	1.732	1.712	1.838	2.146	2.085	2.170	2.173	2.155	2.251	2.276	2.185	2.293	2.178	2.222	1.995	1.961	2.062	1.878	1.814
360.0	679.1	769.1	697.6	574.6	447.8	389.1	356.2	370.1	401.8	426.4	453.0	453.4	427.8	387.6	336.6	278.7	236.0	207.4	189.8	238.4	284.1	148.0	87.97	76.31	104.5	184.3	529.7	2605	3065	296.7	5.945	2.396	1.855	1.531	1.335	1.306	1.396	1.305	1.211	1.107	1.157	1.124	1.333	1.448	1.541	1.798	1.857	2.057	2.045	1.928	1.684	2.075	1.781	1.858	1.606	1.710	1.702	1.648	1.837	1.843	1.821	2.009	2.059	2.177	2.249	2.258	2.268	2.159	2.296	2.147	2.147	2.272	2.214	2.028	1.902	1.991	1.725
365.0	621.6	696.8	680.7	557.1	470.3	404.8	377.3	395.5	413.0	431.3	457.5	444.2	414.0	382.9	336.8	289.2	246.0	217.5	192.4	192.9	268.6	242.1	117.3	82.22	73.06	75.99	144.2	770.6	3153	2607	46.36	3.797	2.255	1.748	1.276	1.527	1.233	1.410	1.269	1.157	1.128	1.030	1.239	1.399	1.466	1.633	1.679	2.035	2.010	1.798	1.535	2.207	1.816	1.834	1.645	1.682	1.738	1.721	1.739	1.900	1.996	2.178	2.041	2.074	2.231	2.092	2.151	2.135	2.159	2.113	2.094	2.320	2.061	2.151	1.952	1.999	1.845
370.0	623.7	643.7	645.7	542.3	475.9	426.4	403.5	409.5	426.0	445.3	456.3	438.7	405.3	373.6	332.7	288.5	256.2	230.5	205.6	191.7	206.7	256.2	212.5	115.0	80.04	63.60	67.97	197.5	914.9	2394	2482	200.4	12.49	2.235	1.665	1.546	1.293	1.221	1.206	1.116	1.160	1.091	1.277	1.338	1.430	1.529	1.667	1.781	1.865	1.724	1.631	1.946	1.850	1.902	1.790	1.775	1.816	1.830	1.871	2.001	2.031	2.165	1.994	2.155	2.182	2.154	2.118	2.104	2.155	2.171	1.993	2.148	2.150	2.053	1.894	1.854	2.035
375.0	566.1	596.8	602.3	527.2	485.6	448.9	429.6	434.2	439.2	452.9	449.9	439.4	402.2	365.0	327.7	290.7	262.7	239.8	218.9	206.6	194.6	201.2	252.8	205.3	106.6	77.64	63.15	78.46	229.3	574.1	1697	2839	315.0	11.20	2.394	1.882	1.568	1.418	1.367	1.249	1.132	1.126	1.253	1.373	1.327	1.474	1.615	1.597	1.643	1.572	1.602	1.884	1.937	1.869	1.871	1.785	1.830	2.002	1.911	1.892	2.001	2.053	2.091	2.423	2.435	2.239	2.077	2.119	2.112	2.017	2.029	2.215	1.991	2.069	1.975	1.808	1.901
380.0	547.7	585.2	594.7	523.2	498.0	466.2	443.1	438.2	453.7	451.5	452.4	437.2	402.5	363.7	327.3	290.3	272.6	246.6	229.3	215.8	201.4	191.4	212.9	255.2	156.7	95.04	70.66	60.53	82.15	150.2	458.4	2206	2491	231.7	4.611	2.187	1.689	1.428	1.234	1.236	1.035	1.253	1.195	1.390	1.467	1.458	1.532	1.664	1.607	1.567	1.549	1.934	1.951	1.906	1.870	1.842	2.023	2.114	1.866	2.058	2.259	2.126	2.264	2.304	2.336	2.125	2.220	2.146	2.118	2.093	2.036	2.078	1.981	2.037	1.930	1.848	1.929
385.0	530.6	562.8	571.3	530.4	503.7	483.1	447.2	447.6	451.1	458.8	450.1	422.5	398.0	359.3	321.5	286.7	270.1	252.3	234.7	223.0	208.4	194.7	189.8	232.5	223.3	122.8	85.43	64.72	57.17	62.00	123.0	657.3	2448	1917	36.72	2.869	1.783	1.720	1.466	1.387	1.011	1.179	1.308	1.331	1.361	1.379	1.582	1.703	1.573	1.612	1.600	2.015	1.830	1.879	1.885	1.841	2.047	1.999	2.075	2.017	2.352	2.244	2.192	2.241	2.238	2.118	2.257	2.110	1.951	2.063	2.003	1.998	1.966	1.960	1.812	1.927	1.870
390.0	514.6	529.8	553.7	518.5	496.5	482.8	461.2	448.6	447.1	452.2	446.1	413.1	384.5	347.0	312.7	283.1	268.2	254.3	240.9	229.5	216.6	203.6	188.0	192.7	222.5	193.5	114.7	78.47	61.69	51.11	53.75	165.8	713.0	1754	1720	154.5	9.726	2.045	1.576	1.454	1.183	1.255	1.263	1.323	1.265	1.421	1.432	1.555	1.644	1.480	1.562	1.787	1.922	1.888	1.805	2.009	2.007	1.997	2.093	2.020	2.072	2.130	2.133	2.025	2.155	2.169	2.102	1.994	2.039	2.109	1.915	1.949	1.884	1.887	1.989	1.839	1.897
395.0	507.9	507.9	524.7	520.8	502.1	484.9	465.8	454.3	444.8	450.7	432.7	410.5	374.6	336.8	306.9	280.8	262.8	250.2	240.2	230.3	221.2	211.6	194.3	182.4	182.2	207.8	178.3	101.2	74.79	57.58	46.83	61.46	175.4	422.0	1241	2027	247.4	7.300	1.917	1.701	1.232	1.330	1.314	1.339	1.422	1.578	1.392	1.594	1.472	1.407	1.528	1.721	1.989	1.792	1.963	1.959	2.012	2.034	2.101	2.279	2.152	2.224	2.194	2.184	2.112	2.290	2.069	1.881	1.899	1.986	1.858	1.874	1.876	1.709	1.945	1.808	1.779
400.0	483.3	512.3	506.7	515.4	489.0	490.3	468.1	452.8	456.4	445.3	430.7	401.1	368.2	336.6	302.4	276.2	262.9	246.1	239.0	231.0	220.7	210.8	195.5	182.7	172.6	178.3	206.3	139.0	85.27	66.16	51.64	42.01	58.89	108.9	343.1	1611	1732	37.49	3.641	1.882	1.439	1.427	1.212	1.242	1.277	1.425	1.294	1.584	1.490	1.474	1.473	1.961	1.832	1.895	1.888	2.072	2.059	1.934	2.039	2.174	2.095	2.175	2.183	2.037	2.165	1.999	2.116	1.953	1.837	1.965	1.871	1.807	1.976	1.762	1.840	2.055	1.879
405.0	502.6	504.6	485.2	494.0	484.7	478.2	468.0	454.3	447.0	439.6	421.3	389.8	360.6	328.4	296.0	270.4	260.6	246.1	235.9	228.7	219.8	211.3	196.5	184.8	171.2	162.3	186.2	182.7	108.6	75.30	57.10	43.30	37.55	41.05	89.68	484.3	1758	1323	31.43	2.624	1.758	1.454	1.306	1.312	1.309	1.425	1.293	1.588	1.605	1.284	1.404	1.744	1.991	2.023	1.965	1.945	2.036	2.030	2.110	2.123	2.101	2.068	2.091	2.105	2.122	2.011	1.872	1.919	1.873	1.996	1.850	1.771	1.854	1.775	1.643	1.793	1.992
410.0	478.7	487.0	475.8	487.5	477.9	470.8	465.5	448.4	439.0	428.2	415.4	378.8	344.3	312.2	284.6	261.8	250.8	239.1	231.1	222.2	216.6	207.3	197.5	186.8	172.5	158.3	156.3	174.5	156.7	98.37	67.23	50.97	39.20	31.48	35.77	120.1	519.0	1280	1259	142.8	7.769	1.809	1.524	1.352	1.339	1.384	1.412	1.550	1.492	1.344	1.465	1.814	1.806	1.934	1.862	1.958	1.999	2.051	2.091	2.136	1.970	2.098	2.186	2.034	2.004	2.029	2.005	1.842	1.808	1.802	1.758	1.692	1.650	1.801	1.635	1.819	1.851
