Sample:	'1
File name:	章丘二厂6.23 10.05 明泉东侧 50倍.FD3
Run date:	'10:07:42, 06/24/2025
Operator:	Administrator
Comment:	'

Instrument
Model:	F-2700 FL Spectrophotometer
Serial number:	23B8-004
ROM Version:	4J14000 07

Instrument parameters
Measurement type:	3-D scan
Data mode:	Fluorescence
EX  Start WL:	220.0 nm
EX  End WL:	600.0 nm
EX Sampling interval:	5.0 nm
EM  Start WL:	230.0 nm
EM  End WL:	650.0 nm
EM Sampling interval:	5.0 nm
Scan speed:	12000 nm/min
EX Slit:	5.0 nm
EM Slit:	5.0 nm
PMT Voltage:	700 V
Response:	Auto 
Corrected spectra:	Off
Contour interval:	50.000

Peak integration
Integration method:	Rectangular
Sensitivity:	1
Threshold:	1.000

Peaks
No.	ApexEX/EM(nm)	Height(Data)
1	225.0/305.0	4601
2	225.0/600.0	348.5
3	230.0/500.0	178.5
4	235.0/515.0	151.5
5	240.0/525.0	144.2
6	245.0/270.0	487.4
7	245.0/540.0	135.7
8	250.0/275.0	616.6
9	250.0/550.0	116.5
10	255.0/285.0	701.5
11	255.0/565.0	114.0
12	260.0/575.0	129.6
13	265.0/590.0	157.8
14	270.0/300.0	2216
15	270.0/600.0	170.2
16	275.0/305.0	2117
17	275.0/610.0	139.3
18	280.0/625.0	90.61
19	295.0/330.0	394.4
20	300.0/335.0	362.1
21	305.0/340.0	306.5
22	310.0/350.0	238.7
23	315.0/355.0	222.3
24	320.0/360.0	215.6
25	325.0/370.0	173.2
26	330.0/375.0	166.7
27	335.0/380.0	173.1
28	340.0/385.0	143.7
29	345.0/395.0	125.6
30	350.0/400.0	131.9
31	355.0/405.0	115.8
32	360.0/415.0	98.99
33	365.0/420.0	105.7
34	370.0/425.0	91.24
35	375.0/435.0	74.94
36	380.0/440.0	74.01
37	385.0/445.0	63.07
38	390.0/300.0	10.32
39	395.0/460.0	45.29
40	400.0/465.0	38.17
41	410.0/480.0	27.07
42	415.0/485.0	22.50
43	425.0/500.0	17.36
44	430.0/505.0	15.17
45	440.0/520.0	11.54
46	445.0/525.0	10.08
47	455.0/305.0	11.63
48	455.0/540.0	7.201
49	470.0/560.0	3.396
50	505.0/275.0	3.774
51	510.0/280.0	3.909
52	520.0/285.0	4.568
53	540.0/295.0	9.469
54	545.0/300.0	10.81
55	550.0/305.0	11.43
56	560.0/310.0	8.502
57	585.0/325.0	3.857

Data points
	220.0	225.0	230.0	235.0	240.0	245.0	250.0	255.0	260.0	265.0	270.0	275.0	280.0	285.0	290.0	295.0	300.0	305.0	310.0	315.0	320.0	325.0	330.0	335.0	340.0	345.0	350.0	355.0	360.0	365.0	370.0	375.0	380.0	385.0	390.0	395.0	400.0	405.0	410.0	415.0	420.0	425.0	430.0	435.0	440.0	445.0	450.0	455.0	460.0	465.0	470.0	475.0	480.0	485.0	490.0	495.0	500.0	505.0	510.0	515.0	520.0	525.0	530.0	535.0	540.0	545.0	550.0	555.0	560.0	565.0	570.0	575.0	580.0	585.0	590.0	595.0	600.0
230.0	230.3	4411	4916	722.0	28.12	7.909	5.618	4.683	4.170	4.193	3.643	3.266	2.598	2.234	1.712	1.740	1.441	1.352	1.189	1.116	0.996	0.952	0.845	0.887	0.928	0.754	0.647	0.688	0.558	0.570	0.571	0.554	0.562	0.578	0.489	0.474	0.437	0.464	0.427	0.449	0.719	1.040	0.787	0.461	0.380	0.615	4.576	13.67	16.94	9.535	2.432	0.494	0.299	0.299	0.237	0.269	0.289	0.220	0.255	0.231	0.227	0.257	0.219	0.256	0.226	0.227	0.253	0.229	0.239	0.232	0.239	0.230	0.219	0.211	0.239	0.206	0.217
235.0	233.8	1242	3945	4316	573.8	42.21	8.769	6.835	5.008	4.393	3.532	3.471	3.072	3.176	1.756	1.991	1.423	1.315	1.161	1.094	1.054	1.081	0.712	0.936	1.008	0.864	0.617	0.727	0.526	0.772	0.605	0.489	0.596	0.569	0.423	0.362	0.404	0.453	0.448	0.424	0.492	0.591	0.841	0.872	0.788	0.486	1.244	3.771	8.405	14.30	16.09	13.23	4.974	0.851	0.247	0.274	0.312	0.263	0.291	0.265	0.219	0.221	0.264	0.240	0.218	0.207	0.235	0.230	0.249	0.214	0.225	0.202	0.250	0.178	0.198	0.189	0.219
240.0	345.4	412.2	1325	4768	4295	431.9	18.74	8.107	6.351	4.638	4.357	4.136	3.165	3.068	2.196	2.053	1.607	1.385	1.134	1.024	1.105	1.011	0.915	0.827	0.892	0.755	0.709	0.669	0.606	0.685	0.656	0.506	0.602	0.601	0.418	0.417	0.497	0.425	0.499	0.439	0.366	0.461	0.491	0.745	1.021	0.964	0.765	1.156	2.235	4.768	11.04	22.81	22.71	12.56	3.494	0.535	0.314	0.269	0.312	0.258	0.254	0.232	0.307	0.275	0.262	0.230	0.273	0.231	0.217	0.234	0.232	0.225	0.259	0.184	0.222	0.299	0.297
245.0	279.3	346.5	376.5	1905	6286	3689	288.9	12.44	7.777	5.448	5.245	4.582	2.821	2.490	2.554	2.254	1.618	1.471	1.420	1.180	1.216	0.934	0.899	0.944	1.168	0.838	0.711	0.609	0.631	0.596	0.679	0.506	0.482	0.529	0.500	0.443	0.575	0.583	0.463	0.435	0.313	0.399	0.392	0.494	0.604	1.076	1.340	0.878	0.838	1.307	2.964	9.233	20.69	27.39	22.38	10.03	2.403	0.370	0.357	0.259	0.298	0.269	0.235	0.310	0.276	0.303	0.272	0.252	0.211	0.189	0.224	0.259	0.248	0.254	0.246	0.249	0.224
250.0	108.0	276.9	361.1	525.7	2293	6143	5179	1258	57.53	8.588	6.977	6.069	3.713	3.404	2.527	2.180	1.845	1.681	1.474	1.312	1.103	1.038	1.035	0.796	1.132	0.756	0.737	0.666	0.707	0.599	0.656	0.549	0.580	0.649	0.444	0.441	0.488	0.508	0.500	0.445	0.422	0.344	0.409	0.421	0.445	0.561	0.840	1.080	1.303	1.061	1.149	2.382	5.392	10.20	18.56	23.09	31.60	19.06	10.34	2.422	0.375	0.279	0.274	0.304	0.269	0.281	0.265	0.256	0.248	0.243	0.243	0.253	0.251	0.230	0.267	0.276	0.211
255.0	58.77	99.03	282.4	430.3	600.0	1712	5796	9798	1584	52.74	10.67	7.710	5.335	3.750	2.987	2.698	2.586	2.077	1.457	1.626	1.253	1.134	1.089	0.946	1.172	0.956	0.739	0.856	0.757	0.609	0.729	0.560	0.570	0.592	0.545	0.525	0.447	0.532	0.492	0.424	0.410	0.366	0.436	0.392	0.447	0.433	0.480	0.512	0.849	1.069	1.544	1.741	1.705	2.642	4.446	6.109	15.15	32.78	50.64	28.34	15.58	2.975	0.368	0.264	0.282	0.315	0.259	0.282	0.283	0.257	0.223	0.282	0.245	0.310	0.250	0.261	0.225
260.0	41.45	54.71	126.4	385.6	393.2	447.5	1952	9903	8628	261.3	28.68	10.68	6.897	4.769	3.749	2.829	2.684	1.920	1.833	1.701	1.366	1.289	1.021	1.176	1.279	0.806	0.798	0.748	0.794	0.716	0.731	0.727	0.643	0.698	0.598	0.522	0.504	0.510	0.511	0.456	0.449	0.459	0.460	0.550	0.465	0.385	0.326	0.391	0.498	0.589	1.110	2.113	2.034	1.367	1.449	1.731	3.840	9.759	26.50	46.97	61.08	28.22	12.26	1.142	0.362	0.309	0.310	0.290	0.316	0.242	0.244	0.321	0.266	0.322	0.294	0.294	0.248
265.0	39.65	47.43	54.87	209.2	481.7	300.7	502.1	3743	9999.9	7093	210.1	17.87	9.292	6.400	4.696	3.979	2.989	2.233	1.903	1.932	1.427	1.322	1.161	1.190	1.267	0.892	0.993	0.832	0.774	0.871	0.791	0.665	0.626	0.814	0.552	0.493	0.541	0.510	0.531	0.482	0.409	0.511	0.615	0.464	0.383	0.475	0.333	0.353	0.397	0.341	0.563	1.204	2.231	2.284	1.585	0.883	1.283	2.668	6.656	15.66	41.21	78.65	76.17	22.55	6.756	0.598	0.353	0.375	0.299	0.315	0.302	0.312	0.287	0.300	0.257	0.304	0.241
270.0	67.36	60.73	48.75	81.67	275.2	487.4	359.1	923.7	3610	8942	9933	835.4	47.89	10.25	6.665	5.018	3.737	3.003	2.276	2.017	1.824	1.593	1.450	1.297	1.247	1.116	0.988	1.024	0.838	0.795	0.802	0.745	0.766	0.839	0.615	0.516	0.626	0.595	0.581	0.518	0.508	0.474	0.591	0.484	0.504	0.480	0.430	0.445	0.439	0.336	0.399	0.579	1.044	1.559	2.140	2.438	1.932	1.607	1.956	3.939	10.12	24.54	45.31	53.91	54.77	55.24	15.27	5.635	0.679	0.400	0.340	0.401	0.337	0.330	0.310	0.338	0.244
275.0	152.4	143.3	93.50	66.81	116.0	295.9	616.6	450.1	870.0	2325	8988	9999.9	1139	47.33	10.55	7.115	5.507	3.765	2.719	2.677	2.076	1.908	1.453	1.458	1.586	1.223	1.159	1.144	0.987	0.931	0.825	0.885	0.938	1.077	0.815	0.804	0.728	0.701	0.677	0.617	0.594	0.513	0.632	0.565	0.556	0.726	0.600	0.591	0.627	0.469	0.443	0.537	0.659	0.714	0.992	1.557	2.980	3.774	2.504	1.668	2.712	5.906	10.60	12.85	20.49	52.04	89.14	86.42	24.22	5.549	0.517	0.460	0.459	0.399	0.326	0.346	0.363
280.0	388.3	417.4	289.6	142.2	93.02	159.9	463.5	663.8	374.8	646.3	2751	9999.9	9999.9	814.2	25.22	10.92	7.056	4.750	3.605	3.038	2.421	1.825	1.796	1.668	1.842	1.258	1.145	1.189	1.204	1.042	0.939	1.002	1.157	1.301	1.511	1.258	1.114	0.881	0.795	0.855	0.814	0.770	0.792	0.943	1.136	1.202	1.213	1.328	1.134	0.933	0.727	0.615	0.613	0.618	0.722	0.953	1.564	2.792	3.909	3.225	1.872	2.015	3.114	3.648	5.454	13.75	35.31	77.47	100.4	33.24	18.73	2.433	0.589	0.416	0.434	0.437	0.397
285.0	1130	1169	822.6	362.1	147.6	140.6	270.3	701.5	673.9	392.5	992.5	4026	9999.9	8141	120.1	18.87	9.135	5.854	4.234	3.476	2.824	2.217	2.049	1.723	1.869	1.273	1.258	1.228	1.099	0.968	1.056	1.262	1.684	2.421	2.957	2.949	2.190	1.519	1.270	1.211	1.191	1.514	1.435	1.921	2.375	2.691	2.770	2.800	2.922	1.895	1.414	1.065	0.844	0.722	0.789	0.816	1.099	1.543	2.365	4.056	4.568	3.085	2.315	2.527	2.951	4.943	9.897	22.44	47.72	83.35	104.5	29.92	11.61	1.127	0.495	0.506	0.405
290.0	2379	2522	1918	840.5	268.5	181.9	258.5	508.8	1005	1117	1086	1692	4021	9999.9	9999.9	2399	34.71	9.282	6.143	4.221	3.549	2.899	2.525	2.093	2.346	1.469	1.327	1.506	1.150	1.161	1.149	1.614	2.836	4.821	6.021	5.259	3.669	2.584	2.132	2.315	2.230	2.867	3.197	3.870	4.996	5.867	6.239	6.588	5.944	4.111	2.946	2.071	1.417	0.959	0.967	0.975	1.201	1.423	1.795	2.728	4.134	5.391	5.977	5.631	4.725	5.362	6.231	8.662	14.29	24.79	46.36	58.07	75.03	61.65	44.27	9.703	1.624
295.0	3645	4042	2923	1252	388.1	230.0	311.0	523.1	899.5	1621	1807	1523	1693	2708	8221	9999.9	700.3	34.98	8.577	6.207	4.595	3.778	2.765	2.688	2.445	1.774	1.616	1.721	1.391	1.324	1.354	1.859	3.992	7.076	8.755	7.515	5.343	3.757	2.955	3.082	3.259	4.116	4.384	5.531	7.150	8.849	9.279	9.992	8.856	6.123	4.371	3.042	1.749	1.296	1.049	1.119	1.570	1.845	2.009	2.795	3.345	4.453	5.998	8.918	9.469	8.058	7.155	7.192	8.037	9.834	13.21	14.82	20.40	38.86	87.50	109.0	32.84
300.0	4159	4556	3378	1469	448.3	254.6	343.5	550.7	894.8	1473	2216	1765	1255	929.4	2267	9999.9	9999.9	541.5	16.12	8.491	5.818	4.344	3.248	2.871	2.867	1.883	1.701	1.982	1.536	1.350	1.483	1.985	4.470	8.305	10.32	8.638	6.038	4.138	3.248	3.394	3.593	4.733	5.011	6.794	8.195	10.10	10.28	11.46	9.782	7.081	4.879	3.309	1.962	1.409	1.242	1.221	1.669	1.919	2.282	2.927	3.447	4.429	5.392	7.041	9.224	10.81	9.858	7.948	7.066	6.787	5.785	5.090	5.657	9.866	26.49	66.57	99.90
305.0	4200	4601	3390	1481	473.4	262.9	353.4	558.9	885.4	1333	1973	2117	1228	536.5	597.1	3106	9999.9	5308	76.43	12.61	7.362	5.438	3.773	3.626	3.297	2.032	1.906	2.274	1.653	1.319	1.592	2.042	4.925	8.969	10.25	8.833	6.073	4.215	3.448	3.696	3.692	4.597	5.069	6.365	8.103	10.21	10.72	11.63	10.03	7.331	5.010	3.470	2.082	1.517	1.269	1.376	1.568	1.942	2.352	2.998	3.582	4.350	5.481	6.541	7.947	9.483	11.43	10.32	8.156	6.362	4.311	2.795	2.336	3.161	6.760	16.80	36.15
310.0	3591	4067	2959	1315	420.6	259.4	334.5	523.9	796.4	1146	1517	1757	1444	520.8	229.6	751.2	3084	8418	7953	1666	26.23	8.090	5.425	4.523	3.861	2.480	2.165	2.356	1.749	1.438	1.578	2.165	4.402	7.657	9.497	8.004	5.507	4.000	3.239	3.342	3.406	4.170	4.860	5.918	7.299	9.148	9.249	10.24	8.895	6.403	4.392	3.054	1.966	1.498	1.174	1.258	1.594	1.887	2.158	2.685	3.365	4.017	4.889	5.697	6.528	7.369	8.262	8.394	8.502	7.522	4.813	2.687	1.693	1.637	2.409	4.444	8.925
315.0	2856	3167	2320	1060	364.2	240.1	312.6	454.5	682.2	946.4	1191	1227	1137	790.9	220.5	228.3	734.1	1983	5639	9999.9	525.7	29.62	7.945	5.943	4.728	2.859	2.721	2.456	1.997	1.760	1.691	2.014	3.846	6.543	7.866	6.615	4.745	3.411	3.224	2.901	2.827	3.338	3.974	4.971	6.072	7.350	7.829	8.385	7.117	5.113	3.662	2.648	1.729	1.252	1.123	1.276	1.433	1.825	2.021	2.402	2.788	3.446	4.038	4.668	5.313	5.739	6.132	6.024	5.906	5.757	5.499	4.736	2.414	1.398	1.374	1.811	2.731
320.0	2323	2600	1928	874.0	326.4	226.9	288.3	428.0	596.5	804.9	987.7	974.9	821.4	731.0	426.0	137.4	217.1	482.1	1467	8361	9999.9	454.3	16.22	8.044	5.887	3.686	3.033	3.068	2.318	1.977	1.844	1.893	3.356	5.179	6.501	5.427	4.014	2.827	2.922	2.617	2.363	2.957	3.439	3.874	4.685	5.801	6.400	6.796	5.797	4.203	3.126	2.327	1.647	1.218	1.124	1.139	1.311	1.546	1.980	2.165	2.665	3.224	3.375	3.895	4.815	4.848	4.952	4.579	4.532	4.005	3.840	4.249	4.171	2.803	1.479	1.318	1.286
325.0	1938	2138	1564	724.8	290.7	224.8	273.0	384.0	526.3	693.7	844.4	819.9	659.9	483.9	542.0	235.8	112.1	149.3	360.7	2361	9994	9178	62.22	11.97	8.172	4.440	3.677	3.197	2.717	1.978	1.843	1.989	2.919	4.513	5.410	4.458	3.435	2.483	2.237	2.309	2.343	2.674	2.943	3.276	4.134	4.716	5.151	5.377	4.903	3.618	2.503	2.142	1.525	1.217	1.072	1.179	1.397	1.519	1.628	2.115	2.402	2.734	3.039	3.667	3.972	3.993	3.931	3.745	3.801	3.494	2.653	2.517	3.140	3.857	2.864	1.695	1.211
330.0	1510	1638	1205	599.0	266.8	219.7	261.6	341.1	457.6	583.1	688.9	665.5	534.5	343.8	340.1	394.4	194.5	87.59	115.2	557.0	2786	7937	7260	1586	25.64	6.186	4.277	4.017	3.052	2.354	2.161	2.128	2.684	3.747	4.258	3.790	3.066	2.271	2.056	2.095	1.922	2.231	2.437	2.788	3.338	3.815	4.065	4.203	3.831	2.795	2.124	1.759	1.325	1.166	1.098	1.169	1.356	1.494	1.653	1.822	2.200	2.377	2.646	3.234	3.242	3.364	3.366	3.288	3.076	3.051	2.290	1.915	1.827	2.188	2.638	2.792	2.473
335.0	1195	1249	923.9	483.8	247.5	220.9	254.3	312.4	404.7	489.1	571.7	552.8	450.9	301.1	221.3	254.5	362.1	170.4	66.95	155.4	643.8	1840	5059	9999.9	2442	26.30	6.433	5.127	3.722	2.708	2.567	2.258	2.467	3.254	3.248	3.283	2.520	2.160	1.936	1.835	1.775	2.098	2.088	2.297	2.656	3.070	3.148	3.478	2.926	2.384	1.739	1.505	1.291	1.180	1.108	1.193	1.324	1.564	1.556	1.955	1.910	2.137	2.314	2.811	2.771	3.023	2.907	2.708	2.641	2.533	2.056	1.688	1.736	1.647	1.605	1.601	2.282
340.0	986.4	1052	761.4	411.9	239.0	219.0	237.8	297.2	370.2	439.8	501.0	482.6	403.9	279.1	195.1	169.8	278.3	306.5	83.98	68.30	168.8	432.3	1296	7903	9999.9	393.8	14.67	6.793	4.329	3.088	2.749	2.511	2.495	3.002	2.773	2.782	2.459	1.922	1.854	1.716	1.569	1.754	1.978	1.976	2.423	2.551	2.646	2.721	2.425	2.036	1.579	1.398	1.211	1.029	1.098	1.098	1.281	1.492	1.546	1.617	1.827	1.949	2.240	2.411	2.448	2.496	2.526	2.321	2.481	2.270	1.971	1.724	1.491	1.534	1.325	1.298	1.518
345.0	842.5	849.3	658.7	363.7	230.3	208.8	239.9	286.4	342.9	399.7	438.6	432.2	373.7	267.1	188.7	149.8	166.6	300.6	200.1	61.90	65.77	119.1	310.6	2205	9999.9	7245	55.02	9.961	5.625	3.891	3.153	2.489	2.410	3.166	2.607	2.324	2.348	1.684	1.748	1.520	1.386	1.658	1.678	1.835	2.208	2.224	2.227	2.410	2.048	1.711	1.449	1.388	1.178	1.072	1.058	1.081	1.282	1.314	1.321	1.686	1.708	1.897	2.128	2.182	2.139	2.366	2.285	2.060	2.170	2.104	1.914	1.716	1.406	1.358	1.267	1.148	1.274
350.0	693.8	697.9	528.5	321.3	221.8	203.1	224.6	265.9	312.4	355.5	385.0	377.4	326.5	252.2	187.0	145.6	123.4	167.8	238.7	161.1	57.93	52.84	91.35	511.8	2897	6045	5589	1397	21.24	5.393	4.076	2.936	2.788	2.965	2.392	2.150	2.129	1.591	1.606	1.392	1.321	1.485	1.524	1.635	1.890	1.887	1.877	2.222	1.788	1.433	1.257	1.301	1.114	1.121	0.991	1.039	1.139	1.250	1.453	1.559	1.513	1.737	1.813	1.991	2.154	2.175	2.128	2.051	1.893	1.907	1.713	1.568	1.396	1.342	1.207	1.207	1.082
355.0	600.5	587.9	451.5	276.7	210.9	200.7	214.1	248.2	288.0	323.6	346.4	335.5	295.2	233.4	180.8	143.6	117.2	114.7	138.0	222.3	138.8	49.71	45.27	135.5	662.9	1400	3895	9999.9	2043	24.09	5.528	3.916	3.343	3.076	2.219	2.019	2.042	1.621	1.463	1.513	1.334	1.360	1.363	1.378	1.415	1.673	1.665	1.829	1.467	1.248	1.127	1.104	1.160	1.051	0.994	1.113	1.193	1.261	1.313	1.487	1.565	1.602	1.728	1.926	1.959	1.900	1.856	1.873	1.759	1.779	1.675	1.626	1.320	1.444	1.274	1.226	1.252
360.0	538.7	515.6	392.2	259.0	199.1	192.0	206.2	244.2	272.1	292.4	318.5	309.3	271.2	224.5	180.3	142.6	118.2	106.4	98.85	158.4	215.6	72.13	41.17	54.13	167.4	328.6	1004	7269	8792	372.4	15.48	5.030	4.001	3.601	2.483	1.953	2.091	1.809	1.689	1.413	1.396	1.194	1.319	1.425	1.520	1.553	1.530	1.461	1.388	1.131	0.997	1.064	1.179	0.868	1.092	0.993	1.175	1.245	1.305	1.389	1.452	1.655	1.583	1.764	1.870	1.870	1.938	1.767	1.645	1.743	1.543	1.496	1.453	1.461	1.318	1.200	1.130
365.0	497.9	464.3	347.9	249.0	189.5	186.3	209.8	234.2	258.2	284.5	302.5	287.2	254.2	216.4	175.2	143.7	120.5	106.1	94.29	107.2	192.1	166.9	56.79	39.31	58.96	91.13	240.0	2075	7933	6615	299.8	7.209	4.928	4.268	2.988	2.158	2.016	1.697	1.686	1.349	1.334	1.400	1.309	1.286	1.424	1.455	1.451	1.565	1.347	1.065	0.993	1.003	1.061	0.946	1.061	1.007	1.122	1.085	1.366	1.384	1.481	1.609	1.648	1.535	1.721	1.767	1.716	1.687	1.677	1.604	1.447	1.456	1.436	1.361	1.336	1.218	1.095
370.0	445.7	422.6	305.1	224.0	181.2	180.5	202.6	223.1	248.6	268.3	280.4	267.1	240.5	208.1	172.8	144.6	123.8	110.7	98.93	91.95	116.5	173.2	140.5	52.30	40.49	40.80	69.73	479.0	2206	5830	5843	1194	18.85	6.165	3.528	2.499	2.293	2.080	1.754	1.496	1.356	1.312	1.384	1.318	1.407	1.436	1.377	1.350	1.239	1.092	0.948	0.993	0.969	0.884	0.987	0.946	1.171	1.099	1.320	1.285	1.430	1.573	1.527	1.549	1.683	1.511	1.592	1.625	1.521	1.446	1.414	1.329	1.358	1.290	1.263	1.176	1.179
375.0	407.3	360.2	279.4	204.8	176.6	177.9	194.8	212.9	234.7	245.8	258.1	244.8	226.5	196.3	168.4	144.8	128.7	118.0	106.2	95.82	91.88	108.4	166.7	129.6	49.92	33.52	34.93	122.7	504.1	1359	4326	7791	1829	23.20	4.714	3.412	3.079	2.255	1.812	1.453	1.339	1.357	1.257	1.457	1.375	1.476	1.246	1.280	1.186	1.048	0.848	0.926	0.996	0.927	0.942	0.980	1.067	1.056	1.303	1.338	1.395	1.437	1.450	1.469	1.668	1.586	1.598	1.487	1.460	1.354	1.362	1.408	1.220	1.200	1.252	1.217	1.262
380.0	400.2	351.8	267.4	200.2	177.7	173.6	187.7	204.0	217.4	232.8	242.1	231.9	214.5	187.1	164.8	144.3	130.0	118.9	110.8	100.0	90.47	87.68	119.2	173.1	87.31	37.76	29.40	44.94	126.1	315.1	1137	5693	7915	320.1	10.92	3.838	3.510	2.626	1.932	1.794	1.374	1.371	1.337	1.368	1.324	1.230	1.252	1.273	1.160	0.958	0.908	0.944	0.970	1.049	1.032	0.929	0.977	1.073	1.200	1.303	1.278	1.306	1.506	1.445	1.446	1.470	1.428	1.401	1.294	1.399	1.305	1.214	1.272	1.139	1.229	1.293	1.187
385.0	340.0	319.7	266.0	203.1	180.2	169.3	183.5	195.0	210.4	223.3	232.2	225.1	207.4	183.5	162.7	142.2	131.1	120.8	112.7	105.5	93.79	85.16	87.78	142.8	143.7	55.28	31.50	30.28	44.37	83.99	267.1	1624	7343	7068	235.6	6.220	4.013	3.160	2.378	1.674	1.526	1.393	1.432	1.426	1.329	1.275	1.241	1.219	1.052	0.947	0.888	0.951	0.853	1.078	0.874	0.928	1.037	1.143	1.284	1.179	1.205	1.212	1.323	1.442	1.335	1.358	1.347	1.370	1.271	1.364	1.177	1.281	1.268	1.303	1.175	1.247	1.205
390.0	326.2	306.5	241.2	194.3	167.1	167.4	172.5	186.1	199.2	212.0	216.9	215.8	198.1	177.3	160.3	139.6	131.6	124.1	117.1	108.7	97.33	88.78	81.07	93.76	134.1	117.3	47.99	31.61	29.62	34.80	73.74	374.8	2070	6433	4342	928.9	16.47	3.995	2.875	2.090	1.722	1.483	1.434	1.400	1.399	1.355	1.169	1.171	1.113	0.996	0.859	1.057	0.925	0.936	0.956	0.885	1.148	1.042	1.031	1.066	1.235	1.249	1.350	1.399	1.357	1.294	1.303	1.262	1.361	1.344	1.159	1.202	1.252	1.320	1.261	1.268	1.148
395.0	320.9	278.2	228.8	183.6	167.7	156.8	161.6	176.9	184.6	195.7	202.8	202.1	189.0	168.6	154.9	136.4	130.6	123.7	119.7	111.1	100.9	90.61	82.24	79.70	87.12	125.6	106.1	45.68	31.21	27.22	32.53	96.77	472.2	1505	3279	5687	1529	16.18	3.874	2.914	2.036	1.763	1.559	1.552	1.296	1.407	1.158	1.117	1.047	0.984	0.808	0.974	0.967	0.860	1.016	0.958	1.014	1.031	1.057	1.076	1.183	1.233	1.178	1.352	1.395	1.307	1.244	1.106	1.237	1.160	1.228	1.253	1.169	1.138	1.110	1.284	1.287
400.0	310.5	265.1	216.5	175.2	154.9	152.3	167.2	167.9	176.3	186.9	193.7	190.5	178.8	163.7	150.3	139.3	129.3	121.7	118.5	112.3	101.9	93.31	85.42	76.44	73.65	92.27	131.9	76.59	36.40	28.02	26.11	35.84	116.7	346.5	875.5	4260	6227	260.3	9.117	3.091	2.169	1.825	1.645	1.388	1.321	1.264	1.327	1.121	1.097	1.002	0.781	0.898	0.943	0.807	0.973	0.877	0.952	1.040	1.067	1.160	1.020	1.108	1.251	1.347	1.228	1.241	1.066	1.123	1.122	1.247	1.109	1.242	1.070	1.112	1.012	1.298	1.512
405.0	289.7	248.9	211.0	171.7	155.2	145.1	158.9	158.0	171.6	183.7	188.5	185.8	174.6	157.6	142.5	133.5	124.2	120.2	114.1	109.6	101.4	93.20	85.46	77.82	70.75	71.04	108.4	115.8	51.56	32.69	27.03	24.15	38.94	87.86	205.0	1233	5877	4597	37.16	4.791	2.770	2.012	1.618	1.457	1.324	1.170	1.280	1.068	1.031	0.897	0.848	0.927	0.917	0.831	0.885	0.906	0.901	0.969	1.040	1.186	1.051	1.095	1.154	1.133	1.221	1.156	1.111	0.990	1.096	1.200	1.086	1.111	1.218	1.125	1.178	1.074	1.274
410.0	270.3	231.9	194.9	161.1	148.5	144.6	146.6	151.4	165.3	172.4	177.5	173.0	161.0	150.0	134.5	127.4	120.0	116.6	111.0	105.9	98.69	92.07	85.53	78.45	72.90	65.93	73.71	103.5	97.15	47.85	30.94	24.67	23.91	31.94	54.99	283.6	1674	4228	3605	843.8	12.09	2.674	2.065	1.728	1.460	1.196	1.191	1.187	1.093	0.977	0.826	0.942	0.985	0.816	0.859	0.917	1.020	0.908	0.938	1.153	0.976	1.080	1.046	1.234	1.041	1.148	1.026	1.032	1.169	1.122	1.091	1.163	1.047	1.023	1.073	0.999	1.066
