Sample:	'1
File name:	T2025032009º«µêºÓ9.FD3
Run date:	'10:19:37, 03/21/2025
Operator:	Administrator
Comment:	'

Instrument
Model:	F-2700 FL Spectrophotometer
Serial number:	23B8-004
ROM Version:	4J14000 07

Instrument parameters
Measurement type:	3-D scan
Data mode:	Fluorescence
EX  Start WL:	220.0 nm
EX  End WL:	600.0 nm
EX Sampling interval:	5.0 nm
EM  Start WL:	230.0 nm
EM  End WL:	650.0 nm
EM Sampling interval:	5.0 nm
Scan speed:	12000 nm/min
EX Slit:	5.0 nm
EM Slit:	5.0 nm
PMT Voltage:	700 V
Response:	Auto 
Corrected spectra:	Off
Contour interval:	50.000

Peak integration
Integration method:	Rectangular
Sensitivity:	1
Threshold:	1.000

Peaks
No.	ApexEX/EM(nm)	Height(Data)
1	225.0/560.0	33.12
2	225.0/585.0	28.58
3	230.0/595.0	29.71
4	230.0/635.0	59.02
5	235.0/340.0	2050
6	235.0/580.0	27.93
7	240.0/265.0	368.9
8	240.0/525.0	220.3
9	245.0/270.0	380.1
10	245.0/535.0	182.3
11	250.0/275.0	497.5
12	250.0/450.0	634.4
13	250.0/550.0	155.1
14	255.0/280.0	584.9
15	255.0/560.0	131.5
16	260.0/290.0	561.3
17	260.0/575.0	112.2
18	265.0/585.0	97.00
19	275.0/320.0	3248
20	275.0/615.0	199.3
21	280.0/315.0	3239
22	280.0/385.0	1053
23	280.0/625.0	177.0
24	285.0/635.0	146.4
25	320.0/360.0	397.9
26	325.0/370.0	349.0
27	330.0/375.0	366.4
28	335.0/380.0	407.9
29	335.0/405.0	332.6
30	350.0/400.0	433.5
31	355.0/385.0	366.7
32	355.0/405.0	440.5
33	365.0/420.0	259.4
34	370.0/405.0	349.2
35	370.0/425.0	267.4
36	410.0/480.0	42.01
37	415.0/485.0	36.77
38	430.0/505.0	22.92
39	435.0/510.0	19.02
40	440.0/520.0	15.95
41	445.0/525.0	13.57
42	455.0/540.0	9.551
43	470.0/560.0	4.756
44	480.0/340.0	7.443
45	485.0/265.0	2.219
46	495.0/270.0	2.010
47	505.0/275.0	3.194
48	510.0/280.0	3.356
49	520.0/285.0	3.853
50	530.0/290.0	3.699
51	560.0/310.0	15.46
52	570.0/315.0	15.54
53	570.0/385.0	5.179
54	580.0/320.0	15.65
55	585.0/325.0	14.40

Data points
	220.0	225.0	230.0	235.0	240.0	245.0	250.0	255.0	260.0	265.0	270.0	275.0	280.0	285.0	290.0	295.0	300.0	305.0	310.0	315.0	320.0	325.0	330.0	335.0	340.0	345.0	350.0	355.0	360.0	365.0	370.0	375.0	380.0	385.0	390.0	395.0	400.0	405.0	410.0	415.0	420.0	425.0	430.0	435.0	440.0	445.0	450.0	455.0	460.0	465.0	470.0	475.0	480.0	485.0	490.0	495.0	500.0	505.0	510.0	515.0	520.0	525.0	530.0	535.0	540.0	545.0	550.0	555.0	560.0	565.0	570.0	575.0	580.0	585.0	590.0	595.0	600.0
230.0	18.60	197.5	604.2	209.9	11.74	4.912	4.106	3.312	3.003	2.960	3.035	2.687	2.433	1.939	1.604	1.337	1.210	0.985	0.855	0.819	0.644	0.634	0.613	0.566	0.574	0.467	0.452	0.413	0.451	0.416	0.453	0.406	0.349	0.314	0.321	0.309	0.276	0.283	0.266	0.261	0.250	0.246	0.266	0.203	0.235	0.231	0.366	1.104	2.145	1.766	0.751	0.247	0.178	0.187	0.201	0.185	0.196	0.195	0.188	0.184	0.171	0.174	0.194	0.213	0.207	0.188	0.189	0.227	0.185	0.187	0.187	0.200	0.196	0.202	0.217	0.194	0.213
235.0	32.53	68.49	525.5	799.4	379.4	22.77	3.945	3.347	3.382	2.932	2.967	2.740	2.096	1.820	1.743	1.347	1.368	1.179	0.826	0.744	0.642	0.654	0.546	0.592	0.543	0.428	0.464	0.492	0.432	0.432	0.438	0.346	0.357	0.306	0.263	0.265	0.302	0.327	0.290	0.277	0.239	0.279	0.262	0.294	0.275	0.276	0.248	0.442	0.962	2.174	3.765	4.039	2.157	0.479	0.220	0.160	0.249	0.202	0.205	0.204	0.173	0.187	0.216	0.190	0.236	0.197	0.185	0.199	0.221	0.169	0.187	0.207	0.220	0.177	0.250	0.190	0.245
240.0	51.31	48.97	187.8	1125	1569	316.4	11.56	4.484	3.565	2.977	3.727	2.571	2.288	2.060	1.896	1.568	1.342	1.178	0.802	0.779	0.715	0.574	0.682	0.583	0.618	0.456	0.446	0.502	0.454	0.444	0.486	0.427	0.361	0.302	0.285	0.311	0.281	0.329	0.303	0.268	0.231	0.230	0.236	0.253	0.309	0.343	0.262	0.275	0.368	0.793	2.384	6.059	7.508	5.434	1.961	0.362	0.225	0.205	0.206	0.237	0.195	0.180	0.230	0.182	0.203	0.161	0.216	0.253	0.193	0.208	0.184	0.205	0.216	0.208	0.206	0.254	0.226
245.0	46.68	88.99	76.89	438.6	1932	1733	229.7	7.217	4.605	3.288	3.377	2.685	2.663	2.528	1.755	2.022	1.346	1.223	0.931	0.940	0.655	0.568	0.551	0.602	0.550	0.483	0.519	0.470	0.437	0.399	0.462	0.456	0.416	0.344	0.273	0.287	0.284	0.270	0.271	0.283	0.339	0.202	0.237	0.227	0.253	0.363	0.408	0.426	0.300	0.318	0.724	2.374	5.791	10.54	9.933	5.246	1.309	0.243	0.247	0.232	0.219	0.182	0.209	0.198	0.205	0.251	0.170	0.239	0.200	0.189	0.230	0.193	0.234	0.215	0.221	0.210	0.241
250.0	29.25	80.60	151.9	169.1	660.1	1902	2341	806.8	41.10	5.285	4.055	3.656	3.110	2.691	2.104	1.790	1.356	1.250	0.955	0.871	0.755	0.687	0.621	0.631	0.517	0.528	0.486	0.494	0.363	0.431	0.425	0.429	0.383	0.401	0.309	0.356	0.307	0.294	0.301	0.271	0.347	0.260	0.264	0.236	0.268	0.293	0.343	0.554	0.668	0.621	0.559	0.766	1.620	3.565	6.322	10.21	12.69	11.06	5.947	1.631	0.358	0.210	0.218	0.209	0.220	0.243	0.229	0.262	0.232	0.227	0.221	0.213	0.225	0.206	0.229	0.207	0.228
255.0	22.88	33.93	131.4	275.5	226.9	500.3	2000	3805	294.9	37.05	6.237	4.388	4.278	3.362	2.285	2.097	1.468	1.328	1.162	1.008	0.796	0.655	0.712	0.638	0.617	0.560	0.627	0.431	0.463	0.422	0.498	0.432	0.420	0.358	0.389	0.323	0.263	0.378	0.324	0.267	0.359	0.279	0.269	0.284	0.240	0.224	0.257	0.325	0.415	0.721	1.205	1.104	0.841	1.019	1.586	2.682	4.886	11.70	20.79	19.84	9.024	1.703	0.291	0.197	0.272	0.213	0.212	0.259	0.225	0.247	0.231	0.197	0.230	0.241	0.243	0.191	0.239
260.0	24.69	19.70	60.17	265.7	297.8	158.9	626.7	3282	3889	245.4	17.58	6.002	5.642	3.894	2.851	2.159	1.868	1.572	1.013	0.972	0.765	0.754	0.691	0.664	0.664	0.699	0.696	0.483	0.626	0.483	0.464	0.505	0.401	0.320	0.357	0.351	0.313	0.324	0.277	0.292	0.274	0.230	0.308	0.268	0.261	0.257	0.222	0.257	0.239	0.374	0.796	1.570	1.538	0.946	0.696	0.809	1.353	3.300	9.098	19.44	26.31	19.55	6.775	0.910	0.294	0.217	0.251	0.237	0.257	0.223	0.256	0.230	0.228	0.218	0.210	0.205	0.233
265.0	26.86	20.36	27.41	131.0	368.9	221.1	178.1	1139	4399	3860	188.1	10.55	6.320	4.466	3.208	2.335	2.059	1.712	1.291	1.084	0.689	0.774	0.641	0.740	0.649	0.612	0.720	0.531	0.680	0.549	0.451	0.479	0.421	0.360	0.358	0.364	0.388	0.342	0.281	0.277	0.287	0.213	0.405	0.260	0.266	0.230	0.250	0.249	0.212	0.230	0.421	0.772	1.677	2.219	1.393	0.572	0.523	0.972	2.380	5.767	14.63	27.09	29.10	16.80	3.828	0.434	0.229	0.246	0.245	0.234	0.228	0.267	0.216	0.208	0.235	0.262	0.265
270.0	30.59	27.14	22.84	46.33	182.3	380.1	265.9	303.7	1413	4004	3963	753.5	39.89	5.551	4.154	3.181	2.501	1.924	1.596	1.316	0.868	0.865	0.825	0.761	0.752	0.668	0.695	0.597	0.622	0.664	0.531	0.528	0.490	0.494	0.393	0.368	0.407	0.367	0.319	0.302	0.312	0.245	0.316	0.295	0.314	0.265	0.276	0.240	0.210	0.233	0.266	0.364	0.611	1.239	1.748	2.010	1.864	1.057	0.881	1.601	3.636	7.870	14.72	23.41	26.17	25.20	12.62	3.675	0.526	0.281	0.249	0.257	0.237	0.260	0.249	0.259	0.264
275.0	44.46	51.05	45.25	41.91	61.54	182.7	497.5	316.0	364.7	1013	3224	6903	1040	36.34	6.067	4.139	3.196	2.765	1.747	1.446	1.148	1.033	1.017	0.871	0.829	0.724	0.690	0.603	0.755	0.614	0.546	0.546	0.489	0.523	0.450	0.378	0.389	0.360	0.328	0.354	0.320	0.389	0.377	0.388	0.305	0.363	0.326	0.302	0.318	0.282	0.292	0.271	0.309	0.472	0.665	1.088	2.416	3.194	2.190	1.027	1.104	2.163	3.658	5.722	7.949	17.30	34.59	31.28	19.29	3.997	0.465	0.311	0.234	0.256	0.226	0.327	0.260
280.0	71.32	77.80	76.78	57.89	42.01	76.80	311.1	584.9	245.0	292.4	949.0	5091	6628	721.3	16.48	5.572	3.746	2.978	1.825	1.588	1.420	1.198	1.150	0.959	0.897	0.631	0.785	0.567	0.631	0.790	0.626	0.615	0.519	0.492	0.528	0.374	0.388	0.368	0.380	0.374	0.399	0.364	0.362	0.410	0.373	0.366	0.443	0.415	0.383	0.334	0.368	0.301	0.352	0.385	0.429	0.507	0.978	2.061	3.356	3.072	1.489	0.959	1.193	1.730	2.364	4.603	11.52	25.62	43.35	29.98	14.99	2.098	0.417	0.319	0.317	0.358	0.283
285.0	84.36	107.6	115.2	80.29	52.79	52.48	128.7	520.9	530.6	194.3	311.2	1535	6183	5554	115.0	9.625	4.787	3.331	2.094	1.825	1.661	1.167	1.151	0.989	0.920	0.649	0.814	0.733	0.674	0.660	0.660	0.712	0.583	0.448	0.500	0.484	0.414	0.419	0.400	0.301	0.396	0.346	0.387	0.407	0.362	0.443	0.506	0.551	0.498	0.431	0.436	0.401	0.385	0.421	0.410	0.399	0.555	0.847	1.590	3.136	3.853	2.247	1.175	0.942	1.162	1.665	3.068	6.927	16.87	31.83	45.66	26.17	9.339	0.870	0.399	0.331	0.299
290.0	108.7	137.7	164.9	119.7	80.72	70.14	92.33	238.8	561.3	512.6	245.9	488.6	1790	4618	5072	446.7	29.86	5.558	3.200	2.298	1.859	1.554	1.208	1.075	1.032	0.837	0.860	0.812	0.684	0.675	0.728	0.790	0.547	0.516	0.589	0.520	0.463	0.516	0.395	0.359	0.397	0.423	0.367	0.359	0.473	0.520	0.530	0.561	0.628	0.559	0.528	0.571	0.448	0.468	0.446	0.506	0.521	0.652	0.826	1.399	2.366	3.164	3.699	2.880	1.733	1.292	1.451	2.436	4.579	8.430	16.48	24.35	27.74	30.64	17.86	7.598	1.165
295.0	131.0	191.2	225.4	182.3	135.0	122.1	148.7	208.3	337.7	704.1	788.7	416.7	616.3	1208	2932	6104	658.9	35.83	5.948	3.128	2.325	1.795	1.567	1.215	1.170	1.005	0.976	0.818	0.639	0.688	0.789	0.756	0.658	0.576	0.567	0.508	0.533	0.548	0.477	0.418	0.386	0.450	0.438	0.364	0.468	0.485	0.677	0.718	0.725	0.704	0.774	0.730	0.701	0.634	0.734	0.600	0.780	0.907	0.990	1.079	1.435	1.817	2.559	4.116	5.109	3.485	1.876	1.988	2.312	3.050	4.681	6.455	7.481	13.95	29.84	43.97	27.35
300.0	154.4	261.1	335.9	308.1	261.9	272.6	338.6	357.8	584.2	871.4	1449	1127	829.3	787.3	1141	4137	5515	527.4	24.41	5.420	3.046	2.214	1.998	1.670	1.383	1.339	1.164	0.893	0.875	0.877	0.907	0.790	0.711	0.653	0.611	0.623	0.607	0.608	0.487	0.490	0.389	0.527	0.477	0.560	0.523	0.668	0.838	0.855	1.119	1.058	1.074	1.123	1.304	1.172	1.116	1.212	1.380	1.658	1.859	1.915	2.621	2.827	3.378	4.294	5.687	7.516	6.577	5.297	4.396	3.890	3.894	4.102	4.200	5.734	10.41	22.50	40.46
305.0	230.0	425.1	558.3	539.3	475.7	508.3	725.6	954.1	1298	1698	2248	2681	1458	1250	1169	1896	5413	4705	81.14	11.63	4.637	3.153	2.480	2.037	1.599	1.461	1.190	1.201	1.107	1.021	0.895	0.865	0.839	0.805	0.667	0.722	0.638	0.648	0.479	0.539	0.520	0.539	0.505	0.541	0.723	0.985	1.058	1.499	1.678	1.627	1.660	1.945	1.878	1.912	2.170	2.203	2.916	3.603	4.075	4.399	5.073	6.083	7.345	7.865	8.793	10.37	12.18	12.44	11.21	8.762	7.939	7.127	6.988	7.838	7.903	9.926	16.17
310.0	308.2	586.0	824.1	797.8	737.2	793.7	1054	1358	1690	2170	2640	3140	2923	2169	1770	1515	2449	4108	4004	1093	22.50	4.310	3.192	2.309	1.883	1.676	1.444	1.263	1.155	1.109	1.001	0.921	0.920	0.847	0.767	0.728	0.666	0.708	0.652	0.664	0.618	0.685	0.654	0.725	0.795	1.051	1.513	2.104	2.412	2.324	2.388	2.759	2.911	2.887	3.227	3.293	4.142	4.885	5.737	6.280	6.744	7.869	9.207	9.869	11.13	11.98	12.79	14.34	15.46	14.19	12.81	10.86	9.486	10.24	9.170	8.297	9.345
315.0	384.4	781.5	1078	1071	966.4	1015	1266	1565	1841	2353	2817	3209	3239	2933	2205	1586	1698	1569	2261	4582	491.9	20.58	4.320	2.742	2.227	1.937	1.611	1.549	1.425	1.187	1.129	1.055	0.904	0.865	0.746	0.695	0.684	0.691	0.631	0.625	0.628	0.704	0.665	0.862	1.016	1.261	1.847	2.617	3.231	3.079	3.358	3.672	3.746	3.699	4.003	4.147	4.678	5.887	6.761	7.371	7.481	8.463	9.934	11.09	12.12	12.72	13.35	15.04	15.32	15.18	15.54	14.81	13.18	11.91	10.30	9.031	8.576
320.0	444.7	912.4	1256	1189	1067	1105	1358	1641	1883	2394	2864	3248	3230	3059	2578	1693	1567	1017	712.0	2945	4006	385.0	9.635	3.666	2.985	2.283	1.904	1.461	1.471	1.153	1.081	0.946	0.944	0.925	0.836	0.749	0.876	0.739	0.678	0.704	0.641	0.655	0.794	0.775	1.117	1.501	2.097	2.951	3.488	3.711	3.570	4.062	4.026	4.052	4.161	4.393	5.286	6.343	6.917	7.177	7.723	8.557	9.644	11.34	12.16	12.84	13.73	14.94	15.33	15.08	14.83	14.87	15.65	13.76	11.58	9.630	8.766
325.0	452.7	934.7	1343	1328	1091	1075	1291	1567	1758	2184	2651	3031	3015	2748	2599	1775	1449	855.9	335.9	857.7	3497	3346	58.56	6.259	3.575	2.460	1.853	1.709	1.720	1.416	1.162	1.023	0.936	0.964	0.822	0.745	0.752	0.712	0.638	0.837	0.640	0.632	0.713	0.855	1.072	1.549	2.244	3.426	3.867	3.945	3.772	4.290	4.383	4.325	4.215	4.477	5.227	5.966	6.825	7.004	7.469	8.269	9.243	9.944	11.69	11.59	12.55	13.73	14.56	14.27	13.46	13.19	13.53	14.40	12.76	10.13	8.704
330.0	476.0	1009	1569	1713	1436	1153	1180	1386	1535	1878	2266	2623	2640	2392	2166	1776	1417	775.9	289.7	301.4	1008	2702	3090	865.6	17.46	3.471	2.363	2.041	1.714	1.431	1.212	1.129	1.031	0.914	0.846	0.814	0.781	0.740	0.665	0.719	0.716	0.652	0.686	0.926	1.067	1.593	2.245	3.553	4.427	4.681	5.027	5.748	5.567	5.449	4.731	4.409	4.857	5.324	6.100	6.356	6.683	6.900	7.891	8.791	9.837	10.16	11.07	11.64	12.56	12.51	12.13	11.76	11.54	11.80	11.18	10.36	9.260
335.0	475.8	1019	1750	2040	1822	1266	1070	1203	1320	1589	1921	2238	2262	2062	1824	1469	1426	834.2	321.9	222.5	338.2	703.8	1864	3701	405.6	16.78	3.533	2.226	1.967	1.741	1.331	1.171	1.129	0.959	0.879	0.922	0.733	0.730	0.744	0.768	0.627	0.711	0.755	0.866	0.949	1.495	2.348	3.568	4.737	5.246	5.718	7.126	6.798	6.746	5.428	4.257	4.313	4.870	5.261	5.449	5.578	5.825	6.723	7.515	8.193	8.913	9.504	10.30	10.70	10.61	11.03	10.39	10.21	9.957	8.831	8.157	8.303
340.0	447.0	964.5	1722	2050	1849	1254	973.4	1052	1132	1378	1643	1901	1947	1796	1563	1236	1193	903.0	366.4	215.0	196.8	252.3	544.1	2563	3266	321.9	7.156	2.758	2.100	1.697	1.538	1.442	1.270	1.065	0.924	0.895	0.810	0.743	0.746	0.674	0.604	0.675	0.713	0.845	1.029	1.380	2.304	3.552	4.520	5.156	5.747	7.208	7.443	6.838	5.308	3.978	4.121	4.294	4.658	4.538	4.931	5.276	5.605	6.482	7.063	7.641	8.314	8.528	9.026	8.823	9.339	8.986	8.684	8.641	7.912	6.734	7.000
345.0	417.5	899.4	1641	2011	1834	1215	873.9	921.4	990.9	1172	1399	1620	1671	1549	1344	1069	942.7	823.9	476.9	233.9	176.3	161.8	204.3	754.5	3005	2711	50.00	4.150	2.640	1.804	1.586	1.612	1.321	1.111	1.060	0.855	0.761	0.726	0.706	0.639	0.620	0.685	0.740	0.825	0.960	1.292	1.935	3.001	4.342	4.852	5.569	6.932	7.131	6.749	5.073	3.778	3.760	3.983	4.111	4.197	4.045	4.641	5.139	5.627	5.668	6.288	6.958	7.554	7.950	7.690	8.023	8.068	7.764	7.435	7.011	5.935	5.704
350.0	373.4	786.2	1479	1923	1861	1197	793.0	795.8	854.0	985.8	1158	1319	1364	1295	1133	910.2	782.3	633.9	523.6	365.3	206.1	162.9	149.2	230.7	864.7	2263	2443	218.7	13.53	2.441	1.898	1.643	1.304	1.114	1.018	0.855	0.818	0.827	0.687	0.653	0.692	0.677	0.644	0.704	0.866	1.163	1.674	2.747	3.968	4.569	5.455	6.811	7.052	6.953	5.072	3.534	3.418	3.345	3.450	3.731	3.778	3.897	4.261	5.013	4.835	5.325	5.707	6.018	6.170	6.281	6.657	6.726	6.513	6.227	5.842	5.318	5.187
355.0	331.4	666.5	1299	1714	1759	1137	724.3	721.4	746.9	850.0	960.3	1081	1111	1061	943.1	776.2	664.1	527.0	410.1	441.5	311.9	182.9	148.8	129.0	235.3	549.7	1588	2876	351.4	11.23	2.629	1.937	1.477	1.133	0.960	0.893	0.656	0.747	0.730	0.608	0.694	0.674	0.637	0.587	0.853	1.122	1.502	2.303	3.212	3.902	4.831	6.242	6.746	6.511	5.032	3.366	3.379	3.022	3.216	3.241	3.205	3.362	3.674	4.238	4.028	4.723	4.705	4.764	4.887	5.211	5.507	5.411	5.385	5.402	4.493	4.358	4.677
360.0	312.8	600.3	1116	1540	1600	1071	685.0	667.6	681.6	766.4	845.2	935.6	956.2	926.9	826.3	694.9	597.8	476.8	364.6	376.3	397.9	233.8	160.4	114.8	107.7	159.3	437.0	2164	2628	52.11	5.471	2.795	1.776	1.260	1.137	0.969	0.784	0.683	0.694	0.651	0.650	0.636	0.617	0.603	0.713	1.069	1.323	2.007	2.828	3.423	4.493	5.378	6.092	6.035	4.722	3.279	2.970	2.702	3.074	3.006	3.212	3.102	3.363	3.700	3.830	4.011	3.989	4.245	4.333	4.343	4.760	4.773	4.700	4.666	4.081	3.862	4.029
365.0	269.5	541.1	1013	1381	1496	1018	672.5	640.2	654.0	706.7	783.3	847.3	854.0	819.8	742.6	632.1	559.4	455.5	355.9	320.8	379.8	326.4	185.9	123.8	91.37	82.65	133.1	652.2	2612	2105	43.90	5.820	2.783	1.595	1.133	0.943	0.935	0.809	0.763	0.562	0.677	0.625	0.532	0.642	0.708	0.978	1.109	1.973	2.571	3.197	3.795	5.150	5.403	5.583	4.487	3.224	2.919	2.671	2.841	2.834	2.909	3.001	3.182	3.473	3.460	3.555	3.799	3.655	3.946	4.068	4.134	4.121	4.266	4.029	3.585	3.770	3.498
370.0	239.7	465.8	890.9	1269	1388	991.7	660.4	619.0	632.5	672.9	735.2	776.8	800.4	754.2	667.7	576.0	515.5	437.4	357.2	313.2	311.4	349.0	294.3	170.2	118.5	96.24	100.9	209.7	796.9	2014	2068	196.9	18.78	4.767	1.925	1.161	1.084	0.839	0.795	0.621	0.645	0.647	0.583	0.576	0.739	0.900	1.096	1.734	2.256	2.926	3.541	4.640	5.107	5.383	4.346	3.227	3.040	2.777	2.874	2.869	2.758	2.875	2.939	3.137	3.319	3.341	3.449	3.422	3.602	4.040	3.899	3.687	3.811	3.826	3.383	3.455	3.355
375.0	243.5	421.6	780.1	1167	1339	1015	675.0	620.7	638.4	687.2	782.1	797.6	911.0	790.0	616.2	540.3	486.8	427.6	367.4	325.2	306.5	305.3	366.4	311.3	195.2	169.6	201.3	229.5	304.1	593.4	1633	2586	304.6	21.74	3.807	1.741	1.331	0.852	0.771	0.747	0.585	0.639	0.561	0.584	0.719	0.858	1.047	1.598	2.061	2.734	3.169	4.340	4.848	5.059	4.368	3.264	3.008	2.721	2.631	2.797	3.070	2.940	2.932	3.312	3.549	3.512	3.451	3.570	3.907	4.357	4.521	3.687	3.445	3.564	3.322	3.191	3.211
380.0	223.7	401.2	743.6	1132	1319	1040	704.4	632.7	649.7	707.9	823.9	844.8	1017	828.8	595.2	514.8	470.1	416.9	373.1	338.1	323.5	304.8	345.7	407.9	289.1	236.4	296.0	312.4	254.3	315.8	698.5	2193	2127	218.0	7.280	2.342	1.526	0.990	0.919	0.746	0.648	0.728	0.553	0.662	0.666	0.838	1.002	1.516	2.004	2.542	3.099	4.051	4.713	5.113	4.502	3.375	3.095	2.706	2.868	2.859	3.068	3.036	2.961	3.445	3.726	3.945	3.693	3.684	4.036	4.833	5.078	3.883	3.450	3.166	3.034	3.303	2.887
385.0	202.7	378.9	708.7	1060	1286	1046	706.7	641.6	649.1	713.8	847.0	848.0	1053	847.6	576.2	491.3	454.7	415.5	371.3	347.4	333.4	313.4	328.7	406.3	381.8	292.3	348.5	366.7	272.2	281.6	462.2	921.7	2192	1577	36.24	3.510	1.811	1.129	1.054	0.776	0.689	0.722	0.634	0.676	0.688	0.820	0.992	1.346	1.848	2.351	2.761	4.041	4.638	5.103	4.481	3.665	3.259	2.858	2.971	2.873	3.174	3.237	3.052	3.368	3.409	4.121	3.954	3.873	3.965	4.970	5.179	4.009	3.346	3.016	2.905	3.187	2.965
390.0	184.2	337.0	622.0	952.5	1140	948.4	683.7	622.5	627.7	667.9	761.8	761.6	920.1	762.2	534.5	462.9	427.3	395.7	363.0	342.2	328.0	309.7	311.8	337.7	361.7	340.3	332.7	328.2	241.4	235.3	341.5	430.3	715.3	1513	1416	149.9	8.114	1.640	1.117	0.846	0.753	0.713	0.665	0.688	0.661	0.750	0.861	1.280	1.735	2.026	2.541	3.382	4.147	4.441	4.188	3.225	3.104	2.779	2.746	2.725	2.811	3.095	2.944	3.130	3.135	3.747	3.594	3.455	3.501	4.485	4.651	3.678	3.159	2.987	2.805	2.867	2.815
395.0	162.0	306.8	561.6	860.8	1010	871.7	678.4	606.1	609.9	633.9	717.6	710.2	836.4	704.8	499.6	440.0	404.3	384.5	356.3	338.5	326.5	309.9	309.2	315.6	312.8	350.9	384.5	333.9	239.6	227.8	305.5	309.6	243.4	387.0	1058	1675	228.7	5.878	1.533	1.011	0.757	0.783	0.657	0.716	0.694	0.700	0.848	1.235	1.508	1.891	2.516	3.265	3.701	3.881	3.886	3.205	3.034	2.825	2.679	2.603	2.770	2.767	2.814	2.861	2.903	3.274	3.481	3.148	3.291	4.314	4.445	3.399	3.085	2.820	2.623	2.814	2.745
400.0	161.4	291.4	536.9	815.5	987.2	873.2	665.6	607.2	595.2	632.2	721.8	702.9	845.2	697.9	480.1	423.3	393.5	376.8	353.6	337.4	327.9	317.9	320.4	326.2	308.3	328.4	433.5	390.5	264.1	251.6	333.2	315.9	152.0	122.1	300.0	1359	1421	36.07	2.756	1.307	1.075	0.948	0.629	0.739	0.677	0.683	0.912	1.294	1.505	1.821	2.068	3.119	3.489	3.789	3.719	3.241	2.850	2.778	2.740	2.679	2.675	2.633	2.835	2.754	3.158	3.354	3.116	3.083	3.144	4.341	4.525	3.280	2.985	2.691	2.443	2.679	2.575
405.0	164.5	272.5	509.1	776.1	951.0	867.1	657.7	598.0	595.7	630.3	713.2	688.9	825.7	682.0	461.1	413.9	384.7	364.3	346.7	334.2	326.4	317.2	321.6	332.6	310.5	314.5	418.9	440.5	292.0	266.5	349.2	324.1	138.2	65.81	84.94	421.3	1465	1063	28.63	1.696	1.160	0.937	0.747	0.766	0.561	0.704	0.869	1.116	1.454	1.734	2.030	2.994	3.410	3.706	3.526	3.066	2.982	2.756	2.697	2.728	2.535	2.712	2.569	2.629	2.740	3.188	3.054	2.962	3.202	4.128	4.446	3.211	2.640	2.608	2.694	2.361	2.529
410.0	144.0	256.8	465.3	690.0	840.2	782.4	639.9	585.2	567.2	590.5	645.1	616.4	724.6	603.2	438.4	390.0	365.3	345.2	330.0	318.4	308.3	300.9	301.7	310.3	290.6	283.8	337.8	376.3	307.9	250.1	291.9	264.3	118.9	55.58	39.88	108.2	436.5	1051	1020	134.2	6.235	1.148	0.936	0.771	0.601	0.711	0.801	1.061	1.309	1.606	1.851	2.731	3.151	3.293	3.079	2.740	2.651	2.664	2.619	2.437	2.358	2.608	2.659	2.634	2.773	2.938	2.793	2.780	3.009	3.596	3.957	2.959	2.520	2.506	2.359	2.210	2.415
415.0	125.8	231.6	419.5	597.4	735.4	701.1	613.0	565.5	552.7	547.9	577.8	548.2	613.4	524.5	409.7	365.0	343.5	325.2	315.2	301.2	290.1	281.1	278.9	281.9	267.2	255.8	281.1	288.6	278.2	255.2	239.8	202.3	101.5	54.94	34.21	41.15	108.6	256.5	741.8	1180	194.6	4.524	1.130	0.826	0.662	0.725	0.751	1.024	1.285	1.363	1.762	2.193	2.654	2.720	2.772	2.849	2.494	2.436	2.605	2.511	2.465	2.451	2.477	2.510	2.547	2.679	2.654	2.430	2.538	3.001	3.213	2.556	2.396	2.310	2.207	2.197	2.231
