Sample:	'1
File name:	T2025032002º«µêºÓ2.FD3
Run date:	'09:24:05, 03/21/2025
Operator:	Administrator
Comment:	'

Instrument
Model:	F-2700 FL Spectrophotometer
Serial number:	23B8-004
ROM Version:	4J14000 07

Instrument parameters
Measurement type:	3-D scan
Data mode:	Fluorescence
EX  Start WL:	220.0 nm
EX  End WL:	600.0 nm
EX Sampling interval:	5.0 nm
EM  Start WL:	230.0 nm
EM  End WL:	650.0 nm
EM Sampling interval:	5.0 nm
Scan speed:	12000 nm/min
EX Slit:	5.0 nm
EM Slit:	5.0 nm
PMT Voltage:	700 V
Response:	Auto 
Corrected spectra:	Off
Contour interval:	50.000

Peak integration
Integration method:	Rectangular
Sensitivity:	1
Threshold:	1.000

Peaks
No.	ApexEX/EM(nm)	Height(Data)
1	225.0/340.0	787.8
2	225.0/415.0	359.7
3	225.0/490.0	269.7
4	230.0/345.0	783.5
5	230.0/500.0	255.3
6	235.0/255.0	387.9
7	235.0/405.0	370.8
8	235.0/510.0	197.4
9	240.0/265.0	454.6
10	240.0/525.0	186.9
11	245.0/270.0	427.9
12	245.0/440.0	299.5
13	245.0/535.0	155.5
14	250.0/275.0	556.4
15	250.0/445.0	291.6
16	250.0/550.0	141.1
17	255.0/280.0	627.0
18	255.0/565.0	124.6
19	260.0/290.0	582.1
20	260.0/575.0	107.3
21	265.0/295.0	650.5
22	265.0/585.0	93.44
23	270.0/300.0	888.6
24	270.0/600.0	80.65
25	275.0/305.0	909.5
26	275.0/610.0	65.97
27	280.0/310.0	796.8
28	280.0/625.0	58.15
29	285.0/315.0	790.8
30	285.0/635.0	43.56
31	290.0/325.0	728.2
32	295.0/330.0	531.6
33	300.0/335.0	477.8
34	305.0/345.0	377.7
35	310.0/350.0	298.2
36	315.0/355.0	279.6
37	320.0/360.0	268.9
38	325.0/370.0	238.0
39	330.0/375.0	235.6
40	335.0/380.0	238.9
41	345.0/395.0	187.8
42	350.0/400.0	193.0
43	355.0/405.0	174.3
44	360.0/415.0	146.9
45	365.0/420.0	150.0
46	370.0/425.0	130.4
47	380.0/440.0	99.25
48	385.0/445.0	88.33
49	395.0/460.0	62.18
50	400.0/465.0	54.31
51	410.0/480.0	36.59
52	415.0/485.0	32.41
53	425.0/500.0	23.92
54	430.0/505.0	20.49
55	440.0/520.0	14.76
56	445.0/525.0	12.70
57	455.0/340.0	2.099
58	455.0/540.0	8.940
59	460.0/335.0	2.117
60	470.0/560.0	4.070
61	485.0/265.0	2.293
62	495.0/270.0	2.129
63	505.0/275.0	3.202
64	510.0/280.0	3.555
65	515.0/285.0	3.632
66	530.0/290.0	3.501
67	540.0/295.0	4.419
68	545.0/300.0	4.706
69	550.0/305.0	4.800
70	560.0/310.0	4.324
71	570.0/315.0	4.753
72	580.0/320.0	4.747
73	585.0/325.0	4.494

Data points
	220.0	225.0	230.0	235.0	240.0	245.0	250.0	255.0	260.0	265.0	270.0	275.0	280.0	285.0	290.0	295.0	300.0	305.0	310.0	315.0	320.0	325.0	330.0	335.0	340.0	345.0	350.0	355.0	360.0	365.0	370.0	375.0	380.0	385.0	390.0	395.0	400.0	405.0	410.0	415.0	420.0	425.0	430.0	435.0	440.0	445.0	450.0	455.0	460.0	465.0	470.0	475.0	480.0	485.0	490.0	495.0	500.0	505.0	510.0	515.0	520.0	525.0	530.0	535.0	540.0	545.0	550.0	555.0	560.0	565.0	570.0	575.0	580.0	585.0	590.0	595.0	600.0
230.0	65.70	982.0	2000	507.9	14.78	2.646	1.819	1.697	1.621	1.234	1.073	1.262	0.986	0.737	0.695	0.609	0.526	0.433	0.421	0.365	0.329	0.275	0.299	0.265	0.241	0.219	0.188	0.182	0.173	0.185	0.155	0.154	0.129	0.164	0.151	0.137	0.142	0.130	0.135	0.122	0.322	0.684	0.553	0.231	0.097	0.167	1.181	4.570	6.587	3.992	1.197	0.215	0.065	0.073	0.065	0.068	0.066	0.047	0.051	0.060	0.052	0.056	0.050	0.066	0.056	0.053	0.051	0.050	0.043	0.051	0.051	0.044	0.041	0.060	0.042	0.052	0.049
235.0	191.3	285.1	1280	1815	458.0	21.18	3.080	2.269	1.401	1.625	1.318	1.498	1.357	0.704	0.807	0.566	0.555	0.356	0.431	0.461	0.303	0.259	0.294	0.239	0.233	0.225	0.235	0.220	0.161	0.138	0.151	0.181	0.166	0.123	0.142	0.099	0.151	0.079	0.142	0.125	0.150	0.314	0.619	0.713	0.503	0.252	0.373	1.211	2.802	4.477	5.297	5.608	2.138	0.362	0.077	0.061	0.062	0.052	0.074	0.060	0.080	0.039	0.036	0.062	0.055	0.048	0.058	0.056	0.039	0.069	0.043	0.063	0.057	0.051	0.036	0.043	0.066
240.0	284.7	188.0	388.0	1626	1825	348.2	11.49	2.996	2.393	1.760	1.763	1.645	1.511	1.012	0.695	0.647	0.723	0.567	0.493	0.554	0.270	0.305	0.233	0.266	0.275	0.222	0.188	0.207	0.242	0.132	0.181	0.159	0.160	0.159	0.138	0.087	0.170	0.097	0.121	0.128	0.132	0.177	0.277	0.428	0.677	0.872	0.476	0.365	0.714	1.358	3.273	7.098	8.195	5.263	1.673	0.238	0.065	0.067	0.099	0.063	0.056	0.045	0.045	0.058	0.042	0.061	0.062	0.065	0.058	0.058	0.047	0.065	0.055	0.045	0.041	0.084	0.047
245.0	189.6	309.4	160.3	587.2	2073	1813	236.3	6.339	3.333	2.709	1.940	1.512	1.472	1.094	0.560	0.649	0.772	0.712	0.497	0.443	0.374	0.295	0.290	0.255	0.268	0.251	0.273	0.200	0.215	0.169	0.160	0.155	0.201	0.203	0.140	0.117	0.166	0.122	0.140	0.114	0.142	0.098	0.116	0.190	0.388	0.757	0.957	0.690	0.305	0.399	0.882	2.538	6.457	9.705	9.520	4.404	0.965	0.138	0.070	0.069	0.055	0.043	0.045	0.075	0.062	0.080	0.076	0.054	0.042	0.061	0.063	0.061	0.046	0.046	0.042	0.065	0.040
250.0	61.61	223.6	297.6	237.2	684.7	1885	2260	718.0	33.80	3.790	2.740	2.204	1.681	1.284	1.002	0.779	0.732	0.642	0.499	0.529	0.399	0.330	0.349	0.300	0.276	0.259	0.301	0.206	0.262	0.208	0.166	0.157	0.164	0.219	0.112	0.133	0.137	0.128	0.142	0.124	0.202	0.127	0.121	0.106	0.178	0.323	0.548	1.002	1.053	0.840	0.540	0.726	1.658	3.283	6.037	8.863	11.48	9.321	4.550	1.063	0.128	0.074	0.058	0.084	0.076	0.075	0.065	0.044	0.051	0.055	0.067	0.052	0.053	0.041	0.050	0.059	0.041
255.0	25.24	67.25	228.5	387.9	243.7	492.9	1879	2904	296.6	28.66	4.084	3.056	2.093	1.759	1.489	1.058	0.841	0.716	0.673	0.563	0.487	0.393	0.309	0.328	0.283	0.303	0.318	0.235	0.232	0.247	0.181	0.186	0.118	0.285	0.140	0.168	0.145	0.151	0.103	0.128	0.131	0.134	0.115	0.104	0.127	0.166	0.219	0.326	0.529	0.946	1.192	1.205	0.802	0.838	1.445	2.229	4.518	10.22	17.33	16.49	6.766	1.081	0.097	0.092	0.087	0.068	0.079	0.066	0.041	0.078	0.078	0.045	0.061	0.071	0.090	0.048	0.055
260.0	17.06	25.76	82.60	357.5	341.0	159.3	572.9	2820	2350	238.7	12.90	4.286	2.354	1.903	1.642	1.171	1.045	0.717	0.646	0.617	0.405	0.349	0.428	0.306	0.310	0.347	0.314	0.311	0.235	0.211	0.201	0.211	0.203	0.186	0.194	0.182	0.147	0.158	0.131	0.165	0.126	0.123	0.137	0.127	0.141	0.152	0.124	0.174	0.196	0.358	0.836	1.718	1.728	0.998	0.478	0.615	1.170	2.848	7.746	17.40	22.30	14.81	4.553	0.509	0.109	0.073	0.064	0.079	0.062	0.090	0.069	0.091	0.068	0.063	0.088	0.038	0.080
265.0	19.81	16.50	27.73	168.4	454.6	244.6	163.9	978.6	3725	2028	177.1	6.607	3.263	2.551	1.802	1.140	1.100	0.763	0.695	0.709	0.636	0.461	0.497	0.427	0.332	0.332	0.325	0.284	0.290	0.285	0.240	0.224	0.179	0.184	0.184	0.217	0.112	0.147	0.167	0.152	0.157	0.107	0.196	0.123	0.142	0.084	0.131	0.161	0.127	0.179	0.308	0.849	1.719	2.293	1.444	0.502	0.394	0.816	1.958	5.195	12.46	22.50	23.34	12.50	2.572	0.146	0.092	0.089	0.086	0.076	0.066	0.080	0.048	0.052	0.073	0.069	0.050
270.0	30.56	18.42	16.73	49.49	210.4	427.9	273.8	262.4	1223	3269	3508	706.1	30.83	3.641	2.531	1.795	1.357	1.066	0.854	0.748	0.719	0.528	0.482	0.504	0.367	0.323	0.366	0.304	0.298	0.282	0.267	0.244	0.273	0.269	0.176	0.238	0.180	0.192	0.206	0.178	0.175	0.156	0.178	0.168	0.151	0.168	0.134	0.141	0.138	0.116	0.148	0.299	0.596	1.209	1.915	2.129	1.674	0.849	0.679	1.322	3.058	6.554	12.40	19.13	21.98	18.52	9.682	2.377	0.237	0.100	0.089	0.073	0.076	0.071	0.062	0.094	0.081
275.0	70.76	47.64	27.35	24.06	58.51	189.0	556.4	307.4	316.3	835.8	2993	5832	903.8	24.71	4.495	2.527	1.751	1.365	1.135	1.075	0.788	0.516	0.473	0.505	0.396	0.335	0.316	0.317	0.342	0.256	0.300	0.291	0.269	0.323	0.297	0.374	0.453	0.335	0.262	0.273	0.239	0.299	0.259	0.253	0.230	0.192	0.245	0.154	0.147	0.101	0.130	0.183	0.220	0.348	0.552	0.961	2.045	3.202	1.941	0.781	0.899	1.657	2.960	4.694	6.872	15.45	28.81	28.25	13.31	2.095	0.158	0.141	0.111	0.131	0.072	0.070	0.077
280.0	129.8	86.38	44.77	27.20	28.69	66.49	351.1	627.0	221.3	241.0	880.1	4728	5162	142.3	10.47	3.682	2.573	1.731	1.355	1.110	0.891	0.687	0.580	0.564	0.449	0.366	0.474	0.329	0.350	0.288	0.351	0.349	0.230	0.471	0.440	0.510	0.486	0.463	0.334	0.342	0.264	0.370	0.317	0.350	0.302	0.376	0.389	0.306	0.179	0.172	0.137	0.142	0.160	0.185	0.232	0.375	0.764	2.146	3.555	2.790	1.217	0.737	0.914	1.343	1.834	4.088	10.34	23.07	34.71	24.95	9.174	1.071	0.151	0.140	0.088	0.061	0.126
285.0	176.4	119.7	72.52	35.66	27.36	33.19	127.9	575.8	522.3	151.9	266.5	1475	5394	3995	102.8	6.229	3.330	2.274	1.505	1.159	0.884	0.830	0.698	0.593	0.494	0.500	0.588	0.375	0.265	0.337	0.279	0.285	0.372	0.482	0.603	0.658	0.639	0.679	0.438	0.459	0.364	0.481	0.373	0.481	0.412	0.601	0.456	0.267	0.287	0.243	0.167	0.175	0.211	0.168	0.215	0.206	0.342	0.714	1.776	3.632	3.588	2.144	0.792	0.626	0.773	1.240	2.752	6.322	15.07	28.80	32.48	20.09	5.135	0.405	0.107	0.098	0.136
290.0	216.9	163.7	98.04	56.43	38.54	37.38	62.65	221.2	582.1	490.7	195.8	415.6	1608	3882	3884	420.7	21.29	3.615	2.068	1.551	1.108	0.938	0.832	0.647	0.557	0.584	0.565	0.486	0.355	0.326	0.302	0.355	0.379	0.522	0.594	0.770	0.827	0.763	0.669	0.517	0.499	0.553	0.503	0.602	0.521	0.540	0.429	0.411	0.407	0.306	0.239	0.233	0.245	0.227	0.245	0.233	0.298	0.365	0.686	1.299	2.136	3.197	3.501	2.209	1.167	0.750	1.073	1.847	3.783	7.699	13.37	21.05	24.50	23.57	13.52	4.383	0.576
295.0	245.9	198.2	127.9	79.07	57.40	52.75	62.20	106.8	235.4	650.5	621.0	233.2	440.7	961.5	2641	4693	584.5	17.19	3.260	1.743	1.698	1.189	1.075	0.737	0.667	0.609	0.552	0.521	0.429	0.474	0.402	0.418	0.464	0.631	0.704	0.800	0.814	0.824	0.683	0.698	0.609	0.657	0.581	0.634	0.640	0.621	0.502	0.596	0.510	0.361	0.326	0.287	0.291	0.287	0.306	0.308	0.351	0.383	0.394	0.633	0.832	1.203	1.933	3.418	4.419	2.538	1.058	0.939	1.381	2.238	3.414	5.068	6.509	12.64	26.05	32.31	20.43
300.0	266.2	226.1	164.6	109.2	78.12	73.41	83.30	105.3	152.2	367.2	888.6	467.4	221.7	303.2	746.2	3540	4137	85.97	7.683	2.700	2.152	1.421	1.086	0.977	0.860	0.725	0.623	0.491	0.473	0.483	0.391	0.415	0.468	0.707	0.704	0.787	0.766	0.806	0.630	0.685	0.632	0.705	0.660	0.659	0.662	0.665	0.633	0.642	0.535	0.404	0.394	0.405	0.388	0.316	0.419	0.379	0.455	0.374	0.493	0.495	0.603	0.787	1.156	1.917	3.537	4.706	3.659	1.516	1.049	1.042	1.366	1.567	1.986	3.388	8.054	19.32	33.91
305.0	309.3	267.0	217.9	142.9	107.8	104.3	119.2	137.6	175.6	270.3	663.4	909.5	345.8	202.7	277.7	1109	4155	3145	66.50	4.476	2.660	1.854	1.286	0.985	0.914	0.784	0.599	0.495	0.501	0.481	0.495	0.419	0.551	0.592	0.758	0.797	0.945	0.918	0.695	0.819	0.761	0.752	0.724	0.650	0.759	0.738	0.775	0.784	0.694	0.525	0.483	0.543	0.460	0.463	0.446	0.535	0.518	0.591	0.556	0.780	0.740	0.821	0.994	1.457	1.821	3.224	4.800	4.675	2.467	1.502	1.270	1.121	1.111	1.408	2.303	5.114	12.23
310.0	343.3	332.2	273.9	191.4	145.2	135.8	157.8	183.4	212.0	272.2	417.5	746.7	796.8	370.9	226.6	359.4	1268	2973	2963	291.3	15.37	2.720	2.060	1.268	1.035	0.880	0.741	0.645	0.579	0.498	0.559	0.426	0.485	0.579	0.709	0.740	0.878	0.853	0.736	0.830	0.682	0.815	0.734	0.711	0.904	0.817	0.815	0.899	0.864	0.686	0.601	0.642	0.567	0.556	0.540	0.636	0.673	0.744	0.821	0.918	0.828	1.019	1.150	1.395	1.444	1.879	2.633	3.710	4.324	4.021	2.922	1.825	1.328	1.217	1.342	1.827	3.438
315.0	437.0	444.7	358.5	246.3	177.6	168.7	188.0	207.5	235.2	284.9	373.9	480.4	683.7	790.8	326.9	218.5	389.8	751.8	1956	3501	438.7	11.46	2.893	1.636	1.361	1.068	0.782	0.703	0.671	0.529	0.557	0.437	0.465	0.597	0.711	0.761	0.791	0.811	0.724	0.904	0.857	0.846	0.824	0.866	0.918	1.061	1.016	1.098	0.908	0.780	0.730	0.789	0.761	0.733	0.707	0.778	0.873	0.931	1.018	0.904	1.018	1.141	1.224	1.448	1.449	1.589	1.967	2.201	2.621	3.345	4.753	4.411	2.701	1.673	1.284	1.125	1.513
320.0	529.0	511.0	416.2	286.5	204.2	188.7	198.1	225.2	253.1	304.2	373.0	434.8	505.1	781.7	586.7	225.0	206.6	240.9	536.8	2556	3057	64.84	5.521	2.411	1.678	1.264	0.755	0.688	0.781	0.638	0.527	0.496	0.441	0.592	0.637	0.715	0.761	0.780	0.723	0.868	0.976	1.009	0.954	0.911	1.056	1.342	1.297	1.275	1.242	0.974	0.804	0.959	0.883	0.740	0.708	0.784	1.029	1.014	1.023	1.138	1.212	1.031	1.442	1.447	1.453	1.688	1.959	1.789	1.934	2.674	3.068	4.123	4.747	3.167	1.985	1.217	1.160
325.0	589.3	613.3	535.0	338.9	220.2	192.5	200.4	235.1	257.9	309.4	376.9	428.0	447.7	549.7	728.2	365.1	181.2	132.2	157.8	762.1	2938	2358	53.25	3.827	1.926	1.380	0.959	0.828	0.748	0.771	0.558	0.524	0.504	0.661	0.651	0.705	0.808	0.809	0.767	0.789	0.859	1.066	0.970	1.109	1.330	1.387	1.510	1.719	1.557	1.253	1.022	1.116	0.874	0.753	0.770	0.788	0.937	0.959	1.023	1.052	1.015	1.077	1.337	1.636	1.540	1.837	2.001	2.017	1.987	2.240	2.468	2.625	3.483	4.494	3.532	2.054	1.274
330.0	656.9	720.6	686.0	498.8	294.2	211.8	204.7	231.4	258.1	304.2	370.2	420.3	426.1	426.8	499.2	531.6	305.8	124.0	83.79	203.0	858.9	2172	2254	235.9	12.38	2.089	1.465	1.190	0.930	0.829	0.640	0.623	0.523	0.608	0.637	0.689	0.780	0.880	0.798	0.850	0.930	1.037	1.093	1.175	1.391	1.649	1.728	1.944	1.888	1.647	1.398	1.538	1.170	0.974	0.895	0.787	0.871	0.961	1.113	1.191	1.068	1.190	1.300	1.532	1.542	1.736	1.805	2.030	2.006	2.188	2.187	2.186	2.231	2.679	3.198	3.212	2.926
335.0	696.8	781.9	763.3	604.2	366.2	235.0	205.1	227.1	243.3	302.9	356.8	397.4	404.6	382.6	354.3	373.0	477.8	222.3	80.97	86.05	222.1	529.7	1564	2772	358.4	9.610	2.052	1.695	0.967	0.919	0.931	0.742	0.531	0.623	0.721	0.792	0.736	0.860	0.708	0.895	0.959	0.997	1.079	1.264	1.457	1.576	1.711	2.045	2.117	1.943	1.592	1.791	1.493	1.018	0.961	0.810	0.839	0.870	0.969	1.198	1.057	1.079	1.241	1.359	1.629	1.594	1.851	1.754	1.791	1.893	1.895	1.883	1.948	2.000	2.000	1.994	2.835
340.0	666.7	787.8	777.6	612.9	395.8	245.6	210.6	227.3	235.1	283.7	334.6	372.2	380.4	356.6	307.5	269.1	378.4	376.4	122.2	65.47	85.39	146.2	434.1	2114	2431	54.66	4.442	1.734	1.055	1.131	0.925	0.670	0.750	0.603	0.743	0.738	0.796	0.810	0.900	0.789	0.876	1.017	1.101	1.327	1.303	1.649	1.683	2.099	2.067	1.861	1.673	1.977	1.553	1.172	1.011	0.849	0.867	0.891	1.039	1.091	1.090	1.166	1.137	1.361	1.553	1.605	1.597	1.692	1.844	1.790	1.802	1.813	1.803	1.899	1.564	1.438	1.855
345.0	638.9	752.9	783.5	635.3	398.1	252.3	208.9	221.9	229.6	272.5	315.6	352.0	358.8	336.4	289.1	236.4	249.1	377.7	242.6	76.01	60.88	67.66	124.3	642.8	2425	1842	44.48	2.694	1.464	1.234	1.080	0.744	0.650	0.748	0.744	0.796	0.847	0.801	0.855	0.801	0.921	0.991	1.103	1.203	1.330	1.508	1.596	1.871	2.081	1.944	1.901	1.992	1.718	1.320	1.113	0.874	0.859	0.870	1.076	0.976	1.071	1.098	1.235	1.284	1.417	1.448	1.640	1.661	1.680	1.721	1.644	1.571	1.769	1.724	1.412	1.473	1.353
350.0	595.7	692.7	724.4	619.1	414.5	266.6	212.8	213.9	223.6	259.3	290.9	319.4	325.3	308.8	268.3	218.1	192.6	230.1	298.2	197.1	71.57	59.45	62.79	168.6	727.1	1754	1726	204.2	9.832	1.695	1.171	0.953	0.711	0.811	0.664	0.765	0.776	0.805	0.795	0.776	0.823	0.990	1.047	1.092	1.194	1.402	1.492	1.702	1.925	1.819	1.773	1.884	1.637	1.285	1.124	0.965	0.999	0.912	1.050	0.938	1.095	1.156	1.235	1.134	1.338	1.299	1.494	1.547	1.586	1.521	1.538	1.469	1.610	1.489	1.340	1.406	1.247
355.0	555.8	610.4	640.3	566.7	412.8	274.2	221.6	222.2	217.5	240.3	267.2	292.0	291.7	281.8	247.1	207.4	179.4	167.8	190.8	279.6	174.4	72.68	59.29	72.10	186.9	428.4	1262	2096	305.4	6.927	1.645	1.163	0.928	0.765	0.579	0.833	0.761	0.741	0.889	0.633	0.712	0.869	0.887	1.013	1.058	1.327	1.388	1.676	1.677	1.437	1.667	1.587	1.660	1.340	1.141	1.012	1.004	0.975	1.033	0.943	1.132	0.978	1.095	1.072	1.083	1.243	1.324	1.291	1.379	1.435	1.488	1.409	1.600	1.335	1.351	1.337	1.248
360.0	515.6	573.1	590.1	530.8	393.7	277.5	234.2	220.6	220.2	229.1	251.5	271.4	274.1	266.3	236.6	204.1	179.7	156.6	147.4	217.2	268.9	124.6	67.96	56.35	72.55	118.0	357.9	1702	1866	49.35	2.993	1.491	1.075	0.919	0.695	0.707	0.622	0.717	0.908	0.652	0.750	0.776	0.906	0.910	1.061	1.146	1.249	1.365	1.572	1.577	1.670	1.718	1.563	1.274	1.357	1.116	1.048	1.005	0.947	0.975	1.005	0.953	1.078	1.118	1.219	1.274	1.230	1.200	1.297	1.337	1.340	1.398	1.449	1.326	1.392	1.192	1.094
365.0	485.4	511.2	546.4	506.0	396.5	288.9	239.4	222.6	226.7	228.7	247.1	260.7	261.8	253.0	234.3	201.2	179.0	159.0	142.9	158.3	252.4	218.7	93.19	62.56	56.02	54.63	101.4	536.1	1983	1453	38.70	2.281	1.250	1.070	0.949	0.735	0.711	0.819	0.886	0.677	0.759	0.792	0.938	0.864	0.916	1.136	1.237	1.482	1.541	1.403	1.449	1.786	1.627	1.413	1.239	0.990	0.959	1.000	0.918	1.092	1.005	1.100	1.094	1.151	1.268	1.161	1.118	1.265	1.267	1.212	1.282	1.431	1.387	1.275	1.263	1.197	1.211
370.0	450.2	490.9	509.3	468.2	386.9	305.0	248.5	233.3	230.3	234.2	241.6	255.5	250.7	244.3	226.2	202.2	182.3	164.1	152.6	148.5	173.5	238.0	191.1	88.37	62.31	50.58	51.44	142.2	610.3	1490	1430	176.3	7.890	1.581	1.035	0.755	0.804	0.788	0.775	0.710	0.769	0.872	0.786	0.859	0.898	1.108	1.084	1.344	1.354	1.267	1.336	1.511	1.498	1.307	1.278	1.116	1.038	1.085	1.124	1.122	1.041	0.987	1.107	1.082	1.108	1.122	1.121	1.082	1.182	1.049	1.220	1.272	1.345	1.306	1.263	1.235	1.158
375.0	418.1	453.1	472.3	436.4	382.9	315.5	256.2	245.1	239.3	242.7	241.3	250.1	243.9	235.3	217.5	200.2	188.9	172.6	162.3	153.6	151.6	167.6	235.6	181.5	86.07	62.51	52.02	61.89	157.6	371.6	1112	1680	249.6	5.688	1.307	1.019	0.986	0.798	0.828	0.654	0.777	0.752	0.657	0.885	0.857	0.947	1.027	1.145	1.274	1.186	1.283	1.427	1.398	1.400	1.169	1.067	1.187	1.044	1.139	1.142	1.153	0.971	1.042	1.058	1.068	1.175	1.065	1.033	1.101	1.012	1.215	1.301	1.241	1.272	1.305	1.263	1.277
380.0	413.9	442.6	445.7	416.8	375.8	320.8	273.2	256.9	245.2	245.7	246.3	249.9	249.1	234.8	215.8	200.1	186.7	177.6	168.8	158.7	151.4	147.5	189.1	238.9	135.2	76.10	59.74	52.04	63.08	104.0	323.5	1402	1406	40.53	2.397	1.251	1.043	0.886	0.801	0.671	0.795	0.745	0.859	0.861	0.956	0.854	0.952	1.129	1.239	1.116	1.040	1.345	1.474	1.314	1.197	1.212	1.150	1.099	1.091	1.097	1.119	1.055	1.079	1.297	1.130	1.179	1.098	1.098	1.179	1.142	1.210	1.152	1.148	1.331	1.204	1.273	1.152
385.0	396.5	415.5	415.2	417.0	368.9	321.2	278.0	263.4	255.6	247.3	248.8	243.1	247.5	235.9	211.8	200.4	191.8	180.2	175.3	164.9	155.5	148.6	153.1	214.3	202.7	100.1	68.71	57.16	48.00	49.02	94.63	451.6	1487	1057	30.25	1.723	1.290	1.032	0.860	0.871	0.739	0.703	0.804	0.913	0.944	0.881	0.903	1.052	1.121	1.179	1.017	1.412	1.423	1.486	1.149	1.144	1.232	1.078	1.129	1.127	1.087	1.139	1.196	1.159	1.183	1.180	1.144	1.094	1.140	1.244	1.221	1.199	1.268	1.259	1.100	1.217	1.233
390.0	367.7	404.7	402.4	392.2	367.7	322.0	288.0	269.2	258.4	251.5	249.6	241.6	239.5	229.1	209.8	200.7	190.0	184.4	179.8	171.6	161.6	154.4	148.9	160.3	199.7	171.2	95.69	66.47	52.72	42.94	46.39	120.5	454.8	1070	769.4	135.1	6.368	1.297	0.933	0.848	0.795	0.715	0.729	0.862	0.815	0.860	0.796	1.025	1.140	1.101	1.020	1.323	1.339	1.379	1.244	1.151	1.336	1.248	1.206	1.134	1.173	1.146	1.116	0.997	1.219	1.185	1.184	1.035	1.189	1.171	1.185	1.194	1.167	1.169	1.193	1.267	1.198
395.0	356.6	391.3	403.3	370.5	349.0	325.2	290.8	276.0	261.3	254.0	253.2	247.2	239.8	221.1	207.0	196.8	190.7	187.8	178.8	173.0	168.5	159.9	149.4	145.2	150.9	187.8	161.5	88.07	62.46	50.78	42.84	50.28	116.7	265.2	701.2	1129	194.4	4.262	1.281	0.957	0.894	0.803	0.715	0.772	0.757	0.905	0.859	1.049	1.112	0.993	1.082	1.181	1.291	1.271	1.331	1.192	1.305	1.105	1.143	1.132	1.175	1.123	1.125	1.043	1.234	1.165	1.137	1.023	1.249	1.067	1.095	1.119	1.313	1.090	1.170	1.151	1.226
400.0	358.5	391.5	401.3	366.5	348.3	323.6	291.3	274.7	264.7	262.2	254.9	242.2	235.0	221.3	203.3	195.0	186.9	187.2	179.8	174.5	169.5	159.7	151.4	144.1	138.0	153.4	193.0	127.9	72.73	58.18	46.33	40.34	44.20	72.36	203.5	920.5	967.8	34.10	2.072	1.140	0.928	0.835	0.807	0.801	0.722	0.934	0.892	1.057	1.095	1.006	1.038	1.085	1.262	1.214	1.302	1.252	1.316	1.202	1.291	1.230	1.201	1.128	1.117	1.183	1.170	1.160	1.137	1.066	1.155	1.042	1.086	1.188	1.159	1.221	1.338	0.974	1.186
405.0	342.6	357.2	369.9	370.8	343.6	321.0	297.9	282.2	268.5	260.6	258.0	241.7	231.0	215.8	201.9	192.8	184.6	181.9	178.8	172.1	169.7	160.1	152.3	145.7	135.2	131.6	168.3	174.3	97.73	64.99	52.98	42.08	31.73	31.01	56.11	288.4	986.6	719.6	26.80	1.626	1.085	0.873	0.883	0.725	0.856	0.905	1.016	1.022	1.082	0.964	0.915	1.142	1.219	1.201	1.202	1.241	1.236	1.293	1.346	1.219	1.143	1.235	1.203	1.242	1.123	1.044	1.120	1.084	1.146	1.163	1.118	1.172	1.019	1.218	1.256	1.083	1.174
