Sample:	'1
File name:	城北污水厂二沉池.FD3
Run date:	'14:09:03, 08/19/2024
Operator:	horiz
Comment:	'

Instrument
Model:	F-2700 FL Spectrophotometer
Serial number:	23B8-004
ROM Version:	4J14000 07

Instrument parameters
Measurement type:	3-D scan
Data mode:	Fluorescence
EX  Start WL:	220.0 nm
EX  End WL:	600.0 nm
EX Sampling interval:	5.0 nm
EM  Start WL:	230.0 nm
EM  End WL:	650.0 nm
EM Sampling interval:	5.0 nm
Scan speed:	12000 nm/min
EX Slit:	5.0 nm
EM Slit:	5.0 nm
PMT Voltage:	700 V
Response:	Auto 
Corrected spectra:	Off
Contour interval:	50.000

Peak integration
Integration method:	Rectangular
Sensitivity:	1
Threshold:	1.000

Peaks
No.	ApexEX/EM(nm)	Height(Data)
1	225.0/345.0	5619
2	225.0/490.0	306.8
3	230.0/500.0	261.3
4	235.0/255.0	380.6
5	235.0/515.0	211.8
6	240.0/265.0	403.7
7	240.0/525.0	183.5
8	245.0/270.0	423.0
9	245.0/535.0	154.6
10	250.0/275.0	523.2
11	250.0/445.0	420.4
12	250.0/550.0	138.6
13	255.0/280.0	622.4
14	255.0/440.0	429.3
15	255.0/565.0	127.4
16	260.0/575.0	115.3
17	265.0/585.0	108.2
18	270.0/300.0	1291
19	270.0/600.0	109.0
20	275.0/305.0	1377
21	275.0/610.0	94.74
22	280.0/345.0	1639
23	280.0/625.0	72.68
24	285.0/640.0	59.33
25	315.0/355.0	506.0
26	320.0/360.0	478.0
27	325.0/370.0	413.2
28	330.0/375.0	373.8
29	335.0/380.0	336.6
30	345.0/395.0	222.5
31	350.0/400.0	214.1
32	360.0/415.0	156.0
33	365.0/420.0	149.5
34	380.0/440.0	93.84
35	385.0/445.0	80.33
36	395.0/460.0	57.28
37	400.0/465.0	49.81
38	410.0/480.0	34.13
39	415.0/485.0	29.81
40	420.0/490.0	24.99
41	425.0/500.0	21.73
42	430.0/505.0	19.66
43	440.0/520.0	14.06
44	445.0/525.0	11.62
45	455.0/345.0	16.49
46	455.0/540.0	7.874
47	470.0/560.0	4.141
48	480.0/575.0	2.813
49	485.0/265.0	2.472
50	505.0/275.0	3.577
51	510.0/280.0	3.794
52	520.0/285.0	4.038
53	530.0/290.0	4.188
54	540.0/295.0	6.200
55	545.0/300.0	6.610
56	555.0/305.0	6.804
57	560.0/310.0	5.694
58	570.0/345.0	7.336

Wavelength data
No.	EX/EM(nm)	Height(Data)	

Data points
	220.0	225.0	230.0	235.0	240.0	245.0	250.0	255.0	260.0	265.0	270.0	275.0	280.0	285.0	290.0	295.0	300.0	305.0	310.0	315.0	320.0	325.0	330.0	335.0	340.0	345.0	350.0	355.0	360.0	365.0	370.0	375.0	380.0	385.0	390.0	395.0	400.0	405.0	410.0	415.0	420.0	425.0	430.0	435.0	440.0	445.0	450.0	455.0	460.0	465.0	470.0	475.0	480.0	485.0	490.0	495.0	500.0	505.0	510.0	515.0	520.0	525.0	530.0	535.0	540.0	545.0	550.0	555.0	560.0	565.0	570.0	575.0	580.0	585.0	590.0	595.0	600.0
230.0	120.0	1367	3007	772.6	37.54	13.16	11.70	9.935	7.721	7.189	6.445	5.749	4.882	4.193	3.503	2.942	2.533	2.175	1.976	1.841	1.640	1.501	1.504	1.387	1.274	1.247	1.173	1.205	1.124	1.070	1.029	1.000	0.950	0.907	0.876	0.838	0.901	0.843	0.798	0.840	0.963	1.207	1.132	0.834	0.708	0.779	1.976	6.493	9.558	6.088	2.232	0.769	0.558	0.614	0.566	0.571	0.665	0.610	0.615	0.588	0.623	0.633	0.609	0.593	0.648	0.615	0.663	0.593	0.634	0.653	0.661	0.664	0.622	0.614	0.643	0.718	0.705
235.0	210.0	407.1	1801	2565	607.8	49.28	11.73	9.828	8.216	7.280	6.968	5.691	4.699	4.325	3.553	3.005	2.410	2.115	2.056	1.859	1.597	1.519	1.413	1.451	1.392	1.283	1.293	1.167	1.144	1.074	1.071	1.146	1.029	0.858	0.901	0.844	0.961	0.877	0.752	0.725	0.765	0.854	1.102	1.285	1.061	0.826	0.957	2.031	3.859	6.097	8.256	7.914	3.562	1.183	0.597	0.613	0.680	0.561	0.644	0.528	0.611	0.611	0.633	0.567	0.625	0.611	0.635	0.564	0.661	0.685	0.661	0.641	0.562	0.601	0.676	0.676	0.649
240.0	275.2	226.7	542.1	2112	2619	459.5	28.32	10.00	9.254	8.212	7.189	5.411	5.030	4.436	3.318	2.832	2.372	2.505	2.025	1.925	1.585	1.698	1.408	1.410	1.340	1.228	1.177	1.019	1.049	1.052	0.996	1.109	1.009	0.739	0.922	0.766	0.857	0.867	0.737	0.790	0.767	0.813	0.846	1.013	1.274	1.264	0.965	1.091	1.312	2.119	4.865	10.10	11.19	7.950	2.773	0.876	0.613	0.667	0.641	0.592	0.647	0.595	0.596	0.637	0.617	0.612	0.626	0.643	0.643	0.705	0.661	0.690	0.588	0.627	0.679	0.645	0.731
245.0	212.3	288.3	208.8	734.5	2722	2453	323.4	15.01	9.638	8.695	7.614	6.251	5.294	4.514	3.828	3.196	2.334	2.348	2.195	1.824	1.689	1.619	1.536	1.518	1.410	1.344	1.172	1.071	0.981	1.083	1.148	0.954	0.906	0.960	0.890	0.757	0.728	0.900	0.781	0.852	0.809	0.855	0.760	0.862	0.910	1.234	1.478	1.262	0.828	0.945	1.535	3.787	8.098	13.59	12.57	6.854	2.195	0.795	0.686	0.585	0.672	0.550	0.630	0.676	0.613	0.601	0.622	0.620	0.573	0.608	0.701	0.639	0.602	0.621	0.648	0.716	0.794
250.0	102.9	224.5	307.7	274.1	881.5	2357	2830	1021	63.43	10.06	8.085	6.617	5.613	4.819	3.815	3.479	2.458	2.304	2.258	1.810	1.628	1.681	1.543	1.405	1.378	1.244	1.185	1.155	1.123	1.124	1.151	1.008	0.969	0.940	0.851	0.806	0.809	0.802	0.789	0.834	0.785	0.758	0.791	0.767	0.805	0.854	0.986	1.374	1.430	1.230	1.070	1.392	2.399	4.700	7.794	11.37	13.46	12.25	6.193	2.091	0.785	0.630	0.600	0.655	0.656	0.644	0.663	0.598	0.643	0.672	0.718	0.624	0.630	0.648	0.664	0.682	0.668
255.0	69.64	80.19	231.4	380.6	296.2	610.9	2131	4094	1351	58.72	9.930	7.309	6.201	5.024	4.167	3.167	2.856	2.430	2.106	2.042	1.697	1.711	1.372	1.661	1.306	1.270	1.185	1.148	1.069	1.252	1.195	1.075	0.926	0.908	0.843	0.877	0.801	0.807	0.766	0.824	0.788	0.819	0.835	0.678	0.758	0.768	0.688	0.922	0.920	1.289	1.707	1.675	1.361	1.605	2.294	3.155	5.379	12.32	19.42	18.79	9.260	2.375	0.657	0.626	0.644	0.632	0.615	0.660	0.687	0.702	0.614	0.666	0.736	0.695	0.611	0.755	0.604
260.0	59.62	54.64	98.87	327.7	350.5	204.7	645.5	3282	4301	311.7	28.28	9.232	7.284	5.187	4.282	3.640	3.053	2.442	2.260	1.977	1.780	1.888	1.489	1.525	1.414	1.263	1.173	1.158	1.086	1.129	1.067	1.198	0.986	0.985	0.898	0.921	0.823	0.747	0.806	0.769	0.782	0.739	0.774	0.703	0.709	0.729	0.677	0.674	0.609	0.686	1.193	2.095	2.213	1.439	1.164	1.312	1.822	3.717	8.555	18.00	24.28	20.29	7.083	1.410	0.616	0.688	0.664	0.601	0.732	0.627	0.612	0.647	0.666	0.668	0.679	0.761	0.674
265.0	59.04	46.00	51.88	158.1	403.7	266.3	188.8	1100	4317	4039	245.0	15.21	8.643	5.956	4.500	4.079	3.280	2.814	2.340	2.087	1.924	1.700	1.561	1.500	1.534	1.427	1.262	1.190	1.082	1.212	1.076	1.009	1.015	0.948	1.013	0.872	0.864	0.804	0.733	0.779	0.792	0.733	0.806	0.755	0.829	0.790	0.604	0.688	0.599	0.564	0.701	1.285	2.146	2.472	1.870	1.021	1.054	1.453	2.654	5.671	13.25	26.92	27.68	15.92	4.046	0.872	0.670	0.657	0.720	0.605	0.626	0.757	0.709	0.685	0.650	0.725	0.647
270.0	72.26	53.33	43.60	66.10	199.8	423.0	299.9	307.6	1362	3834	3855	932.9	56.30	8.222	5.686	4.103	3.331	2.895	2.621	2.347	1.822	1.954	1.702	1.665	1.512	1.365	1.235	1.244	1.171	1.316	1.256	1.064	0.996	1.034	1.048	0.926	0.871	0.789	0.865	0.852	0.789	0.842	0.877	0.860	0.779	0.825	0.681	0.812	0.649	0.546	0.560	0.816	1.085	1.467	2.137	2.247	2.270	1.526	1.300	1.880	3.626	8.073	13.53	19.53	22.54	19.91	11.48	3.775	0.947	0.704	0.695	0.653	0.718	0.676	0.666	0.649	0.703
275.0	136.1	94.28	65.94	52.41	80.95	208.4	523.2	353.1	370.4	977.8	2995	6073	1276	52.39	8.148	5.308	3.993	3.240	2.771	2.551	1.989	1.990	1.830	1.579	1.613	1.341	1.240	1.225	1.233	1.146	1.103	1.080	1.014	1.045	1.017	1.044	1.089	1.055	1.016	0.822	0.837	0.974	1.005	0.912	0.874	0.803	0.840	0.917	0.690	0.600	0.585	0.732	0.806	0.918	1.123	1.420	2.562	3.577	2.656	1.406	1.491	2.530	3.697	5.099	7.183	14.16	27.10	31.63	16.85	4.057	0.929	0.638	0.682	0.697	0.671	0.715	0.839
280.0	216.2	189.0	129.2	76.72	67.58	103.2	341.7	622.4	285.2	318.8	928.7	4548	5800	909.8	23.46	6.875	4.500	3.557	2.903	2.531	2.024	2.008	2.233	1.853	1.741	1.398	1.358	1.265	1.263	1.075	1.166	1.228	1.124	1.169	1.139	1.152	1.186	1.295	1.107	1.030	0.970	1.102	1.142	1.076	0.986	1.137	1.132	0.978	0.873	0.708	0.706	0.779	0.822	0.763	0.789	0.955	1.489	2.411	3.794	3.110	1.984	1.560	1.737	2.057	2.461	4.218	9.979	22.55	31.75	27.60	11.97	2.280	0.775	0.737	0.733	0.704	0.760
285.0	387.0	354.2	257.2	139.2	83.24	86.46	170.2	559.4	586.0	273.7	391.3	1507	5516	5361	143.9	10.54	5.609	4.482	3.542	2.617	2.121	2.094	2.177	1.878	1.714	1.609	1.538	1.359	1.444	1.260	1.233	1.162	1.271	1.181	1.241	1.428	1.473	1.487	1.300	1.363	1.353	1.356	1.484	1.218	1.396	1.403	1.490	1.474	1.168	1.037	0.897	0.899	0.812	0.857	0.721	0.904	1.031	1.444	2.289	3.754	4.038	2.734	1.782	1.525	1.801	2.133	3.507	6.880	13.57	26.31	34.60	23.64	7.344	1.366	0.786	0.780	0.788
290.0	655.9	658.3	494.0	249.6	135.4	106.1	138.0	295.6	663.6	734.5	476.4	660.1	1789	4626	4382	537.3	36.13	5.529	4.305	3.004	2.596	2.287	2.085	1.887	1.779	1.583	1.498	1.495	1.320	1.344	1.223	1.263	1.191	1.251	1.557	1.806	1.996	1.953	1.779	1.569	1.607	1.650	1.836	1.838	1.874	2.037	2.092	2.217	2.001	1.534	1.230	1.167	0.940	0.940	0.985	0.918	0.977	1.186	1.470	1.962	2.837	3.881	4.188	3.936	2.928	2.334	2.567	3.429	4.775	8.031	13.69	20.25	24.65	23.53	15.37	5.818	1.610
295.0	885.1	915.2	697.6	374.9	186.3	139.5	156.2	241.6	422.6	899.6	1026	653.9	742.9	1245	2719	5298	795.1	34.01	5.377	4.027	3.215	2.428	2.499	1.860	1.885	1.703	1.715	1.569	1.311	1.279	1.309	1.140	1.142	1.323	1.678	2.055	2.318	2.363	2.198	2.018	1.824	1.874	2.079	2.239	2.413	2.693	2.880	2.757	2.572	2.008	1.530	1.518	1.302	1.100	1.096	1.095	1.216	1.426	1.432	1.603	1.981	2.632	3.356	5.209	6.200	4.653	3.501	3.116	3.430	3.858	4.667	5.740	7.051	11.37	23.04	32.28	23.46
300.0	1012	1054	837.8	442.5	215.9	172.8	188.7	256.1	389.8	699.3	1291	970.0	595.1	494.6	790.7	3670	5061	577.7	14.72	4.796	3.889	2.753	2.717	2.072	2.293	1.857	1.697	1.671	1.723	1.282	1.557	1.329	1.175	1.465	1.633	2.402	2.471	2.417	2.441	1.984	1.851	2.097	2.370	2.514	2.687	3.054	3.193	3.174	3.062	2.163	1.825	1.680	1.394	1.239	1.255	1.253	1.260	1.604	1.538	1.875	2.087	2.383	2.876	3.585	5.281	6.610	5.912	4.352	3.410	2.949	2.810	2.641	2.620	3.483	7.326	17.27	31.25
305.0	1109	1111	892.6	467.5	244.3	195.2	219.0	289.3	420.4	615.0	1070	1377	718.4	370.3	294.1	1098	4530	3991	88.39	7.805	4.355	3.490	3.106	2.458	2.165	1.946	1.706	1.674	1.694	1.382	1.441	1.260	1.229	1.474	1.825	2.317	2.605	2.726	2.503	2.028	1.989	2.147	2.594	2.691	2.717	3.594	3.133	3.476	3.140	2.310	1.921	1.759	1.538	1.404	1.416	1.296	1.383	1.536	1.621	2.075	2.436	2.475	2.812	3.393	4.055	5.464	6.422	6.804	4.903	3.485	2.558	2.297	1.984	1.872	2.527	4.813	10.84
310.0	1060	1104	857.4	473.4	264.6	208.7	228.4	312.3	430.2	591.5	819.7	1123	1083	497.0	219.1	333.1	1310	3251	3513	356.8	24.32	4.634	3.526	2.656	2.393	2.095	1.851	1.852	1.618	1.479	1.488	1.324	1.274	1.472	1.737	2.152	2.509	2.458	2.138	2.119	2.101	2.104	2.309	2.576	2.868	3.289	3.085	3.374	3.029	2.334	1.893	1.769	1.587	1.388	1.395	1.351	1.508	1.629	1.822	2.123	2.292	2.495	2.888	3.395	3.643	4.161	4.510	5.515	5.694	5.532	3.892	2.770	1.814	1.669	1.594	2.046	3.379
315.0	1250	1386	958.7	498.0	284.6	227.3	252.9	341.6	454.0	611.1	775.4	906.5	1005	959.6	387.5	248.4	395.9	820.5	2160	4145	545.4	24.64	4.781	3.393	2.624	2.069	1.999	1.916	1.697	1.454	1.655	1.331	1.284	1.309	1.708	2.146	2.378	2.543	2.013	2.087	2.059	2.169	2.578	2.725	3.163	3.500	3.710	4.273	3.215	2.393	1.885	1.850	1.673	1.563	1.404	1.366	1.595	1.688	1.920	2.084	2.432	2.515	3.154	3.725	3.920	3.872	4.111	4.393	4.454	5.154	5.439	5.376	3.422	2.341	1.823	2.224	2.246
320.0	1940	2032	1384	706.3	366.5	275.8	300.4	395.8	549.0	722.9	924.5	1050	1045	1171	840.5	421.9	318.5	315.5	631.7	2898	3670	417.3	11.38	4.380	3.035	2.315	2.246	2.138	1.605	1.692	1.624	1.359	1.395	1.465	1.601	2.013	2.384	2.449	2.490	2.468	2.504	2.709	3.301	3.423	4.365	5.238	6.026	5.886	4.547	3.200	2.442	2.358	1.854	1.739	1.638	1.498	1.771	1.978	2.090	2.340	2.587	3.111	3.490	3.890	4.393	4.316	4.857	4.716	4.592	4.961	5.033	6.143	6.090	4.628	3.451	2.640	2.758
325.0	2623	3245	2421	1043	599.6	377.5	380.5	472.6	651.7	868.3	1103	1251	1214	1197	1183	713.8	400.8	257.3	258.9	910.3	3363	3052	66.31	7.119	3.718	2.723	2.234	2.211	1.961	1.749	1.575	1.390	1.442	1.445	1.733	1.910	2.357	2.456	2.618	2.848	2.992	3.134	3.890	4.568	5.695	7.154	8.295	8.942	7.235	5.335	4.151	3.889	2.735	2.170	2.020	1.696	2.015	2.288	2.348	2.652	3.018	3.234	3.822	4.405	4.890	4.926	5.262	5.676	5.591	5.637	5.271	5.829	6.422	6.468	5.654	4.185	3.218
330.0	3258	4203	3463	1972	902.1	501.8	448.7	555.8	732.5	975.8	1231	1405	1396	1297	1158	1030	618.6	312.9	220.4	331.8	1039	2632	2951	277.4	19.06	4.089	2.764	2.487	2.031	1.873	1.766	1.521	1.409	1.424	1.626	1.733	2.293	2.652	2.741	2.975	3.162	3.624	4.512	5.596	6.897	9.155	10.32	11.52	10.20	7.776	6.427	5.737	4.114	3.193	2.373	2.179	2.211	2.560	2.690	2.968	3.240	3.679	4.248	4.852	5.185	5.768	6.092	6.415	6.272	6.269	6.113	6.257	6.250	5.927	5.761	5.990	5.049
335.0	3538	4704	4128	2490	1158	592.6	509.4	602.5	786.1	1030	1296	1489	1514	1387	1147	961.2	848.6	445.2	248.7	235.3	367.9	706.5	1924	3516	431.4	18.27	4.070	3.087	2.199	1.974	2.003	1.427	1.514	1.518	1.482	1.976	2.096	2.538	2.777	3.188	3.279	3.866	5.176	6.165	7.881	9.972	11.71	13.19	11.74	9.464	7.767	7.002	5.013	3.473	2.759	2.517	2.540	2.774	2.899	3.171	3.411	3.963	4.453	5.005	5.607	6.133	6.229	6.979	6.786	6.879	6.872	6.322	6.044	5.622	5.541	5.409	5.422
340.0	3996	5260	4856	3020	1418	703.6	574.4	655.3	830.1	1086	1377	1568	1608	1476	1221	931.5	800.0	628.1	320.5	245.5	254.2	291.8	589.7	2646	2980	319.4	8.248	3.671	2.357	2.233	1.978	1.565	1.456	1.438	1.573	1.786	2.187	2.469	2.942	3.138	3.655	4.127	5.412	6.698	8.716	11.27	13.09	15.05	13.74	11.13	9.381	8.348	5.791	4.177	3.093	2.794	2.761	3.010	3.012	3.131	3.656	4.161	4.688	5.334	5.759	6.125	6.449	6.942	6.903	7.034	7.145	7.043	6.893	6.376	5.879	5.031	4.745
345.0	4216	5619	5286	3431	1626	811.5	648.7	708.1	885.7	1137	1415	1622	1639	1507	1246	938.1	680.0	668.6	465.3	285.7	258.3	229.7	250.8	847.0	2871	2286	53.73	5.229	2.922	2.372	2.233	1.666	1.620	1.444	1.710	1.878	2.278	2.513	2.957	3.095	3.720	4.379	5.237	6.883	8.776	11.45	13.47	16.49	15.21	12.26	10.48	9.623	6.335	4.783	3.656	2.880	3.004	2.999	3.402	3.454	3.844	4.113	4.917	5.491	5.994	6.224	6.624	7.109	7.269	7.220	7.336	7.016	6.771	6.538	6.075	5.156	4.734
350.0	3785	5384	5158	3415	1681	918.2	752.6	801.2	932.0	1137	1365	1540	1560	1433	1205	906.6	629.1	520.4	533.9	410.1	289.1	239.1	202.5	293.8	883.0	2071	2089	234.9	14.36	3.134	2.577	2.060	1.903	1.606	1.583	1.909	2.231	2.467	2.738	3.097	3.461	4.317	5.163	6.569	8.329	10.87	12.61	15.54	14.80	12.38	10.53	9.657	6.645	4.893	4.058	3.371	3.336	3.471	3.686	4.004	4.149	4.251	4.824	5.356	5.508	6.041	6.340	6.663	6.847	6.997	6.908	7.016	6.446	6.252	5.730	4.954	4.656
355.0	3477	4852	4789	3206	1638	953.1	787.7	849.7	913.0	1078	1284	1412	1429	1304	1120	842.5	591.2	441.9	425.0	506.0	383.2	264.1	211.5	184.3	263.2	520.0	1499	2668	355.8	11.06	3.197	2.235	1.913	1.783	1.642	1.790	2.069	2.359	2.580	2.826	3.306	3.919	4.557	5.717	7.270	9.975	11.94	14.44	14.09	11.84	10.06	9.349	6.370	4.927	4.213	3.440	3.749	3.636	3.747	4.011	4.240	4.422	4.816	4.893	5.428	5.537	5.847	6.127	6.482	6.637	6.261	6.456	6.204	6.064	5.396	4.666	4.259
360.0	3156	4491	4465	3040	1567	938.1	776.3	816.1	874.5	1018	1196	1313	1326	1206	1049	791.3	555.9	419.5	369.4	442.7	478.0	309.3	224.3	169.6	134.7	157.5	429.3	2153	2298	55.63	5.829	2.586	2.122	1.895	1.580	1.770	1.923	2.145	2.547	2.754	3.214	3.640	4.119	5.209	6.626	9.306	10.91	13.03	12.90	10.63	9.517	8.369	6.613	5.002	4.328	3.785	3.749	3.676	3.666	3.856	3.950	4.430	4.651	4.643	5.117	5.176	5.571	5.607	5.823	6.341	6.146	6.041	5.581	5.835	4.860	4.528	4.034
365.0	2813	4062	4081	2849	1516	910.7	768.2	771.5	819.1	948.5	1106	1205	1214	1100	959.4	734.1	528.9	406.0	353.7	366.5	465.7	398.7	244.3	176.4	113.9	83.78	128.4	677.9	2442	1790	47.40	3.671	2.583	1.919	1.722	1.691	1.804	2.135	2.456	2.637	3.012	3.434	3.928	4.973	6.559	8.342	9.990	11.58	11.63	9.974	8.799	7.729	6.071	4.888	3.922	3.701	3.484	3.425	3.534	3.874	4.147	3.885	4.316	4.542	4.925	4.884	5.094	5.243	5.527	5.745	5.509	5.490	5.256	5.202	4.599	4.223	3.829
370.0	2426	3375	3481	2430	1388	896.2	769.1	774.2	786.3	869.7	989.0	1054	1052	964.8	847.1	662.4	494.9	389.9	343.7	331.1	364.0	413.2	334.7	198.1	120.7	79.73	70.42	180.7	750.2	1833	2071	201.4	10.38	2.439	1.976	1.781	1.932	2.060	2.233	2.398	2.635	3.220	3.474	4.393	5.534	6.980	8.363	10.17	9.973	8.497	7.437	6.970	5.487	4.659	3.748	3.498	3.529	3.463	3.594	3.803	3.678	3.673	4.045	4.206	4.593	4.371	4.596	4.730	4.851	4.882	5.032	4.771	4.535	4.480	4.346	3.905	3.389
375.0	1983	2692	2839	2048	1224	839.5	716.9	720.8	720.8	772.2	856.7	902.9	889.8	818.1	735.2	584.9	453.1	367.3	328.8	318.7	311.9	324.8	373.8	278.8	141.5	95.80	69.29	78.15	193.2	454.9	1595	2162	285.1	8.137	2.418	2.087	1.950	2.127	2.175	2.130	2.599	2.895	2.994	3.694	4.663	5.923	6.810	8.230	8.590	7.165	6.198	6.425	4.792	4.153	3.745	3.162	3.183	3.222	3.454	3.544	3.405	3.409	3.622	3.856	3.952	3.984	3.986	4.133	4.188	4.231	4.341	4.289	4.218	4.095	3.857	3.367	3.295
380.0	1636	2337	2434	1784	1112	791.9	668.4	653.6	649.0	692.6	760.5	798.0	790.0	723.4	642.6	527.0	423.1	352.2	319.8	304.7	292.8	285.6	312.1	336.6	188.3	107.2	78.93	63.65	74.15	123.7	452.2	1815	1782	46.22	4.339	2.232	1.990	2.069	1.966	2.151	2.379	2.558	2.853	3.178	4.095	4.789	5.633	6.919	7.088	6.057	5.487	5.453	4.262	3.904	3.613	3.317	3.142	3.173	3.190	2.997	3.186	3.408	3.475	3.523	3.845	3.698	3.651	3.711	3.867	3.790	3.782	3.783	3.837	3.486	3.237	3.357	2.897
385.0	1428	1983	2042	1530	998.8	741.4	637.4	601.2	588.8	626.5	677.4	702.3	695.6	638.9	573.1	474.1	384.5	334.1	311.0	295.2	281.1	268.3	261.6	305.4	254.7	131.3	86.71	65.15	53.93	53.56	119.9	577.1	1934	1405	36.08	2.900	2.280	2.341	1.992	2.141	2.172	2.430	2.724	3.089	3.339	4.169	4.939	5.810	6.122	5.201	4.964	4.851	3.898	3.363	3.352	3.131	3.277	2.910	2.995	2.765	2.990	2.986	3.127	3.302	3.255	3.373	3.462	3.444	3.557	3.534	3.267	3.501	3.439	3.303	3.117	2.984	2.721
390.0	1170	1598	1661	1286	894.9	695.1	594.5	570.7	540.5	557.6	583.1	606.1	599.7	551.6	499.6	422.2	353.0	314.4	290.8	278.5	270.8	256.4	238.2	234.7	253.1	203.1	114.0	75.76	57.93	44.82	50.20	146.1	592.4	1433	1398	159.1	8.995	2.622	2.212	2.073	2.106	2.231	2.396	2.565	2.931	3.669	4.126	4.866	4.997	4.433	3.995	4.047	3.547	3.272	3.110	2.796	2.887	2.822	2.936	2.568	2.959	2.591	2.966	2.865	2.864	3.050	2.924	2.902	3.031	3.132	3.115	3.100	2.971	2.927	2.938	2.641	2.517
395.0	978.7	1266	1346	1071	779.5	630.7	568.6	529.8	490.0	494.0	510.8	521.2	516.6	472.6	436.3	376.8	321.8	287.5	274.2	262.4	257.1	246.8	226.0	206.2	195.6	222.5	178.8	95.91	67.92	51.12	41.27	52.58	146.3	353.7	1096	1606	240.2	6.393	2.413	2.120	2.289	2.141	2.339	2.386	2.758	3.125	3.441	4.216	4.319	3.670	3.332	3.764	3.125	3.008	2.642	2.605	2.819	2.730	2.903	2.775	2.698	2.560	2.753	2.720	2.555	2.736	2.521	2.733	2.729	2.985	2.754	2.822	2.605	2.593	2.639	2.559	2.293
400.0	875.1	1063	1146	919.4	707.3	593.1	550.1	498.0	459.2	451.9	459.8	463.1	451.2	432.9	396.9	342.0	303.8	272.7	258.5	251.9	244.7	236.2	218.0	196.1	176.2	184.0	214.1	133.1	76.78	56.01	42.40	35.06	49.16	91.37	312.1	1331	1384	39.32	3.701	2.269	2.151	2.143	1.994	2.222	2.488	2.876	3.064	3.650	3.660	3.233	3.078	3.221	2.807	2.862	2.606	2.571	2.634	2.693	2.558	2.669	2.601	2.280	2.406	2.371	2.554	2.353	2.479	2.569	2.495	2.758	2.499	2.635	2.426	2.389	2.762	2.373	2.325
405.0	744.5	950.7	982.6	820.2	656.3	550.0	518.5	483.7	438.7	420.3	415.5	427.2	418.6	397.1	363.1	315.0	283.5	258.9	247.9	238.5	231.3	227.7	211.8	191.1	169.8	157.2	189.4	178.5	98.02	61.99	46.85	35.46	30.28	34.94	81.49	420.5	1457	1096	31.35	2.754	2.304	2.121	2.077	2.116	2.297	2.595	2.783	3.179	3.146	2.889	2.920	3.033	2.807	2.724	2.502	2.511	2.605	2.554	2.434	2.516	2.409	2.179	2.171	2.277	2.401	2.202	2.223	2.437	2.307	2.464	2.198	2.418	2.269	2.247	2.322	2.173	2.189
410.0	657.6	812.9	836.7	716.5	581.9	515.5	491.7	460.7	420.2	386.6	377.9	381.6	372.9	354.5	326.4	288.2	261.9	240.3	233.0	224.5	218.1	210.9	201.8	185.3	164.9	148.6	147.6	170.6	149.6	84.04	54.63	40.48	30.28	25.53	30.95	104.4	442.0	1130	1069	144.1	7.276	2.330	2.158	1.970	2.243	2.441	2.454	2.822	2.752	2.577	2.539	2.788	2.477	2.515	2.424	2.284	2.475	2.373	2.480	2.408	2.261	2.243	2.216	2.231	2.163	2.081	2.099	2.213	2.110	2.128	2.024	2.288	2.099	2.173	1.977	2.026	2.171
