Sample:	'1
File name:	Default_20230629_094821.FD3
Run date:	'09:42:00, 06/29/2023
Operator:	user
Comment:	'

Instrument
Model:	F-2700 FL Spectrophotometer
Serial number:	2190-003
ROM Version:	4J14000 07

Instrument parameters
Measurement type:	3-D scan
Data mode:	Fluorescence
EX  Start WL:	220.0 nm
EX  End WL:	600.0 nm
EX Sampling interval:	5.0 nm
EM  Start WL:	230.0 nm
EM  End WL:	650.0 nm
EM Sampling interval:	5.0 nm
Scan speed:	12000 nm/min
EX Slit:	5.0 nm
EM Slit:	5.0 nm
PMT Voltage:	700 V
Response:	Auto 
Corrected spectra:	Off
Contour interval:	50.000

Peak integration
Integration method:	Rectangular
Sensitivity:	1
Threshold:	1.000

Peaks
No.	ApexEX/EM(nm)	Height(Data)
1	225.0/635.0	-63.52
2	230.0/300.0	12.20
3	230.0/500.0	-6.293
4	240.0/520.0	23.72
5	240.0/640.0	-30.77
6	245.0/530.0	16.32
7	250.0/365.0	 7216
8	250.0/545.0	31.88
9	255.0/555.0	46.42
10	260.0/285.0	434.4
11	260.0/570.0	44.81
12	265.0/290.0	470.8
13	265.0/580.0	49.34
14	265.0/625.0	-10.54
15	270.0/295.0	709.0
16	270.0/590.0	51.32
17	275.0/305.0	804.2
18	275.0/605.0	50.08
19	280.0/245.0	-11.00
20	280.0/310.0	666.8
21	280.0/615.0	41.15
22	285.0/315.0	621.2
23	285.0/480.0	37.22
24	285.0/625.0	28.27
25	290.0/255.0	-6.962
26	290.0/320.0	559.3
27	290.0/640.0	22.19
28	295.0/265.0	-6.978
29	295.0/330.0	415.3
30	295.0/535.0	3.965
31	300.0/335.0	415.4
32	300.0/505.0	15.01
33	305.0/340.0	474.1
34	310.0/345.0	407.3
35	310.0/545.0	3.058
36	315.0/560.0	-0.403
37	315.0/625.0	225.2
38	320.0/360.0	303.8
39	325.0/235.0	-4.436
40	325.0/365.0	256.6
41	330.0/245.0	-3.507
42	330.0/370.0	197.4
43	335.0/375.0	193.4
44	335.0/635.0	-2.971
45	340.0/385.0	192.9
46	340.0/625.0	-2.772
47	345.0/390.0	156.3
48	350.0/395.0	150.1
49	350.0/620.0	-2.580
50	355.0/255.0	-2.287
51	355.0/405.0	147.9
52	360.0/410.0	121.4
53	365.0/245.0	-2.097
54	365.0/415.0	120.8
55	370.0/425.0	104.1
56	375.0/430.0	85.80
57	380.0/435.0	81.14
58	385.0/240.0	-0.660
59	385.0/325.0	-1.519
60	385.0/440.0	69.75
61	390.0/450.0	56.60
62	395.0/455.0	51.22
63	400.0/460.0	45.03
64	405.0/470.0	35.49
65	410.0/475.0	31.48
66	415.0/240.0	-1.370
67	415.0/485.0	26.05
68	420.0/490.0	22.09
69	425.0/495.0	18.91
70	430.0/505.0	17.41
71	435.0/510.0	13.57
72	440.0/515.0	11.42
73	445.0/525.0	11.42
74	450.0/530.0	8.848
75	455.0/540.0	6.561
76	460.0/545.0	6.483
77	470.0/560.0	3.305
78	480.0/575.0	0.719
79	490.0/585.0	0.206
80	495.0/365.0	18.93
81	495.0/600.0	-0.156
82	500.0/605.0	0.071
83	505.0/275.0	-0.402
84	520.0/285.0	0.128
85	540.0/295.0	0.972
86	545.0/300.0	0.573
87	550.0/305.0	0.908
88	555.0/310.0	0.332
89	570.0/315.0	0.350
90	575.0/320.0	-0.011
91	585.0/325.0	0.118

Data points
	220.0	225.0	230.0	235.0	240.0	245.0	250.0	255.0	260.0	265.0	270.0	275.0	280.0	285.0	290.0	295.0	300.0	305.0	310.0	315.0	320.0	325.0	330.0	335.0	340.0	345.0	350.0	355.0	360.0	365.0	370.0	375.0	380.0	385.0	390.0	395.0	400.0	405.0	410.0	415.0	420.0	425.0	430.0	435.0	440.0	445.0	450.0	455.0	460.0	465.0	470.0	475.0	480.0	485.0	490.0	495.0	500.0	505.0	510.0	515.0	520.0	525.0	530.0	535.0	540.0	545.0	550.0	555.0	560.0	565.0	570.0	575.0	580.0	585.0	590.0	595.0	600.0
230.0	-110.1	16.68	 1949	 1809	93.54	-37.61	-35.36	-26.54	-28.05	-18.22	-22.91	-17.95	-16.54	-14.06	-12.52	-9.121	-8.672	-7.888	-6.049	-5.789	-5.590	-5.243	-4.911	-4.225	-3.484	-3.585	-3.442	-3.554	-3.550	-3.040	-3.519	-2.996	-2.650	-2.844	-2.645	-2.209	-2.180	-2.332	-2.121	-2.079	-2.168	-2.131	-1.939	-1.854	-1.751	-1.676	-1.516	-0.103	1.685	1.627	-0.024	-1.506	-1.486	-1.574	-1.488	-1.491	-1.420	-1.661	-1.619	-1.749	-1.608	-1.561	-1.601	-1.533	-1.739	-1.894	-1.623	-1.603	-1.759	-1.770	-1.845	-1.750	-1.835	-1.475	-1.911	-1.963	-1.960
235.0	-101.7	-70.53	618.0	 2729	 2230	178.8	-26.23	-20.60	-29.46	-19.53	-24.02	-16.89	-15.23	-14.59	-12.98	-10.28	-7.990	-7.946	-6.440	-6.908	-5.410	-4.436	-5.617	-4.199	-3.943	-3.862	-3.580	-3.184	-3.037	-3.184	-3.321	-2.655	-3.176	-3.263	-2.697	-2.307	-2.232	-2.800	-1.854	-1.485	-2.064	-2.232	-2.271	-1.939	-1.482	-1.694	-1.597	-1.273	-0.747	1.033	2.378	2.037	0.322	-1.602	-1.557	-1.403	-1.254	-1.535	-1.687	-2.134	-1.560	-1.668	-1.535	-1.643	-1.679	-1.934	-2.075	-1.776	-1.778	-1.763	-1.841	-1.879	-1.877	-1.816	-1.672	-1.993	-1.883
240.0	-96.85	-92.43	80.97	 1212	 3802	 2048	77.57	-19.05	-28.30	-23.66	-23.02	-16.17	-14.77	-13.04	-12.33	-8.702	-8.392	-7.231	-6.165	-5.303	-5.027	-4.953	-5.407	-5.198	-4.684	-3.457	-3.105	-3.063	-3.013	-2.138	-3.140	-2.977	-3.594	-0.660	-2.933	-1.977	-2.290	-2.826	-2.066	-1.370	-1.741	-2.127	-2.428	-1.963	-1.873	-1.943	-1.595	-1.672	-1.363	-0.404	0.612	2.822	4.626	2.195	-0.735	-1.448	-1.708	-2.139	-1.333	-1.481	-1.464	-1.227	-1.624	-1.488	-1.866	-1.873	-1.751	-1.847	-1.575	-1.671	-1.382	-1.927	-1.760	-1.766	-1.515	-2.227	-1.812
245.0	-123.3	-57.25	-4.324	255.2	 2089	 4491	 1501	21.72	-23.82	-20.68	-25.79	-18.32	-11.00	-12.99	-11.29	-8.048	-7.863	-5.968	-6.824	-5.703	-4.179	-5.052	-3.507	-4.666	-3.651	-3.427	-4.236	-3.201	-3.984	-2.097	-3.336	-3.378	-2.751	-1.756	-2.501	-2.345	-2.507	-2.432	-1.986	-1.949	-1.764	-1.699	-1.983	-1.913	-1.834	-1.491	-1.129	-1.614	-1.321	-1.236	-0.942	-0.016	2.857	6.029	5.547	1.690	-1.213	-1.774	-1.610	-1.397	-1.637	-1.748	-1.376	-1.797	-1.616	-1.632	-1.839	-1.772	-1.461	-1.552	-1.779	-1.975	-1.576	-1.500	-1.658	-2.007	-1.722
250.0	-105.6	-88.32	-11.60	67.60	471.9	 2251	 4703	 3258	368.0	-19.49	-16.76	-15.15	-13.83	-11.71	-10.79	-9.888	-7.506	-7.190	-6.569	-5.844	-4.991	-5.282	-4.580	-5.301	-4.499	-3.788	-4.183	-3.435	-3.687	-2.818	-3.380	-3.210	-2.834	-2.185	-2.584	-2.553	-2.334	-1.950	-2.247	-2.384	-1.730	-1.822	-1.739	-2.122	-1.619	-1.859	-1.362	-1.480	-1.425	-1.014	-0.924	-1.036	-0.224	1.226	2.716	4.844	4.182	3.200	0.677	-1.163	-1.401	-1.803	-1.681	-1.669	-1.890	-1.667	-1.704	-1.807	-1.736	-1.404	-1.792	-1.758	-1.763	-1.703	-1.686	-1.778	-1.816
255.0	-112.2	-115.7	-58.11	83.26	156.4	483.8	 1627	 6403	 5171	325.1	-12.09	-19.03	-12.51	-10.32	-6.962	-10.67	-8.653	-6.447	-6.774	-5.498	-4.850	-4.678	-4.039	-3.732	-4.115	-3.324	-3.101	-2.287	-2.678	-2.681	-3.882	-2.753	-2.949	-2.397	-2.829	-1.946	-2.302	-1.717	-2.396	-2.304	-1.684	-1.835	-1.968	-2.326	-1.546	-1.857	-1.399	-1.234	-1.741	-0.923	-0.890	-0.961	-1.336	-0.638	-0.722	-0.225	0.633	4.399	6.585	4.837	0.224	-1.452	-1.816	-1.828	-1.849	-1.821	-1.744	-1.825	-1.758	-1.908	-1.635	-1.662	-1.907	-1.526	-1.951	-1.683	-1.802
260.0	-118.4	-93.87	-88.19	0.788	137.0	141.3	361.4	 2829	 8101	 1596	114.8	-10.74	-11.89	-11.49	-9.127	-8.692	-8.979	-5.762	-6.928	-5.819	-6.003	-5.697	-3.924	-4.554	-3.559	-4.365	-3.727	-3.186	-2.728	-2.983	-3.240	-2.719	-2.786	-2.057	-2.790	-2.473	-2.280	-1.627	-1.944	-2.251	-1.763	-2.098	-2.195	-2.245	-2.153	-1.882	-1.175	-1.370	-1.695	-1.313	-1.270	-1.070	-1.322	-0.803	-1.434	-1.462	-1.077	-0.207	2.749	5.425	6.594	3.645	-0.588	-1.608	-1.728	-1.633	-1.980	-2.032	-1.897	-1.998	-2.097	-1.714	-1.981	-1.932	-2.071	-1.623	-2.043
265.0	-130.6	-105.3	-92.31	-64.01	83.07	194.5	92.42	676.0	 4030	 6773	 1228	16.43	-9.901	-9.879	-9.100	-6.978	-8.862	-5.499	-6.579	-5.538	-4.725	-4.636	-4.232	-4.720	-3.666	-3.062	-3.411	-3.602	-3.456	-3.080	-3.642	-2.918	-3.397	-2.519	-2.784	-2.718	-1.873	-1.925	-1.746	-1.526	-1.899	-2.412	-1.592	-2.053	-1.753	-2.021	-1.398	-1.382	-1.453	-1.423	-1.056	-0.907	-1.357	-0.351	-1.010	-1.415	-1.676	-1.404	-0.418	0.727	3.223	6.941	7.131	2.865	-1.195	-1.783	-1.713	-1.777	-1.996	-1.730	-1.563	-1.433	-1.766	-1.812	-2.101	-2.033	-2.088
270.0	-106.4	-78.72	-81.68	-62.62	-4.373	103.3	210.5	192.0	961.5	 3091	 4460	 2359	211.3	-9.139	-8.589	-8.923	-5.799	-5.488	-6.340	-5.655	-4.896	-4.789	-4.711	-3.997	-3.953	-3.461	-3.982	-3.766	-3.149	-3.537	-3.262	-3.033	-2.771	-2.734	-2.647	-2.468	-1.713	-1.901	-2.148	-1.944	-1.966	-2.175	-2.031	-1.793	-1.891	-1.924	-1.714	-1.283	-1.543	-1.188	-1.264	-1.277	-1.231	-1.242	-0.777	-0.754	-1.088	-1.425	-1.236	-1.185	-0.386	1.044	3.262	5.564	6.559	4.450	1.092	-1.023	-1.769	-1.745	-1.741	-1.574	-1.752	-1.934	-1.803	-1.880	-2.113
275.0	-109.7	-80.19	-89.11	-47.07	-34.53	-3.348	136.3	312.6	267.3	691.1	 1433	 4058	 2995	165.1	-9.148	-6.108	-6.958	-6.283	-6.225	-5.235	-6.028	-4.460	-4.907	-4.338	-3.681	-3.753	-3.412	-3.762	-3.562	-2.900	-3.766	-2.858	-2.642	-2.022	-1.682	-2.600	-1.656	-2.166	-1.961	-1.934	-2.407	-2.030	-2.034	-2.017	-1.575	-2.024	-1.629	-1.319	-1.418	-1.012	-1.191	-1.545	-1.511	-1.360	-1.305	-1.096	-0.534	-0.402	-0.680	-1.428	-1.470	-1.124	-0.738	0.203	1.088	5.262	10.52	8.278	1.872	-1.532	-1.649	-1.470	-1.857	-1.938	-1.574	-2.072	-1.720
280.0	-106.7	-97.63	-64.38	-46.84	-40.23	-25.56	23.92	280.9	283.5	174.7	353.3	 1597	 4538	900.8	52.04	-5.201	-4.453	-5.884	-4.808	-5.331	-4.610	-4.611	-4.583	-3.847	-3.686	-3.732	-3.359	-3.485	-3.599	-2.588	-4.099	-3.569	-3.032	-2.435	-2.689	-2.250	-2.036	-1.779	-2.214	-2.403	-2.145	-2.373	-1.707	-1.937	-1.466	-1.587	-1.336	-1.328	-1.342	-1.441	-1.314	-1.418	-1.503	-1.018	-1.473	-1.333	-1.190	-0.816	-0.239	-0.424	-1.253	-1.431	-1.290	-1.050	-0.960	0.225	3.579	8.766	12.02	6.420	0.487	-1.511	-1.399	-1.624	-1.847	-2.040	-2.018
285.0	-81.60	-80.73	-70.89	-47.62	-38.25	-31.12	-8.460	123.9	434.4	217.0	123.1	443.6	 2113	 4312	662.6	9.115	-5.167	-4.959	-5.600	-4.639	-3.565	-4.065	-4.173	-3.509	-3.792	-3.152	-3.467	-3.054	-2.979	-3.442	-3.223	-3.034	-3.102	-2.350	-2.976	-1.995	-2.070	-1.532	-1.794	-2.199	-2.069	-1.968	-1.859	-2.052	-1.670	-1.695	-1.383	-1.397	-1.418	-1.228	-1.224	-1.372	-1.513	-1.184	-1.446	-1.299	-1.724	-1.441	-1.103	-0.069	0.128	-0.962	-1.301	-1.659	-0.980	-0.983	0.082	1.473	6.052	11.09	10.31	3.251	-1.058	-1.677	-1.647	-1.918	-1.692
290.0	-74.30	-67.33	-48.73	-15.63	-25.55	-22.73	-8.045	45.83	232.0	470.8	299.1	220.1	584.5	 1954	 3259	 1822	136.2	-4.405	-5.046	-5.020	-4.174	-4.132	-4.177	-4.210	-3.569	-2.903	-3.994	-3.212	-3.115	-3.737	-3.551	-3.295	-3.449	-2.443	-2.661	-2.034	-2.391	-2.300	-2.086	-2.269	-2.168	-1.975	-1.886	-1.868	-1.809	-1.917	-1.558	-1.488	-1.119	-1.240	-1.358	-1.410	-1.506	-1.518	-1.524	-1.502	-1.756	-1.569	-1.457	-1.014	-0.425	-0.263	-0.586	-0.748	-0.660	-1.164	-0.683	-0.862	0.073	2.441	5.048	7.184	8.092	5.037	1.253	-1.434	-1.892
295.0	-86.08	-67.54	-15.83	-7.687	-16.13	-12.44	-11.19	21.98	125.2	297.7	709.0	359.6	274.0	520.4	 1047	 3438	 2464	129.0	-4.579	-4.381	-4.435	-4.504	-4.677	-4.190	-3.810	-3.072	-3.761	-2.662	-3.425	-2.899	-3.190	-2.216	-3.202	-2.873	-2.519	-2.701	-1.789	-1.915	-1.925	-1.890	-1.943	-2.060	-1.507	-2.085	-1.496	-1.624	-1.408	-1.287	-0.869	-1.307	-1.574	-1.560	-1.338	-1.086	-1.450	-1.289	-1.643	-1.009	-1.556	-1.288	-0.976	-0.898	-0.533	0.578	0.972	-0.271	-0.914	-1.343	-0.959	-0.475	-0.253	0.507	1.521	5.971	11.29	7.886	1.178
300.0	-58.44	-61.34	12.20	6.521	-24.70	-0.954	0.230	31.49	90.77	184.6	551.3	714.7	289.1	217.5	280.8	 1346	 3967	 1731	46.34	-3.222	-4.586	-3.664	-3.535	-1.988	-4.167	-3.175	-3.594	-3.863	-3.464	-3.210	-3.061	-2.827	-3.129	-2.956	-2.573	-2.485	-1.944	-1.697	-2.199	-1.955	-2.195	-2.078	-1.734	-1.916	-1.795	-1.791	-1.199	-1.226	-0.881	-1.159	-1.281	-1.462	-1.429	-1.372	-1.238	-1.514	-1.535	-1.016	-1.419	-1.201	-1.488	-1.277	-0.768	-0.265	0.274	0.573	-0.374	-0.716	-0.997	-1.163	-1.050	-1.044	-0.795	0.577	4.438	9.891	12.25
305.0	-114.8	-14.23	2.753	-1.257	-11.83	-8.150	1.277	42.48	99.34	152.3	347.6	804.2	516.2	170.9	106.6	336.4	 1889	 3884	415.8	10.26	-2.907	-3.201	-1.823	-2.657	-4.145	-3.107	-3.363	-3.028	-3.428	-3.831	-2.883	-2.562	-2.790	-2.555	-1.848	-2.441	-2.132	-2.110	-2.387	-1.766	-2.462	-1.907	-2.103	-2.346	-1.518	-1.958	-1.173	-1.260	-1.059	-0.701	-0.996	-1.798	-1.145	-1.446	-1.085	-1.387	-1.339	-1.279	-1.294	-1.301	-1.453	-1.222	-1.279	-0.692	-0.664	0.482	0.908	0.168	-1.105	-1.116	-1.355	-1.350	-1.376	-1.223	-0.437	1.517	7.921
310.0	-89.92	-10.72	7.567	8.157	12.16	5.212	24.15	64.09	103.6	164.0	247.3	453.0	666.8	410.0	100.2	100.5	463.6	 1741	 2770	 1444	102.4	-1.825	-2.543	-2.583	-3.409	-2.665	-2.985	-3.476	-2.688	-3.162	-3.189	-2.996	-2.915	-2.290	-2.303	-2.242	-2.528	-2.177	-2.512	-1.912	-2.050	-1.836	-1.755	-2.145	-1.513	-1.602	-1.332	-1.535	-1.530	-0.986	-1.120	-1.499	-1.460	-1.544	-1.210	-1.366	-1.339	-1.280	-1.152	-0.967	-1.253	-1.297	-1.177	-0.909	-1.036	-0.651	-0.291	0.332	0.165	-0.316	-0.791	-1.442	-1.675	-1.653	-1.371	-0.949	0.680
315.0	-90.38	-23.07	4.803	31.62	35.10	51.78	74.11	92.85	116.3	178.1	222.5	275.6	381.6	621.2	304.2	59.60	126.7	404.3	903.7	 3034	 1997	110.3	-0.871	-2.407	-2.903	-2.760	-2.690	-3.351	-2.590	-3.313	-2.660	-3.247	-2.777	-2.569	-2.844	-1.980	-2.327	-2.589	-1.980	-2.053	-1.998	-2.018	-1.545	-2.003	-1.457	-1.485	-1.661	-1.761	-1.148	-0.902	-1.121	-0.979	-1.046	-1.152	-0.938	-1.359	-1.326	-1.339	-1.153	-1.088	-0.981	-1.392	-1.086	-1.124	-0.637	-0.794	-0.829	-0.508	-0.363	0.274	0.350	-0.101	-1.071	-1.217	-1.675	-1.896	-1.186
320.0	-60.71	-18.00	64.33	110.7	132.6	164.6	196.3	220.6	201.9	225.0	234.7	251.2	250.1	430.3	559.3	150.6	60.35	108.8	222.3	 1255	 3378	 1399	42.08	-2.330	-2.302	-2.422	-2.680	-2.591	-2.829	-2.854	-2.807	-2.568	-2.661	-2.220	-2.904	-2.597	-2.387	-2.500	-2.278	-1.791	-1.841	-2.100	-2.113	-1.406	-1.506	-1.751	-1.207	-1.431	-1.203	-1.004	-1.075	-1.303	-1.255	-1.292	-0.445	-0.699	-0.845	-1.153	-1.120	-0.838	-1.162	-0.762	-0.461	-1.193	-0.877	-0.948	-0.976	-0.604	-1.108	-0.684	-0.543	-0.011	-0.230	-1.336	-1.536	-1.499	-1.824
325.0	-7.852	71.68	190.6	278.0	345.8	420.7	473.2	461.6	388.7	370.5	287.6	249.2	231.8	252.9	482.9	380.7	77.18	53.85	71.58	313.3	 1725	 3195	300.7	9.470	-2.788	-2.505	-2.854	-2.686	-2.584	-2.623	-3.012	-2.760	-2.756	-1.519	-2.561	-2.129	-2.480	-2.216	-1.979	-1.649	-2.150	-1.850	-2.132	-1.508	-1.230	-1.683	-1.257	-1.298	-0.916	-0.724	-0.290	-0.751	-0.591	-0.460	-0.021	-0.665	-0.337	-0.232	-0.941	-0.564	-0.677	-0.941	-0.381	-0.877	-0.793	-1.071	-0.957	-1.375	-0.956	-0.813	-1.065	-0.281	-0.034	0.118	-1.053	-1.660	-1.732
330.0	63.13	276.2	540.1	786.0	992.8	 1222	 1351	 1174	949.2	737.2	477.6	305.5	245.2	218.0	272.0	415.3	328.7	104.6	60.85	100.2	431.5	 1493	 2182	 1116	82.03	-1.649	-2.480	-3.049	-2.660	-3.075	-2.665	-3.350	-2.518	-2.209	-2.774	-1.876	-2.386	-2.080	-1.951	-1.919	-1.887	-1.558	-1.293	-1.530	-1.636	-1.364	-1.003	-0.552	0.021	0.079	0.383	0.870	1.357	1.862	2.161	2.223	1.850	1.676	1.403	1.015	0.648	0.345	0.129	-0.170	-0.676	-0.938	-0.945	-1.105	-0.858	-1.061	-1.283	-1.242	-0.763	-0.493	-0.196	-0.612	-0.814
335.0	245.3	573.9	 1045	 1585	 2067	 2470	 2593	 2243	 1791	 1322	756.1	396.4	298.3	254.8	216.3	252.0	415.4	328.4	103.7	67.35	125.4	348.6	774.6	 2585	 1650	94.54	-1.684	-1.753	-2.625	-2.901	-2.625	-2.905	-2.622	-2.682	-1.972	-1.717	-1.988	-1.530	-1.564	-1.896	-2.194	-1.715	-1.879	-1.179	-1.352	-0.414	-0.139	0.346	1.240	1.468	1.866	3.749	3.987	5.853	5.449	5.827	5.222	5.002	5.242	3.467	2.519	2.089	1.718	0.694	-0.024	-0.515	-0.994	-0.799	-1.023	-0.921	-1.156	-1.161	-1.370	-0.863	-0.784	-0.889	-0.355
340.0	440.9	864.9	 1620	 2241	 2936	 3339	 3833	 3315	 2469	 1803	996.8	477.4	336.3	286.1	248.7	219.5	298.4	474.1	235.1	86.93	63.06	100.4	191.7	 1142	 2960	 1201	40.34	-0.698	-2.636	-2.684	-1.946	-2.906	-1.987	-2.658	-2.730	-1.980	-1.832	-1.577	-1.358	-1.803	-1.804	-1.342	-0.939	-0.836	-0.758	-0.392	0.997	1.324	1.794	3.095	3.337	6.041	6.791	7.587	9.035	8.969	8.102	7.809	8.380	6.203	5.034	3.815	2.348	1.155	0.228	-0.287	-0.902	-0.391	-0.916	-0.924	-0.816	-0.879	-1.059	-0.916	-1.391	-1.178	-0.834
345.0	555.5	 1146	 2016	 2843	 3705	 4538	 4891	 4152	 3168	 2335	 1262	543.5	376.0	345.0	291.6	232.8	242.5	402.1	407.3	149.0	57.11	45.51	58.67	280.4	 1574	 2807	244.0	10.74	-1.479	-2.665	-2.464	-2.752	-2.358	-2.489	-3.054	-2.490	-2.472	-1.348	-1.701	-1.595	-1.925	-1.562	-0.734	-0.921	-0.122	0.798	1.769	2.151	3.215	3.911	4.770	8.006	9.099	10.14	10.52	10.98	11.57	10.11	8.946	7.701	6.783	4.950	3.029	2.308	0.104	0.303	-0.089	-1.122	-0.523	-1.087	-0.851	-0.666	-0.829	-1.085	-1.290	-1.029	-0.772
350.0	671.5	 1501	 2462	 3408	 4713	 5537	 5914	 5144	 4024	 2857	 1532	623.2	400.6	358.6	328.6	271.8	257.8	279.4	366.3	322.6	117.9	39.47	31.61	74.54	391.1	 1365	 1834	936.1	74.39	-0.506	-1.701	-2.656	-2.314	-2.285	-2.750	-2.163	-1.911	-1.905	-1.506	-1.815	-1.582	-1.038	-0.767	-0.608	0.206	1.014	1.853	2.691	4.025	5.149	6.692	9.789	11.54	13.36	13.71	14.35	15.03	12.98	11.73	10.25	8.750	6.498	4.881	2.957	1.129	0.237	-0.367	-0.462	-0.652	-0.792	-0.896	-0.585	-0.825	-0.796	-0.935	-0.995	-0.684
355.0	816.7	 1616	 2945	 4071	 5341	 6499	 6838	 5932	 4437	 3201	 1691	664.4	416.3	383.8	359.2	303.7	277.3	263.6	251.6	315.7	263.3	71.65	26.39	32.18	97.94	315.5	696.2	 2206	 1398	86.81	-0.924	-1.524	-2.275	-2.359	-2.119	-2.144	-1.773	-1.863	-1.640	-1.755	-1.399	-1.237	-1.449	-0.369	0.436	1.338	1.925	4.054	4.690	5.600	8.141	10.79	12.54	14.34	15.44	16.99	17.28	16.32	13.87	10.63	9.108	7.522	5.766	3.428	1.088	0.616	0.026	-0.939	-0.446	-0.657	-0.894	-0.653	-0.783	-1.316	-0.987	-0.523	-0.840
360.0	806.0	 1712	 2902	 4495	 5590	 6827	 7140	 6263	 4622	 3358	 1756	696.9	428.9	391.5	359.4	313.0	287.5	264.0	223.2	219.9	303.8	163.7	36.52	21.81	34.00	80.08	168.8	995.8	 2477	 1059	34.77	-1.932	-1.518	-2.545	-1.419	-1.920	-1.679	-1.334	-0.894	-1.685	-1.378	-1.305	-0.885	-0.539	0.594	1.682	1.926	3.742	4.972	6.455	8.852	11.31	13.83	17.15	17.13	18.17	17.86	16.30	12.98	11.39	9.800	7.773	6.203	4.099	1.230	0.824	0.069	-0.662	-0.897	-0.534	-0.866	-0.624	-0.805	-1.170	-0.810	-0.670	-0.302
365.0	809.4	 1736	 3016	 4444	 5769	 6751	 7216	 6482	 4677	 3459	 1813	693.5	434.4	377.6	358.3	316.3	302.7	269.5	222.5	170.1	204.8	256.6	91.64	25.65	23.01	28.47	46.91	247.5	 1333	 2458	216.8	11.11	-1.697	-1.527	-1.528	-1.724	-1.857	-1.545	-1.449	-1.396	-1.402	-1.195	-0.807	-0.518	0.277	1.274	1.893	4.393	4.444	6.745	9.416	11.62	13.56	17.41	18.29	18.93	18.50	16.06	13.63	11.69	9.981	8.013	6.138	3.778	1.001	0.463	-0.051	-0.457	-0.876	-0.715	-0.643	-0.810	-0.169	-0.838	-1.127	-0.894	-0.700
370.0	807.8	 1704	 2968	 4280	 5607	 6556	 7053	 6094	 4507	 3300	 1723	670.5	416.1	359.6	349.4	313.3	299.3	267.0	221.0	155.3	129.9	182.6	197.4	79.55	26.17	20.47	23.00	65.20	328.5	 1185	 1635	826.9	62.38	-1.453	-1.487	-1.838	-1.370	-1.491	-1.822	-1.666	-1.697	-1.274	-1.047	-0.326	0.452	1.459	2.454	3.333	4.825	6.404	8.757	11.49	13.60	16.26	16.87	17.96	17.49	15.18	13.09	11.40	9.786	7.857	5.852	3.623	1.260	0.302	-0.122	-0.559	-1.044	-0.774	-0.489	-0.780	-0.870	-1.094	-1.070	-1.224	-0.673
375.0	770.2	 1582	 2691	 4110	 5079	 6095	 6630	 5631	 4245	 3011	 1550	624.8	402.0	349.9	327.8	302.3	278.6	265.7	210.9	155.4	106.0	95.38	158.3	193.4	67.72	24.17	19.89	25.76	80.78	271.6	613.7	 1964	 1192	71.34	-0.492	-1.678	-1.092	-1.427	-1.539	-1.747	-1.261	-0.929	-0.835	-0.461	0.984	1.760	1.742	3.656	4.168	5.928	7.472	11.19	13.16	14.12	14.33	16.15	15.08	14.77	12.25	10.59	8.917	7.512	5.707	3.586	1.606	0.199	-0.058	-0.536	-0.782	-0.979	-0.899	-0.933	-0.741	-0.977	-0.967	-0.914	-0.871
380.0	621.6	 1562	 2417	 3590	 4866	 5647	 6009	 5184	 3877	 2839	 1441	569.9	369.2	322.7	316.8	289.1	263.0	257.1	202.2	153.6	105.9	75.00	91.60	188.4	142.2	40.58	21.23	17.33	27.62	68.53	146.7	878.4	 2157	863.6	25.22	-1.681	-0.929	-1.149	-1.601	-1.603	-1.097	-1.062	-0.655	-0.370	0.362	1.097	1.842	3.079	3.647	4.646	6.126	11.08	11.50	13.28	14.07	13.61	12.99	12.57	11.18	9.150	8.039	6.321	4.963	2.824	1.236	0.127	-0.424	-0.603	-0.926	-1.137	-0.940	-0.372	-0.718	-1.053	-1.158	-1.050	-1.249
385.0	512.0	 1367	 2235	 3208	 4363	 5263	 5557	 4648	 3596	 2502	 1351	531.3	346.9	310.3	294.7	269.1	249.9	237.2	189.3	147.3	97.74	70.45	65.01	116.6	192.9	90.64	29.08	20.58	18.38	24.61	39.63	218.7	 1176	 1994	166.9	5.586	-0.793	-0.823	-1.484	-1.391	-1.359	-0.839	-0.990	-0.340	0.162	0.774	1.250	3.046	4.064	4.368	5.627	8.955	9.718	11.48	13.28	12.31	11.98	10.69	10.21	8.170	6.818	5.764	4.656	2.511	0.862	-0.489	-0.276	-1.069	-0.901	-1.301	-1.051	-0.656	-0.694	-1.260	-1.047	-1.050	-1.358
