Sample:	'1
File name:	Default_20250318_111122.FD3
Run date:	'11:05:01, 03/18/2025
Operator:	dsjg
Comment:	'

Instrument
Model:	F-2700 FL Spectrophotometer
Serial number:	2198-001
ROM Version:	4J14000 07

Instrument parameters
Measurement type:	3-D scan
Data mode:	Fluorescence
EX  Start WL:	220.0 nm
EX  End WL:	600.0 nm
EX Sampling interval:	5.0 nm
EM  Start WL:	230.0 nm
EM  End WL:	650.0 nm
EM Sampling interval:	5.0 nm
Scan speed:	12000 nm/min
EX Slit:	5.0 nm
EM Slit:	5.0 nm
PMT Voltage:	700 V
Response:	Auto 
Corrected spectra:	Off
Contour interval:	50.000

Peak integration
Integration method:	Rectangular
Sensitivity:	1
Threshold:	1.000

Peaks
No.	ApexEX/EM(nm)	Height(Data)
1	225.0/305.0	153.0
2	225.0/605.0	15.64
3	230.0/345.0	380.5
4	230.0/635.0	11.54
5	235.0/515.0	139.0
6	240.0/520.0	125.5
7	245.0/390.0	483.9
8	245.0/535.0	102.1
9	250.0/405.0	471.9
10	250.0/545.0	85.39
11	255.0/555.0	71.40
12	260.0/285.0	226.5
13	265.0/290.0	236.7
14	265.0/580.0	47.01
15	270.0/300.0	337.4
16	270.0/595.0	37.20
17	275.0/305.0	397.2
18	275.0/605.0	32.65
19	280.0/310.0	376.3
20	280.0/620.0	27.15
21	285.0/315.0	359.3
22	285.0/630.0	20.89
23	290.0/325.0	338.6
24	290.0/645.0	16.47
25	295.0/330.0	281.9
26	300.0/335.0	260.7
27	305.0/340.0	253.5
28	310.0/350.0	210.0
29	315.0/355.0	203.2
30	320.0/360.0	219.4
31	325.0/365.0	204.6
32	330.0/375.0	187.2
33	335.0/380.0	205.6
34	340.0/385.0	200.2
35	350.0/400.0	177.3
36	355.0/405.0	171.5
37	360.0/410.0	150.4
38	365.0/415.0	143.0
39	370.0/425.0	137.1
40	385.0/445.0	95.22
41	400.0/465.0	58.90
42	410.0/475.0	41.91
43	415.0/485.0	36.10
44	420.0/490.0	31.44
45	425.0/495.0	27.03
46	435.0/510.0	19.08
47	440.0/515.0	16.95
48	445.0/525.0	13.97
49	450.0/530.0	11.63
50	455.0/535.0	9.979
51	460.0/545.0	8.304
52	545.0/300.0	2.382
53	555.0/305.0	2.582
54	560.0/310.0	2.281
55	570.0/315.0	2.327
56	580.0/320.0	2.531
57	585.0/325.0	2.519

Data points
	220.0	225.0	230.0	235.0	240.0	245.0	250.0	255.0	260.0	265.0	270.0	275.0	280.0	285.0	290.0	295.0	300.0	305.0	310.0	315.0	320.0	325.0	330.0	335.0	340.0	345.0	350.0	355.0	360.0	365.0	370.0	375.0	380.0	385.0	390.0	395.0	400.0	405.0	410.0	415.0	420.0	425.0	430.0	435.0	440.0	445.0	450.0	455.0	460.0	465.0	470.0	475.0	480.0	485.0	490.0	495.0	500.0	505.0	510.0	515.0	520.0	525.0	530.0	535.0	540.0	545.0	550.0	555.0	560.0	565.0	570.0	575.0	580.0	585.0	590.0	595.0	600.0
230.0	47.61	 1538	 3755	 1185	55.07	5.124	3.913	3.000	1.960	1.435	1.278	1.211	1.178	0.948	0.715	0.753	0.651	0.570	0.551	0.502	0.471	0.430	0.417	0.411	0.343	0.392	0.373	0.311	0.331	0.320	0.309	0.257	0.243	0.236	0.250	0.281	0.297	0.247	0.211	0.207	0.199	0.160	0.192	0.192	0.142	0.133	0.198	1.151	4.205	5.907	3.318	0.769	0.171	0.114	0.109	0.085	0.097	0.113	0.087	0.080	0.075	0.082	0.071	0.077	0.068	0.071	0.076	0.062	0.058	0.063	0.062	0.059	0.053	0.062	0.032	0.041	0.056
235.0	44.57	442.7	 2661	 4906	 2514	54.70	5.909	3.632	2.087	1.752	1.952	1.613	1.513	0.996	0.829	0.732	0.543	0.677	0.585	0.573	0.491	0.484	0.371	0.390	0.427	0.406	0.363	0.290	0.341	0.285	0.293	0.300	0.237	0.205	0.274	0.215	0.268	0.292	0.257	0.216	0.195	0.136	0.159	0.144	0.171	0.196	0.158	0.394	1.300	3.541	6.511	9.518	6.116	1.581	0.180	0.091	0.140	0.093	0.071	0.093	0.087	0.066	0.072	0.070	0.080	0.068	0.064	0.084	0.045	0.059	0.066	0.053	0.050	0.063	0.064	0.041	0.053
240.0	55.71	132.7	877.0	 4529	 8850	407.8	23.32	5.193	3.055	2.065	2.426	1.511	1.329	1.018	0.926	0.638	0.710	0.551	0.670	0.478	0.513	0.461	0.510	0.384	0.376	0.427	0.416	0.325	0.345	0.206	0.310	0.331	0.295	0.224	0.202	0.263	0.203	0.274	0.239	0.216	0.238	0.150	0.189	0.137	0.161	0.264	0.220	0.187	0.404	0.999	2.622	8.155	13.56	11.61	4.701	0.667	0.141	0.066	0.063	0.098	0.078	0.060	0.069	0.090	0.091	0.079	0.065	0.067	0.061	0.078	0.065	0.036	0.031	0.070	0.067	0.052	0.054
245.0	55.90	100.5	232.5	 1706	 9159	 3307	299.7	10.56	3.877	2.599	2.286	1.844	1.627	1.047	0.929	1.054	0.713	0.745	0.601	0.595	0.481	0.493	0.559	0.442	0.460	0.490	0.331	0.412	0.338	0.274	0.303	0.282	0.272	0.248	0.240	0.252	0.187	0.221	0.237	0.244	0.232	0.239	0.228	0.199	0.180	0.249	0.325	0.412	0.374	0.333	0.701	2.559	7.020	13.69	16.06	10.17	3.121	0.307	0.077	0.132	0.090	0.084	0.088	0.081	0.111	0.070	0.134	0.085	0.057	0.076	0.035	0.058	0.031	0.093	0.051	0.051	0.044
250.0	35.76	83.09	148.8	438.7	 3090	 4057	 4331	 1148	50.93	4.040	3.039	2.336	2.035	1.514	1.279	1.001	0.774	0.801	0.701	0.531	0.556	0.578	0.508	0.449	0.442	0.437	0.380	0.389	0.327	0.372	0.273	0.312	0.307	0.242	0.228	0.194	0.222	0.228	0.208	0.220	0.253	0.236	0.214	0.189	0.184	0.174	0.217	0.368	0.473	0.505	0.448	0.794	1.791	4.054	7.844	12.00	15.17	13.76	8.296	2.815	0.301	0.125	0.091	0.077	0.106	0.054	0.101	0.084	0.084	0.078	0.058	0.079	0.051	0.062	0.055	0.045	0.045
255.0	26.20	40.26	104.9	235.6	741.7	 1067	 3595	 6681	 1333	50.51	4.165	3.262	2.525	1.960	1.409	1.256	1.095	0.968	0.758	0.754	0.713	0.503	0.640	0.510	0.479	0.449	0.463	0.382	0.430	0.342	0.339	0.329	0.291	0.273	0.275	0.221	0.199	0.276	0.210	0.222	0.232	0.262	0.217	0.196	0.173	0.159	0.163	0.184	0.313	0.440	0.649	0.899	0.790	1.028	1.863	2.890	5.122	10.93	19.35	22.12	12.53	3.081	0.246	0.108	0.118	0.106	0.093	0.065	0.067	0.089	0.088	0.070	0.066	0.061	0.078	0.051	0.044
260.0	31.76	30.21	48.98	164.2	287.9	269.9	 1100	 5503	 4099	229.8	21.10	4.331	3.291	2.260	1.695	1.298	1.125	1.017	0.945	0.774	0.809	0.563	0.633	0.598	0.466	0.516	0.523	0.418	0.404	0.335	0.371	0.372	0.278	0.291	0.332	0.257	0.230	0.233	0.206	0.187	0.200	0.250	0.225	0.214	0.206	0.218	0.172	0.210	0.191	0.254	0.327	0.810	1.070	0.874	0.630	0.741	1.295	2.881	7.893	17.29	25.33	21.57	8.945	1.375	0.120	0.148	0.093	0.096	0.092	0.107	0.084	0.078	0.082	0.075	0.039	0.068	0.053
265.0	37.19	25.66	25.84	78.23	217.4	158.1	271.3	 1836	 3921	 3511	190.7	10.86	4.097	2.925	2.356	1.543	1.178	1.128	0.950	0.667	0.687	0.644	0.516	0.563	0.432	0.565	0.547	0.400	0.439	0.357	0.409	0.432	0.251	0.285	0.257	0.259	0.271	0.219	0.236	0.183	0.198	0.234	0.219	0.204	0.221	0.179	0.200	0.257	0.147	0.157	0.152	0.375	0.810	1.283	1.034	0.507	0.460	0.816	1.956	4.916	12.62	24.03	27.97	19.13	5.419	0.527	0.149	0.084	0.093	0.103	0.088	0.084	0.073	0.082	0.038	0.061	0.060
270.0	42.86	37.10	25.38	33.66	105.4	174.4	169.9	445.4	 1220	 3059	 3488	 1495	52.41	4.377	3.038	2.093	1.570	1.391	1.061	0.926	0.753	0.702	0.493	0.558	0.573	0.570	0.503	0.445	0.413	0.421	0.424	0.407	0.299	0.334	0.232	0.287	0.260	0.245	0.202	0.203	0.175	0.201	0.184	0.237	0.258	0.249	0.219	0.233	0.214	0.189	0.137	0.199	0.346	0.584	0.846	1.017	1.092	0.700	0.631	1.256	3.067	6.778	12.17	19.49	23.22	22.11	13.82	4.880	0.550	0.131	0.122	0.088	0.104	0.088	0.065	0.074	0.085
275.0	53.65	59.74	44.19	29.13	40.58	82.60	201.0	225.0	302.1	768.0	 2119	 4500	 1135	62.68	4.042	2.589	2.227	1.724	1.392	1.154	0.836	0.795	0.653	0.838	0.607	0.641	0.551	0.465	0.469	0.471	0.438	0.338	0.313	0.311	0.302	0.356	0.232	0.216	0.202	0.209	0.164	0.229	0.209	0.208	0.246	0.246	0.236	0.278	0.305	0.199	0.202	0.150	0.221	0.277	0.341	0.511	0.858	1.321	1.466	0.889	0.917	1.713	2.956	4.663	6.803	13.76	26.30	30.27	20.27	5.003	0.368	0.093	0.112	0.116	0.083	0.105	0.092
280.0	76.17	78.66	58.79	38.91	28.20	37.82	125.5	232.6	160.1	205.9	619.3	 2815	 4508	905.8	34.75	4.270	2.773	2.019	1.843	1.504	0.942	0.765	0.894	0.754	0.576	0.736	0.577	0.627	0.495	0.451	0.531	0.436	0.339	0.399	0.317	0.383	0.280	0.285	0.272	0.208	0.178	0.218	0.179	0.219	0.256	0.301	0.305	0.332	0.401	0.306	0.231	0.203	0.189	0.226	0.288	0.249	0.379	0.879	1.583	1.485	1.196	0.795	0.839	1.304	1.834	3.620	9.080	19.69	32.15	29.37	14.29	1.891	0.158	0.117	0.096	0.113	0.091
285.0	97.48	102.9	83.09	43.50	25.84	24.90	59.30	181.1	226.5	122.2	182.3	886.4	 3265	 4389	670.0	13.11	3.542	2.376	2.012	1.488	1.068	1.002	0.881	0.755	0.786	0.664	0.581	0.605	0.548	0.432	0.455	0.387	0.338	0.469	0.381	0.389	0.366	0.317	0.331	0.232	0.234	0.222	0.198	0.186	0.322	0.280	0.406	0.441	0.387	0.329	0.301	0.236	0.239	0.214	0.180	0.217	0.237	0.389	0.630	1.167	1.686	1.361	0.784	0.626	0.690	1.064	2.360	5.468	12.97	25.97	35.10	25.04	7.565	0.500	0.131	0.131	0.098
290.0	99.09	125.4	104.0	59.48	35.20	29.67	41.27	90.10	198.4	236.7	154.0	268.6	974.4	 2601	 3606	 1749	36.82	4.076	2.664	2.039	1.585	1.319	1.093	0.868	0.897	0.719	0.717	0.634	0.642	0.514	0.509	0.477	0.418	0.406	0.438	0.403	0.393	0.370	0.294	0.263	0.249	0.237	0.217	0.220	0.284	0.302	0.409	0.484	0.458	0.410	0.346	0.260	0.294	0.235	0.183	0.209	0.242	0.326	0.373	0.595	1.039	1.387	1.555	1.515	0.950	0.775	1.006	1.670	3.381	7.066	13.13	20.56	24.36	25.81	15.47	5.365	0.456
295.0	115.0	137.3	118.8	71.52	45.58	39.96	46.53	65.20	112.2	234.2	316.7	195.9	300.7	665.7	 1609	 3978	 2760	45.29	4.020	2.637	2.113	1.740	1.433	1.114	0.942	0.784	0.816	0.722	0.644	0.602	0.525	0.538	0.509	0.460	0.385	0.374	0.435	0.351	0.307	0.290	0.210	0.219	0.214	0.260	0.287	0.273	0.352	0.459	0.537	0.444	0.380	0.361	0.276	0.252	0.296	0.255	0.311	0.334	0.308	0.459	0.581	0.795	0.995	1.491	2.004	1.832	1.222	0.984	1.321	2.063	3.417	5.117	6.931	13.30	26.59	33.20	22.23
300.0	113.5	142.6	122.8	82.02	54.90	44.16	55.76	69.29	91.77	170.2	337.4	317.8	185.4	224.8	462.9	 2002	 4760	585.2	27.66	3.911	2.526	2.063	1.551	1.329	1.159	0.955	0.821	0.842	0.697	0.604	0.657	0.601	0.443	0.489	0.484	0.408	0.384	0.327	0.261	0.330	0.261	0.226	0.250	0.227	0.320	0.354	0.332	0.348	0.523	0.481	0.462	0.404	0.358	0.339	0.363	0.322	0.336	0.427	0.451	0.431	0.523	0.614	0.715	0.992	1.670	2.382	2.365	1.396	1.013	1.103	1.360	1.609	1.953	3.508	8.714	20.38	36.53
305.0	114.8	153.0	136.4	87.63	69.36	55.01	64.39	79.71	100.9	150.7	260.0	397.2	260.9	146.3	162.4	587.2	 2616	 4514	479.0	13.84	3.129	2.493	1.695	1.585	1.466	1.178	0.864	0.961	0.896	0.604	0.615	0.666	0.573	0.548	0.424	0.543	0.419	0.386	0.357	0.348	0.275	0.298	0.337	0.245	0.268	0.338	0.390	0.448	0.518	0.504	0.471	0.446	0.379	0.407	0.352	0.384	0.420	0.403	0.612	0.564	0.568	0.652	0.744	0.857	1.160	1.623	2.272	2.582	1.730	1.036	0.973	0.958	0.907	1.116	2.232	5.509	13.64
310.0	109.5	148.9	142.5	102.4	79.56	68.25	75.08	94.96	115.0	154.5	210.6	309.1	376.3	222.6	119.5	178.1	708.9	 2290	 3591	 1744	28.41	3.739	2.547	2.010	1.640	1.375	1.131	1.002	0.900	0.714	0.675	0.684	0.649	0.564	0.542	0.519	0.420	0.363	0.354	0.369	0.361	0.286	0.321	0.279	0.338	0.371	0.376	0.453	0.543	0.506	0.460	0.450	0.482	0.434	0.418	0.480	0.463	0.505	0.618	0.632	0.716	0.764	0.825	0.943	1.095	1.280	1.539	1.986	2.281	2.172	1.599	1.065	0.737	0.671	0.883	1.547	3.372
315.0	117.5	153.7	163.3	115.3	93.48	84.89	89.87	109.0	131.2	170.4	211.7	255.0	309.4	359.3	202.6	101.3	196.1	548.2	 1328	 4060	 2697	36.93	3.868	2.625	2.068	1.594	1.246	1.164	0.822	0.873	0.885	0.725	0.697	0.637	0.599	0.555	0.456	0.338	0.407	0.384	0.300	0.290	0.251	0.312	0.307	0.366	0.464	0.607	0.559	0.546	0.478	0.442	0.576	0.487	0.513	0.524	0.507	0.604	0.668	0.701	0.760	0.829	0.875	1.042	1.176	1.232	1.386	1.505	1.700	1.860	2.327	2.321	1.463	0.791	0.698	0.750	1.161
320.0	130.4	194.7	194.5	137.3	100.7	93.14	99.10	122.0	148.2	186.2	224.5	257.3	274.0	334.9	319.8	110.8	93.10	154.8	347.4	 1761	 4849	 1896	24.04	3.809	2.492	2.133	1.381	1.517	0.944	0.934	0.856	0.839	0.642	0.626	0.620	0.568	0.453	0.439	0.351	0.358	0.326	0.255	0.263	0.305	0.324	0.365	0.511	0.579	0.756	0.646	0.603	0.591	0.603	0.607	0.577	0.639	0.643	0.607	0.653	0.816	0.840	0.880	1.026	1.156	1.188	1.258	1.353	1.344	1.418	1.496	1.817	2.202	2.531	1.692	0.849	0.680	0.685
325.0	149.0	223.5	240.9	177.8	125.9	102.0	114.0	133.9	164.2	205.7	241.5	273.8	277.1	282.1	338.6	227.6	89.02	76.12	105.4	469.1	 2457	 4871	395.5	13.17	3.374	2.438	1.729	1.641	1.171	1.149	0.938	0.875	0.610	0.590	0.591	0.642	0.506	0.529	0.385	0.395	0.333	0.292	0.328	0.296	0.370	0.459	0.550	0.738	0.857	0.770	0.647	0.712	0.711	0.625	0.596	0.647	0.645	0.659	0.783	0.871	0.977	0.949	1.089	1.150	1.361	1.325	1.451	1.338	1.563	1.609	1.469	1.694	2.088	2.519	1.728	1.048	0.717
330.0	156.8	259.3	300.0	232.4	157.9	123.5	129.3	150.0	179.1	222.0	263.2	295.9	297.6	270.9	267.5	281.9	191.9	76.90	62.83	134.0	626.8	 2274	 3221	 1640	25.42	3.679	2.499	1.878	1.460	1.368	1.085	0.979	0.808	0.731	0.693	0.625	0.518	0.455	0.409	0.379	0.372	0.321	0.329	0.315	0.396	0.483	0.583	0.829	1.004	0.940	0.853	0.915	0.871	0.827	0.649	0.722	0.794	0.842	0.853	0.909	1.067	1.101	1.174	1.338	1.476	1.479	1.590	1.561	1.664	1.665	1.618	1.651	1.602	1.858	1.860	1.975	1.492
335.0	175.8	270.5	340.4	273.6	196.3	156.4	147.8	166.0	198.2	239.5	281.0	314.8	315.2	287.2	244.4	219.2	260.7	173.3	70.51	69.20	170.1	535.6	 1162	 4121	 2466	34.19	3.516	2.572	1.900	1.518	1.343	1.053	1.017	0.741	0.628	0.587	0.618	0.498	0.518	0.377	0.464	0.321	0.333	0.353	0.402	0.463	0.566	0.906	1.183	1.083	1.062	1.039	1.043	0.821	0.804	0.845	0.870	1.026	0.892	0.956	1.114	1.161	1.347	1.343	1.433	1.516	1.678	1.751	1.854	1.836	1.699	1.714	1.601	1.518	1.484	1.542	1.761
340.0	169.8	290.9	365.3	308.8	222.9	186.8	174.3	182.8	209.5	251.2	289.0	327.8	327.5	305.0	256.3	201.3	213.6	253.5	119.1	62.81	75.39	147.3	294.5	 1732	 4903	 1797	23.23	3.354	2.420	1.827	1.481	1.216	0.988	0.775	0.824	0.717	0.647	0.576	0.531	0.432	0.467	0.411	0.307	0.366	0.453	0.517	0.591	0.938	1.163	1.158	1.227	1.233	1.135	1.014	0.901	0.875	0.978	1.098	1.000	1.064	1.166	1.331	1.386	1.477	1.575	1.619	1.708	1.851	1.800	1.779	1.780	1.677	1.706	1.515	1.275	1.301	1.224
345.0	176.5	285.8	380.5	342.7	255.7	206.9	195.0	201.8	220.3	259.5	297.8	333.6	330.4	307.6	264.8	208.9	176.7	231.1	207.5	74.86	60.83	67.75	92.03	442.8	 2566	 4747	354.5	13.57	3.055	2.243	1.718	1.397	1.150	0.874	0.893	0.694	0.664	0.630	0.481	0.516	0.470	0.497	0.257	0.346	0.413	0.520	0.663	0.941	1.204	1.238	1.194	1.372	1.299	1.098	1.055	0.981	1.057	1.125	1.041	1.219	1.296	1.380	1.421	1.576	1.620	1.681	1.659	1.762	1.793	1.812	1.910	1.713	1.739	1.525	1.439	1.171	1.113
350.0	174.7	270.3	378.3	360.9	298.8	253.6	237.6	233.2	252.0	276.6	308.4	336.0	337.4	317.4	276.3	221.3	179.2	175.2	210.0	175.8	86.21	61.55	56.91	126.1	640.4	 2261	 2966	 1501	24.06	3.613	2.232	1.718	1.343	1.133	0.924	0.806	0.662	0.613	0.506	0.474	0.413	0.424	0.334	0.352	0.439	0.516	0.680	0.917	1.194	1.262	1.299	1.359	1.450	1.298	1.425	1.251	1.306	1.406	1.191	1.332	1.431	1.415	1.537	1.644	1.655	1.687	1.731	1.814	1.884	1.938	1.861	1.782	1.714	1.623	1.527	1.386	1.154
355.0	161.2	270.3	372.4	377.3	336.2	316.1	291.3	292.7	300.7	312.5	331.4	351.8	353.1	325.9	287.3	240.0	197.9	170.0	162.2	203.2	175.8	83.11	61.53	66.58	172.2	528.4	 1066	 3746	 2302	35.06	3.520	2.330	1.519	1.308	1.044	0.897	0.655	0.608	0.564	0.519	0.445	0.412	0.398	0.399	0.463	0.487	0.628	0.906	1.130	1.322	1.279	1.454	1.553	1.488	1.498	1.429	1.485	1.553	1.510	1.662	1.705	1.740	1.862	1.682	1.725	1.879	1.994	1.789	1.960	1.964	1.954	1.935	1.869	1.652	1.593	1.472	1.416
360.0	154.6	258.5	375.6	398.8	364.7	347.7	335.6	331.2	334.5	345.5	358.8	364.2	358.6	337.0	301.9	257.6	215.5	183.8	157.6	167.5	219.4	139.7	74.21	62.58	75.24	145.3	267.4	 1574	 4467	 1774	23.74	3.073	1.916	1.514	1.165	0.970	0.727	0.643	0.689	0.455	0.460	0.424	0.456	0.429	0.425	0.542	0.659	0.893	1.068	1.314	1.310	1.582	1.734	1.642	1.725	1.535	1.765	1.801	1.787	1.763	2.002	1.746	1.867	1.902	1.903	1.967	1.989	1.908	2.040	2.062	2.017	2.004	1.944	1.874	1.513	1.559	1.466
365.0	152.7	266.9	370.4	407.9	386.9	375.6	368.5	366.5	370.0	372.5	376.4	367.1	370.7	347.8	313.5	269.0	230.8	194.5	167.8	154.8	191.6	204.6	105.8	70.45	61.96	66.56	84.09	396.6	 2343	 4598	344.4	12.81	2.787	1.762	1.394	1.003	0.784	0.787	0.658	0.518	0.435	0.402	0.406	0.396	0.412	0.527	0.632	0.893	1.080	1.327	1.375	1.635	1.771	1.753	1.800	1.793	1.972	1.980	1.939	1.965	1.944	1.950	1.892	1.904	2.014	1.983	1.848	1.993	1.906	2.096	1.986	2.038	1.974	1.850	1.602	1.762	1.677
370.0	149.1	254.1	362.8	411.8	418.3	421.4	406.0	395.0	399.2	397.5	397.1	389.3	381.9	353.6	322.2	280.6	245.4	213.9	185.2	164.8	161.5	192.3	181.5	108.2	72.67	59.80	52.73	113.4	581.0	 2212	 2912	 1374	21.64	2.888	1.915	1.307	1.004	0.799	0.755	0.574	0.487	0.495	0.388	0.435	0.457	0.497	0.676	0.806	1.039	1.224	1.380	1.641	1.899	1.848	1.937	2.000	2.110	2.097	2.095	2.084	2.128	2.213	2.096	2.301	2.145	2.173	2.145	1.980	2.056	2.063	1.910	2.039	2.137	1.907	1.714	1.887	1.742
375.0	153.6	251.2	359.2	412.5	443.4	451.6	442.6	427.6	426.4	423.1	415.6	405.5	386.4	358.8	328.0	291.3	261.5	230.5	203.3	180.5	164.4	162.2	187.2	186.5	103.9	73.69	57.20	59.49	153.4	512.7	 1062	 3454	 2046	29.82	2.846	1.637	1.245	0.937	0.899	0.686	0.503	0.580	0.438	0.491	0.457	0.566	0.569	0.798	1.129	1.199	1.417	1.594	1.885	1.972	2.033	2.156	2.193	2.314	2.236	2.301	2.248	2.378	2.366	2.372	2.223	2.071	2.200	2.084	2.123	2.104	2.058	2.045	2.142	2.102	1.819	1.770	1.751
380.0	140.1	237.6	359.0	423.8	447.8	472.6	465.2	448.7	435.9	437.6	426.8	415.5	392.8	361.9	332.5	296.8	268.9	240.4	215.1	192.1	173.4	161.5	164.3	205.6	155.1	89.24	67.21	54.73	64.83	136.3	259.7	 1469	 3964	 1400	19.64	2.009	1.430	1.190	0.960	0.675	0.542	0.530	0.429	0.495	0.515	0.604	0.726	0.926	1.074	1.125	1.239	1.589	1.871	2.209	2.168	2.250	2.231	2.398	2.319	2.317	2.216	2.509	2.481	2.372	2.211	2.336	2.162	1.954	2.027	2.013	2.141	2.079	1.997	2.065	2.082	1.803	1.924
385.0	146.6	239.5	351.8	428.6	469.8	476.7	468.1	451.0	448.7	450.1	429.4	418.1	396.8	362.1	331.7	301.7	273.3	248.0	221.7	201.9	181.8	167.9	157.8	179.1	200.2	121.2	78.46	61.78	50.89	57.09	76.56	365.6	 2129	 3537	278.9	8.718	1.777	1.264	1.113	0.858	0.688	0.624	0.506	0.487	0.512	0.546	0.675	0.944	1.086	1.138	1.324	1.627	1.965	2.141	2.253	2.381	2.387	2.420	2.420	2.377	2.460	2.394	2.471	2.383	2.297	2.235	2.280	2.157	2.280	2.186	2.205	2.117	2.069	2.062	1.883	1.962	1.979
390.0	146.5	242.1	338.0	410.1	470.8	483.9	463.4	461.1	450.6	446.3	425.9	415.3	392.6	363.6	331.9	300.7	276.0	253.2	230.9	211.1	194.1	176.7	164.6	160.0	179.0	174.9	115.0	75.76	58.34	48.13	42.88	99.69	524.4	 1716	 2237	 1076	17.44	2.102	1.284	1.050	0.703	0.621	0.545	0.512	0.518	0.582	0.652	0.883	0.997	1.168	1.359	1.733	1.985	2.118	2.288	2.407	2.450	2.448	2.555	2.411	2.400	2.454	2.461	2.375	2.219	2.303	2.250	2.131	2.198	2.204	2.066	1.999	2.061	2.084	1.904	1.901	1.925
395.0	141.6	226.2	336.6	407.6	465.1	479.3	469.2	459.1	448.8	449.7	427.3	410.8	390.7	358.3	328.5	300.3	275.7	257.0	238.0	218.9	202.6	186.5	175.6	161.5	157.0	168.3	170.3	108.1	70.53	55.98	44.05	46.25	133.5	395.8	807.3	 2650	 1571	24.44	2.033	1.212	0.949	0.698	0.679	0.553	0.573	0.579	0.615	0.928	0.988	1.168	1.317	1.737	2.051	2.123	2.298	2.351	2.369	2.376	2.640	2.492	2.289	2.429	2.334	2.339	2.247	2.405	2.165	2.022	2.241	2.084	2.033	2.154	2.048	1.994	1.992	1.748	1.978
400.0	133.0	229.7	326.7	409.3	451.5	475.6	471.7	460.6	440.7	439.8	421.8	404.0	383.5	355.4	323.9	294.6	275.0	258.0	238.7	219.5	206.5	192.9	179.6	166.1	154.8	150.0	177.3	149.0	85.54	64.26	48.89	39.23	50.98	102.7	196.5	 1141	 2859	 1034	15.79	1.646	1.138	0.795	0.708	0.639	0.548	0.597	0.670	0.821	0.924	1.225	1.327	1.686	1.891	1.962	2.313	2.247	2.321	2.481	2.454	2.371	2.364	2.329	2.349	2.530	2.310	2.227	2.178	1.988	2.113	2.021	2.147	1.813	2.084	1.962	1.923	1.828	2.008
405.0	134.4	220.8	320.1	401.2	447.9	470.4	471.9	463.7	439.5	433.2	419.0	396.8	372.8	349.1	322.4	291.9	274.2	255.3	239.6	223.3	207.9	196.2	183.3	170.0	160.0	145.2	153.7	171.5	116.2	73.52	55.88	43.95	36.41	40.65	56.65	281.6	 1499	 2332	238.9	8.279	1.310	1.012	0.829	0.643	0.606	0.704	0.702	0.953	1.008	1.059	1.324	1.593	1.847	1.989	2.084	2.339	2.428	2.339	2.335	2.305	2.452	2.390	2.387	2.571	2.316	2.399	2.090	2.033	2.063	2.034	2.116	1.971	2.176	2.029	1.967	1.859	1.910
410.0	130.8	211.5	303.9	377.8	431.4	455.9	458.0	450.3	438.3	423.7	407.2	391.6	362.8	341.7	313.7	286.3	269.3	251.9	237.1	219.6	207.1	197.6	185.3	175.9	163.2	148.9	140.8	149.9	150.4	105.3	68.42	51.49	39.00	31.47	29.19	74.96	364.8	 1198	 1808	885.2	15.01	1.684	1.004	0.737	0.671	0.695	0.723	0.994	1.006	1.097	1.348	1.541	1.902	1.965	2.034	2.166	2.294	2.347	2.288	2.386	2.361	2.425	2.445	2.298	2.189	2.147	2.114	2.137	2.006	1.955	1.934	2.034	1.978	1.877	1.795	1.761	1.966
