Sample:	'1
File name:	C2025060312圣泉新材料萃取后（固） 10000倍.FD3
Run date:	'14:29:12, 06/04/2025
Operator:	Administrator
Comment:	'

Instrument
Model:	F-2700 FL Spectrophotometer
Serial number:	23B8-004
ROM Version:	4J14000 07

Instrument parameters
Measurement type:	3-D scan
Data mode:	Fluorescence
EX  Start WL:	220.0 nm
EX  End WL:	600.0 nm
EX Sampling interval:	5.0 nm
EM  Start WL:	230.0 nm
EM  End WL:	650.0 nm
EM Sampling interval:	5.0 nm
Scan speed:	12000 nm/min
EX Slit:	5.0 nm
EM Slit:	5.0 nm
PMT Voltage:	700 V
Response:	Auto 
Corrected spectra:	Off
Contour interval:	50.000

Peak integration
Integration method:	Rectangular
Sensitivity:	1
Threshold:	1.000

Peaks
No.	ApexEX/EM(nm)	Height(Data)
1	225.0/490.0	186.9
2	230.0/505.0	164.8
3	235.0/515.0	140.9
4	240.0/265.0	488.6
5	240.0/525.0	124.6
6	245.0/270.0	496.8
7	245.0/540.0	120.2
8	250.0/275.0	637.7
9	250.0/550.0	107.5
10	255.0/285.0	836.1
11	255.0/565.0	122.5
12	260.0/575.0	150.7
13	265.0/295.0	1661
14	265.0/585.0	163.8
15	270.0/300.0	1908
16	270.0/600.0	148.2
17	275.0/610.0	99.65
18	280.0/625.0	55.64
19	285.0/320.0	501.3
20	285.0/635.0	32.11
21	290.0/325.0	436.7
22	295.0/330.0	310.1
23	300.0/335.0	306.3
24	305.0/345.0	257.3
25	310.0/350.0	196.6
26	315.0/355.0	182.1
27	320.0/360.0	165.4
28	330.0/375.0	110.0
29	335.0/380.0	125.3
30	340.0/385.0	101.7
31	350.0/400.0	85.26
32	355.0/405.0	78.47
33	360.0/410.0	60.47
34	365.0/420.0	60.57
35	370.0/425.0	58.44
36	375.0/430.0	44.59
37	380.0/440.0	41.31
38	385.0/300.0	4.638
39	385.0/445.0	38.36
40	390.0/450.0	28.62
41	395.0/460.0	26.64
42	400.0/465.0	23.81
43	405.0/470.0	17.96
44	410.0/480.0	16.22
45	415.0/485.0	14.77
46	420.0/490.0	11.27
47	425.0/500.0	11.97
48	430.0/505.0	9.933
49	435.0/515.0	7.664
50	440.0/520.0	8.012
51	445.0/525.0	6.758
52	450.0/535.0	5.416
53	455.0/540.0	5.191
54	465.0/555.0	3.045
55	470.0/560.0	2.634
56	480.0/575.0	1.679
57	485.0/265.0	2.309
58	485.0/580.0	1.432
59	495.0/270.0	2.487
60	505.0/275.0	3.541
61	510.0/280.0	4.084
62	520.0/285.0	4.980
63	530.0/290.0	6.179
64	540.0/295.0	8.540
65	545.0/300.0	9.428
66	550.0/305.0	7.931
67	570.0/315.0	3.498
68	580.0/320.0	3.178
69	585.0/325.0	2.901

Data points
	220.0	225.0	230.0	235.0	240.0	245.0	250.0	255.0	260.0	265.0	270.0	275.0	280.0	285.0	290.0	295.0	300.0	305.0	310.0	315.0	320.0	325.0	330.0	335.0	340.0	345.0	350.0	355.0	360.0	365.0	370.0	375.0	380.0	385.0	390.0	395.0	400.0	405.0	410.0	415.0	420.0	425.0	430.0	435.0	440.0	445.0	450.0	455.0	460.0	465.0	470.0	475.0	480.0	485.0	490.0	495.0	500.0	505.0	510.0	515.0	520.0	525.0	530.0	535.0	540.0	545.0	550.0	555.0	560.0	565.0	570.0	575.0	580.0	585.0	590.0	595.0	600.0
230.0	123.6	1925	4725	933.6	33.43	7.969	6.283	4.792	3.844	3.787	3.518	2.776	2.288	1.966	2.211	1.627	1.370	1.322	1.065	0.992	0.892	0.805	0.731	0.686	0.636	0.622	0.615	0.579	0.521	0.508	0.528	0.507	0.458	0.496	0.441	0.397	0.413	0.420	0.449	0.438	0.669	0.972	0.929	0.571	0.372	0.425	2.050	6.877	9.786	6.310	2.234	0.544	0.268	0.286	0.245	0.259	0.262	0.263	0.282	0.288	0.275	0.245	0.264	0.280	0.257	0.237	0.256	0.252	0.275	0.274	0.259	0.283	0.295	0.244	0.249	0.267	0.282
235.0	284.1	549.7	3137	3577	606.8	48.52	6.529	5.259	4.717	4.520	3.772	2.610	2.901	1.976	2.708	1.837	1.541	1.252	1.238	1.028	0.932	1.158	0.797	0.690	0.658	0.612	0.674	0.563	0.575	0.547	0.424	0.519	0.504	0.441	0.449	0.382	0.498	0.396	0.449	0.409	0.421	0.609	0.919	0.853	0.661	0.613	0.688	1.934	4.127	6.542	9.810	8.549	3.690	0.799	0.302	0.262	0.253	0.259	0.236	0.269	0.272	0.243	0.293	0.248	0.261	0.278	0.252	0.241	0.241	0.249	0.236	0.289	0.267	0.252	0.237	0.248	0.258
240.0	358.3	298.7	968.1	3297	3180	462.9	23.34	6.049	5.311	4.710	3.768	2.924	2.906	2.474	2.722	1.762	1.509	1.427	1.229	1.174	0.991	1.110	0.833	0.641	0.708	0.621	0.688	0.550	0.616	0.514	0.507	0.516	0.494	0.502	0.396	0.389	0.415	0.410	0.401	0.356	0.371	0.441	0.518	0.733	1.113	1.061	0.713	0.713	1.175	2.265	5.851	12.48	14.48	8.784	2.745	0.505	0.284	0.345	0.250	0.237	0.251	0.286	0.258	0.317	0.288	0.263	0.235	0.274	0.244	0.253	0.290	0.243	0.290	0.244	0.230	0.233	0.311
245.0	244.3	378.0	315.8	1183	3801	3205	313.4	10.66	6.515	5.024	4.545	3.994	2.869	2.819	2.729	1.910	1.663	1.567	1.446	1.223	1.075	1.019	0.741	0.762	0.693	0.726	0.711	0.623	0.567	0.485	0.523	0.470	0.565	0.424	0.387	0.378	0.422	0.367	0.435	0.411	0.366	0.381	0.428	0.495	0.682	1.014	1.257	0.926	0.665	0.751	1.591	4.476	11.20	17.14	14.69	7.069	1.774	0.459	0.279	0.303	0.273	0.265	0.256	0.332	0.287	0.249	0.271	0.252	0.245	0.259	0.315	0.248	0.330	0.243	0.230	0.251	0.282
250.0	99.91	270.8	374.4	376.4	1314	3711	3847	1102	53.56	6.885	5.847	4.809	3.404	2.803	3.010	1.968	1.746	1.393	1.304	1.211	1.073	0.896	0.750	0.769	0.732	0.725	0.742	0.711	0.567	0.584	0.559	0.550	0.541	0.498	0.381	0.408	0.360	0.407	0.392	0.406	0.413	0.404	0.392	0.403	0.442	0.547	0.787	1.058	1.110	0.948	0.834	1.300	2.943	5.905	10.25	14.66	17.89	15.07	7.487	2.157	0.425	0.279	0.303	0.300	0.281	0.270	0.291	0.244	0.295	0.296	0.281	0.298	0.294	0.256	0.256	0.270	0.288
255.0	46.45	90.47	283.2	414.8	393.4	1018	3623	5804	1458	46.49	8.780	6.379	4.241	3.283	3.871	2.285	1.874	1.870	1.418	1.258	1.086	0.905	0.767	0.960	0.780	0.883	0.704	0.619	0.541	0.740	0.560	0.564	0.554	0.501	0.432	0.489	0.405	0.438	0.416	0.443	0.396	0.420	0.377	0.404	0.453	0.419	0.450	0.531	0.730	1.073	1.524	1.370	1.208	1.601	2.640	3.793	7.673	18.26	29.75	26.18	13.68	2.072	0.314	0.360	0.287	0.281	0.272	0.276	0.299	0.372	0.302	0.247	0.258	0.350	0.259	0.247	0.306
260.0	43.02	44.29	117.1	385.5	373.2	299.7	1208	5549	5737	279.5	20.39	9.320	5.114	4.120	4.248	2.719	1.881	2.033	1.623	1.421	1.447	1.069	0.909	0.994	0.792	0.718	0.782	0.640	0.610	0.618	0.547	0.607	0.529	0.526	0.480	0.596	0.428	0.464	0.438	0.404	0.374	0.420	0.420	0.405	0.374	0.381	0.378	0.423	0.432	0.579	1.061	2.137	1.977	1.211	0.994	1.138	2.106	5.222	14.67	29.19	43.85	23.69	8.617	1.120	0.339	0.338	0.382	0.304	0.275	0.280	0.293	0.281	0.270	0.335	0.296	0.315	0.388
265.0	44.71	32.90	49.33	201.9	488.6	284.1	329.0	2106	6945	5529	209.8	13.68	6.638	5.164	4.362	3.373	2.208	2.102	1.817	1.560	1.374	1.270	1.097	0.833	1.002	0.772	0.702	0.698	0.723	0.692	0.564	0.613	0.519	0.531	0.518	0.491	0.417	0.455	0.387	0.477	0.374	0.395	0.476	0.423	0.398	0.420	0.363	0.395	0.391	0.380	0.535	1.219	2.015	2.309	1.535	0.787	0.900	1.535	3.857	9.243	27.11	39.03	33.21	20.97	5.302	0.589	0.353	0.336	0.279	0.308	0.335	0.320	0.269	0.300	0.280	0.307	0.295
270.0	78.39	55.98	48.34	81.33	278.0	496.8	329.8	549.7	2439	6646	5900	859.8	41.15	7.638	6.591	4.243	3.073	2.655	2.185	1.836	1.451	1.250	1.013	1.069	0.942	0.862	0.777	0.798	0.769	0.710	0.669	0.683	0.681	0.735	0.663	0.558	0.520	0.536	0.433	0.511	0.456	0.449	0.423	0.400	0.472	0.501	0.447	0.419	0.347	0.322	0.340	0.534	0.895	1.552	2.138	2.487	2.061	1.228	1.359	2.507	6.773	12.01	20.43	35.79	38.61	32.28	13.95	3.821	0.544	0.337	0.347	0.329	0.326	0.282	0.310	0.275	0.284
275.0	201.2	133.3	90.81	57.22	116.0	297.5	637.7	392.5	634.6	1829	6296	9999.9	1098	33.52	11.70	5.656	4.298	3.672	2.566	1.992	1.701	1.367	1.140	0.919	1.053	0.867	0.830	0.861	0.802	0.688	0.749	0.778	0.977	1.083	0.990	0.791	0.695	0.578	0.626	0.729	0.571	0.730	0.547	0.643	0.734	0.764	0.587	0.538	0.415	0.376	0.383	0.352	0.545	0.767	1.099	1.643	2.891	3.541	2.297	1.333	2.151	3.233	5.157	8.886	13.67	27.01	48.15	33.20	22.37	3.974	0.515	0.365	0.353	0.359	0.297	0.347	0.330
280.0	380.6	253.1	138.6	70.13	83.74	174.6	508.2	721.8	392.9	648.0	2218	9999.9	8244	156.3	20.72	8.154	5.186	4.339	3.248	2.195	2.050	1.321	1.334	1.216	1.059	1.199	1.054	0.785	0.941	0.788	0.774	0.945	1.359	1.613	1.537	1.295	0.937	1.065	0.920	0.869	0.781	1.015	1.073	1.046	1.069	1.074	0.915	0.802	0.624	0.440	0.425	0.458	0.567	0.571	0.720	0.884	1.627	2.917	4.084	3.439	2.198	1.957	2.386	3.387	4.508	8.047	18.91	36.33	61.28	31.46	15.19	1.716	0.434	0.367	0.318	0.354	0.324
285.0	673.6	397.0	198.7	88.44	85.51	143.6	319.5	836.1	804.2	645.7	1013	3862	9999.9	6760	118.8	11.71	7.071	5.550	3.908	2.731	2.256	1.757	1.512	1.389	1.090	1.191	1.085	0.823	0.934	0.796	0.751	1.203	2.000	2.827	2.213	1.812	1.313	1.319	1.222	1.427	1.379	1.519	1.464	1.480	1.368	1.650	1.267	1.010	0.822	0.554	0.410	0.476	0.535	0.595	0.650	0.890	1.088	1.821	2.788	4.680	4.980	3.478	2.549	2.918	3.550	4.070	6.395	11.85	28.47	46.80	57.54	26.44	7.331	0.749	0.435	0.422	0.388
290.0	1004	590.0	269.1	115.1	96.89	155.3	284.2	599.4	1149	1264	1087	1514	3414	8328	9999.9	465.7	25.48	7.860	5.209	3.769	2.716	2.116	1.785	1.517	1.208	1.188	1.149	1.022	0.941	0.850	0.898	1.731	2.878	3.837	3.233	2.412	2.167	1.830	1.760	1.935	1.984	2.140	1.980	2.164	2.225	2.060	1.697	1.186	1.041	0.648	0.484	0.545	0.593	0.652	0.751	0.910	1.113	1.562	2.095	3.016	4.379	5.601	6.179	5.811	4.957	4.535	4.742	5.654	8.784	13.76	24.35	33.21	33.85	35.83	17.44	5.976	1.030
295.0	1221	698.2	289.9	117.0	97.35	166.3	283.8	534.8	944.9	1661	1612	1129	1072	2134	9308	9999.9	651.5	24.74	7.515	5.068	3.389	2.766	2.073	1.594	1.565	1.421	1.306	1.019	1.080	0.952	0.894	2.086	3.581	4.613	3.863	2.942	2.350	2.163	2.371	2.288	2.485	2.481	2.633	2.682	2.714	2.263	1.805	1.336	1.033	0.794	0.556	0.568	0.572	0.614	0.757	0.846	1.176	1.455	2.068	2.396	3.270	4.251	6.011	8.188	8.540	6.695	5.274	4.743	4.646	4.472	6.384	8.204	9.765	21.99	43.83	52.42	26.04
300.0	1297	735.0	308.7	112.5	90.57	152.0	277.1	504.8	840.4	1389	1908	1206	558.2	559.1	2646	9999.9	6054	500.0	11.82	6.288	4.326	2.916	2.393	1.910	1.552	1.503	1.334	1.213	1.177	0.960	1.168	2.247	3.965	4.638	4.000	2.889	2.461	2.235	2.234	2.540	2.563	2.691	2.731	2.777	2.672	2.351	1.796	1.492	0.978	0.792	0.594	0.545	0.542	0.613	0.730	0.842	1.214	1.472	1.988	2.394	3.284	3.958	4.683	6.545	8.194	9.428	7.266	5.251	3.571	2.671	2.363	2.440	2.811	5.727	14.08	33.89	52.51
305.0	1140	671.7	286.6	100.8	89.47	146.7	262.6	458.5	762.7	1137	1603	1504	492.1	202.7	636.3	3430	9999.9	5255	70.75	8.996	5.795	3.455	2.660	2.036	1.852	1.545	1.487	1.183	1.160	1.079	1.157	2.166	3.591	4.530	4.021	3.108	2.547	2.277	2.325	2.313	2.392	2.430	2.497	2.734	2.296	2.232	1.699	1.382	1.011	0.693	0.596	0.534	0.541	0.506	0.864	0.790	1.106	1.406	1.713	2.410	3.117	3.631	4.348	5.102	6.389	7.346	7.931	7.115	3.997	2.280	1.470	1.115	1.168	1.772	3.676	8.754	20.11
310.0	1009	560.3	228.6	91.36	75.24	116.5	211.4	372.4	621.9	885.9	1088	1195	757.7	159.2	175.6	804.3	3145	8287	7078	310.6	19.64	4.905	3.183	2.564	1.944	1.640	1.572	1.294	1.417	1.225	1.168	1.896	2.922	3.780	3.499	2.566	2.079	1.984	1.924	2.134	2.089	2.044	2.332	2.248	2.116	1.872	1.505	1.194	0.885	0.649	0.517	0.521	0.513	0.579	0.652	0.766	0.951	1.200	1.590	1.883	2.492	3.051	3.680	4.161	4.683	4.919	4.924	5.514	5.071	3.771	2.275	1.096	0.726	0.890	1.279	2.386	4.952
315.0	724.5	438.7	191.5	80.21	63.73	90.54	160.9	279.5	468.5	652.3	751.2	700.9	610.8	485.5	116.2	201.1	721.5	1982	5711	9028	486.7	14.36	4.734	3.267	2.413	2.122	1.856	1.620	1.532	1.261	1.287	1.725	2.563	2.816	2.878	1.972	1.703	1.688	1.498	1.782	1.833	1.863	1.894	1.786	1.787	1.560	1.202	1.033	0.820	0.576	0.488	0.479	0.476	0.566	0.529	0.678	0.825	1.032	1.281	1.624	1.860	2.253	2.870	3.152	3.432	3.384	3.284	3.353	2.905	2.839	3.498	3.107	1.622	0.834	0.645	0.918	1.555
320.0	633.4	379.7	187.7	71.17	54.07	74.12	127.0	221.2	369.5	510.8	563.0	483.8	331.0	501.3	285.7	77.12	178.1	461.5	1545	7552	4388	67.05	8.366	4.326	3.263	2.316	2.081	1.612	1.569	1.386	1.293	1.694	2.323	2.588	2.723	1.941	1.597	1.439	1.431	1.569	1.538	1.632	1.684	1.523	1.516	1.372	1.131	0.949	0.686	0.571	0.398	0.474	0.448	0.530	0.514	0.546	0.748	0.927	1.134	1.350	1.572	1.926	2.127	2.528	2.941	2.724	2.677	2.507	1.995	1.551	1.990	2.909	3.178	1.997	0.849	0.691	0.661
325.0	545.4	344.0	184.4	74.10	48.35	61.57	102.9	175.6	289.2	397.5	446.4	365.7	204.7	266.9	436.7	114.3	58.05	120.4	365.6	2286	7413	3669	54.35	6.094	3.806	3.039	2.343	1.977	1.641	1.377	1.276	1.684	2.026	2.485	2.181	1.820	1.424	1.243	1.240	1.452	1.419	1.470	1.516	1.375	1.370	1.385	1.117	1.056	0.786	0.553	0.460	0.527	0.400	0.490	0.521	0.532	0.696	0.725	1.001	1.125	1.352	1.593	1.736	2.128	2.266	2.228	1.988	1.920	1.504	1.181	1.055	1.359	2.389	2.901	2.280	0.970	0.616
330.0	429.7	315.7	184.0	85.72	49.89	55.42	81.18	128.8	208.1	286.3	319.9	266.7	140.4	109.9	238.8	310.1	128.6	47.37	96.93	528.7	2247	4771	4439	988.6	15.79	4.169	3.112	2.379	1.985	1.617	1.380	1.616	1.722	2.167	1.910	1.404	1.163	1.214	1.078	1.223	1.205	1.164	1.209	1.210	1.283	1.255	1.029	1.003	0.765	0.565	0.453	0.536	0.511	0.478	0.494	0.518	0.613	0.693	0.806	0.859	1.021	1.245	1.331	1.646	1.631	1.633	1.665	1.384	1.345	0.916	0.747	0.772	0.985	1.414	1.930	2.135	1.988
335.0	363.9	304.8	195.7	94.93	61.81	53.70	62.99	97.48	149.9	203.5	226.9	194.2	107.6	65.95	86.07	179.3	306.3	85.65	36.09	131.0	513.9	1135	3321	5621	406.0	16.07	4.317	2.979	2.224	1.904	1.744	1.576	1.662	1.740	1.601	1.233	1.263	1.165	0.993	0.935	0.944	1.086	0.968	1.005	1.186	1.027	1.024	0.998	0.766	0.627	0.519	0.531	0.617	0.488	0.539	0.643	0.681	0.560	0.677	0.748	0.884	0.967	1.035	1.358	1.292	1.181	1.264	1.144	1.083	0.817	0.684	0.528	0.563	0.743	0.873	1.102	1.815
340.0	328.4	292.7	199.4	107.0	65.90	53.55	54.13	74.81	115.8	152.6	177.0	149.8	88.71	51.94	46.73	73.97	233.8	235.8	47.53	40.89	126.6	265.0	889.7	4282	3550	336.5	7.444	3.891	2.736	2.217	1.829	1.673	1.599	1.695	1.512	1.283	0.998	1.112	0.968	0.959	0.989	1.026	0.934	0.944	1.116	0.905	0.907	0.901	0.693	0.628	0.499	0.521	0.545	0.467	0.545	0.578	0.549	0.657	0.663	0.654	0.807	0.834	0.883	1.118	1.051	0.906	1.017	0.947	0.842	0.706	0.632	0.501	0.482	0.506	0.566	0.590	0.855
345.0	282.8	265.4	174.8	108.0	62.60	51.18	49.02	63.87	90.49	119.2	134.1	121.6	74.66	43.97	37.04	38.27	100.5	257.3	143.4	26.45	38.68	70.04	210.3	1257	4452	3267	50.54	5.498	3.177	2.253	1.926	1.807	1.596	1.570	1.433	1.312	0.960	1.026	0.889	0.921	0.885	0.891	0.872	0.796	0.923	0.816	0.833	0.923	0.684	0.618	0.530	0.543	0.519	0.459	0.521	0.541	0.457	0.573	0.563	0.640	0.710	0.641	0.745	0.874	0.908	0.840	0.872	0.887	0.763	0.682	0.540	0.502	0.529	0.461	0.505	0.510	0.523
350.0	235.5	219.9	155.0	97.84	67.39	48.59	40.32	49.00	65.70	88.31	99.97	92.69	59.67	38.76	31.34	26.62	39.25	110.6	196.6	110.5	26.96	24.06	55.19	289.8	1297	3527	3873	1030	16.22	3.267	2.500	1.900	1.711	1.529	1.535	1.198	1.070	0.989	0.913	0.903	0.894	0.734	0.712	0.770	0.849	0.812	0.774	0.799	0.673	0.589	0.512	0.540	0.468	0.466	0.458	0.453	0.433	0.497	0.501	0.531	0.688	0.596	0.662	0.675	0.741	0.725	0.823	0.705	0.619	0.573	0.529	0.487	0.473	0.460	0.419	0.448	0.458
355.0	195.1	187.3	146.4	92.90	59.56	44.76	34.20	38.95	46.66	64.90	72.85	68.65	45.56	34.03	27.51	22.32	22.10	36.78	82.16	182.1	71.65	17.32	19.00	71.68	295.6	821.9	2588	5014	397.2	16.82	3.126	2.439	1.886	1.751	1.364	1.239	1.090	0.939	0.877	0.823	0.839	0.667	0.674	0.620	0.808	0.789	0.757	0.733	0.688	0.525	0.456	0.531	0.470	0.471	0.488	0.427	0.399	0.425	0.481	0.484	0.607	0.651	0.563	0.634	0.700	0.573	0.563	0.627	0.502	0.493	0.537	0.483	0.458	0.457	0.432	0.415	0.435
360.0	171.8	159.5	128.3	85.07	55.76	39.70	31.15	32.24	38.90	50.96	53.97	53.74	39.93	29.21	24.94	19.59	16.84	17.71	29.61	108.5	165.4	48.10	10.79	21.35	71.92	190.3	667.4	3366	4726	334.6	8.110	3.068	2.301	1.977	1.331	1.236	1.082	1.003	0.847	0.860	0.818	0.728	0.693	0.648	0.641	0.678	0.616	0.701	0.641	0.546	0.501	0.478	0.408	0.509	0.432	0.378	0.382	0.389	0.409	0.449	0.526	0.557	0.483	0.548	0.550	0.529	0.560	0.504	0.526	0.501	0.501	0.482	0.459	0.432	0.482	0.424	0.432
365.0	154.8	135.8	106.6	79.74	52.40	35.60	29.58	26.60	31.92	42.17	45.98	43.12	34.40	26.62	22.64	17.90	15.30	13.16	14.69	41.58	141.3	126.0	22.09	8.925	21.15	48.29	156.7	925.0	4194	3124	49.78	5.309	2.835	2.150	1.868	1.323	0.980	1.060	0.817	0.864	0.765	0.709	0.726	0.591	0.718	0.751	0.584	0.607	0.578	0.500	0.446	0.512	0.452	0.455	0.433	0.366	0.390	0.385	0.458	0.457	0.462	0.450	0.485	0.566	0.526	0.477	0.478	0.465	0.463	0.470	0.447	0.519	0.444	0.387	0.371	0.371	0.451
370.0	132.7	121.8	93.25	67.14	48.85	32.74	25.92	22.88	26.82	32.61	35.09	34.74	27.97	22.01	19.53	15.80	13.73	11.29	10.78	16.20	52.77	120.7	91.78	22.32	9.016	15.51	40.38	213.2	1145	2944	3188	1070	16.25	2.925	2.327	1.691	1.137	1.122	0.928	0.935	0.865	0.759	0.623	0.656	0.668	0.636	0.627	0.611	0.584	0.511	0.413	0.468	0.504	0.415	0.380	0.441	0.367	0.332	0.427	0.409	0.488	0.425	0.515	0.489	0.463	0.481	0.493	0.448	0.386	0.438	0.434	0.434	0.347	0.402	0.399	0.421	0.433
375.0	109.2	105.6	79.42	57.60	44.61	31.09	22.75	18.96	22.61	26.57	27.34	28.85	23.18	18.25	16.82	15.23	11.48	10.35	8.858	9.224	16.96	42.71	110.0	91.61	14.95	7.484	13.12	51.96	260.7	679.1	1867	4580	353.1	18.20	3.150	1.874	1.351	1.178	0.938	0.955	1.069	0.726	0.588	0.586	0.603	0.735	0.610	0.528	0.505	0.426	0.460	0.471	0.458	0.429	0.354	0.443	0.348	0.387	0.398	0.394	0.482	0.432	0.526	0.398	0.436	0.416	0.443	0.407	0.388	0.485	0.450	0.380	0.373	0.421	0.423	0.349	0.419
380.0	99.62	94.44	72.82	51.79	40.33	27.43	20.17	17.55	18.92	22.14	25.31	23.74	20.09	15.74	15.02	13.70	11.42	9.114	8.019	7.042	8.165	15.55	57.16	125.3	47.97	7.532	6.486	15.81	62.96	156.8	470.6	2893	3821	300.6	10.04	2.381	1.684	1.508	1.033	1.011	1.045	0.687	0.689	0.629	0.612	0.800	0.568	0.502	0.434	0.406	0.398	0.443	0.454	0.395	0.421	0.421	0.396	0.454	0.371	0.395	0.452	0.459	0.460	0.374	0.411	0.430	0.481	0.418	0.411	0.402	0.370	0.370	0.366	0.440	0.424	0.396	0.394
385.0	86.84	75.33	62.06	48.53	38.03	23.78	16.62	16.89	16.13	18.99	20.27	21.14	16.57	14.73	14.49	11.13	10.55	9.010	7.333	6.257	6.403	7.747	20.53	84.56	101.7	25.58	4.927	6.889	18.16	39.85	110.5	773.0	3135	2682	233.4	3.881	1.739	1.630	1.305	1.178	0.999	0.845	0.691	0.629	0.672	0.647	0.558	0.527	0.434	0.421	0.362	0.425	0.384	0.452	0.397	0.407	0.369	0.417	0.359	0.374	0.424	0.375	0.428	0.388	0.379	0.345	0.441	0.380	0.345	0.375	0.432	0.474	0.502	0.393	0.343	0.414	0.344
390.0	85.12	64.73	57.40	46.00	34.55	21.31	17.46	15.05	13.50	15.88	18.03	17.66	15.10	12.96	12.90	9.993	9.158	8.738	7.256	5.875	5.476	5.499	8.360	29.40	78.31	74.49	23.10	5.449	7.480	12.67	28.52	177.3	831.8	2343	2925	825.4	13.85	2.032	1.531	1.362	1.073	0.833	0.740	0.715	0.669	0.649	0.525	0.560	0.527	0.418	0.370	0.434	0.382	0.431	0.389	0.389	0.383	0.396	0.366	0.373	0.408	0.393	0.396	0.379	0.365	0.361	0.407	0.361	0.381	0.358	0.369	0.351	0.451	0.431	0.509	0.424	0.371
395.0	78.40	61.95	54.69	42.56	31.97	19.23	15.86	14.03	11.68	13.27	15.03	15.40	13.99	10.29	10.66	9.716	8.630	7.574	6.240	6.019	5.391	4.459	5.327	9.835	26.05	70.04	74.47	16.66	4.762	5.880	10.04	43.01	188.8	538.0	1651	3386	295.2	15.85	1.957	1.637	1.434	0.886	0.775	0.754	0.780	0.828	0.529	0.516	0.463	0.376	0.437	0.370	0.384	0.414	0.399	0.401	0.372	0.362	0.330	0.334	0.407	0.392	0.375	0.319	0.386	0.352	0.319	0.329	0.343	0.312	0.362	0.303	0.328	0.362	0.402	0.472	0.599
400.0	68.85	58.38	50.26	38.58	28.26	18.06	15.56	12.42	10.89	11.42	13.67	13.00	12.20	10.30	10.23	9.523	8.616	7.012	6.234	5.787	4.818	3.947	4.345	5.090	9.452	33.49	85.26	46.42	7.290	4.007	4.997	13.18	45.06	123.8	409.0	2111	2355	259.1	7.122	1.912	1.459	1.112	0.857	0.792	0.740	0.818	0.592	0.548	0.475	0.430	0.424	0.427	0.405	0.416	0.389	0.423	0.396	0.411	0.335	0.352	0.390	0.379	0.350	0.396	0.434	0.319	0.378	0.335	0.297	0.316	0.356	0.390	0.344	0.324	0.358	0.444	0.548
405.0	58.43	52.91	44.52	34.09	24.75	16.90	14.38	11.79	9.678	10.58	12.34	11.74	12.00	10.19	10.27	8.119	7.906	7.173	6.202	4.899	4.689	3.945	3.935	3.782	4.935	12.49	53.19	78.47	25.39	4.018	3.445	5.602	13.16	30.67	95.36	561.5	1942	2230	37.13	3.470	1.608	1.115	0.991	0.795	0.774	0.769	0.647	0.521	0.417	0.410	0.392	0.433	0.430	0.431	0.400	0.356	0.373	0.367	0.334	0.366	0.333	0.353	0.331	0.384	0.325	0.317	0.375	0.384	0.331	0.262	0.399	0.420	0.339	0.342	0.411	0.336	0.405
410.0	57.68	52.39	40.10	32.54	25.95	17.71	12.49	11.20	9.886	10.28	10.77	11.04	10.36	9.410	9.337	8.303	7.052	6.564	5.495	4.677	4.519	3.809	3.543	3.228	3.525	5.367	18.24	53.53	60.47	21.30	3.927	3.427	5.600	9.882	23.97	128.6	516.2	1768	2035	797.7	12.59	1.457	1.063	0.866	0.979	0.774	0.622	0.575	0.428	0.384	0.389	0.452	0.443	0.357	0.375	0.359	0.366	0.390	0.355	0.382	0.379	0.367	0.309	0.376	0.356	0.303	0.379	0.309	0.331	0.304	0.366	0.349	0.403	0.349	0.379	0.370	0.364
