Sample:	'1
File name:	T2025051304ñã¼Ò´å±±ÇÅ.FD3
Run date:	'11:31:15, 05/16/2025
Operator:	Administrator
Comment:	'

Instrument
Model:	F-2700 FL Spectrophotometer
Serial number:	23B8-004
ROM Version:	4J14000 07

Instrument parameters
Measurement type:	3-D scan
Data mode:	Fluorescence
EX  Start WL:	220.0 nm
EX  End WL:	600.0 nm
EX Sampling interval:	5.0 nm
EM  Start WL:	230.0 nm
EM  End WL:	650.0 nm
EM Sampling interval:	5.0 nm
Scan speed:	12000 nm/min
EX Slit:	5.0 nm
EM Slit:	5.0 nm
PMT Voltage:	700 V
Response:	Auto 
Corrected spectra:	Off
Contour interval:	50.000

Peak integration
Integration method:	Rectangular
Sensitivity:	1
Threshold:	1.000

Peaks
No.	ApexEX/EM(nm)	Height(Data)
1	225.0/345.0	848.0
2	225.0/360.0	823.0
3	225.0/370.0	821.0
4	225.0/405.0	901.5
5	225.0/485.0	505.6
6	225.0/595.0	66.61
7	230.0/400.0	884.1
8	235.0/510.0	318.0
9	240.0/265.0	370.8
10	240.0/525.0	261.8
11	245.0/270.0	396.9
12	245.0/535.0	220.1
13	250.0/275.0	508.9
14	250.0/550.0	179.1
15	255.0/280.0	538.0
16	255.0/560.0	140.9
17	260.0/290.0	484.3
18	260.0/575.0	113.5
19	265.0/295.0	613.6
20	265.0/585.0	99.54
21	270.0/300.0	851.4
22	270.0/600.0	89.31
23	275.0/305.0	860.3
24	275.0/340.0	556.4
25	275.0/610.0	71.08
26	280.0/345.0	554.2
27	280.0/625.0	60.09
28	285.0/320.0	750.7
29	285.0/635.0	43.18
30	290.0/325.0	652.9
31	300.0/335.0	444.6
32	305.0/345.0	420.3
33	310.0/350.0	363.7
34	315.0/355.0	363.6
35	320.0/365.0	371.0
36	325.0/370.0	356.6
37	330.0/375.0	363.0
38	335.0/385.0	356.6
39	440.0/520.0	26.84
40	495.0/270.0	2.157
41	505.0/275.0	2.854
42	510.0/280.0	3.317
43	520.0/285.0	3.353
44	525.0/290.0	3.224
45	540.0/295.0	4.077
46	545.0/300.0	4.702
47	550.0/305.0	5.071
48	560.0/310.0	4.225
49	570.0/315.0	4.493
50	580.0/320.0	4.616
51	585.0/325.0	4.146

Data points
	220.0	225.0	230.0	235.0	240.0	245.0	250.0	255.0	260.0	265.0	270.0	275.0	280.0	285.0	290.0	295.0	300.0	305.0	310.0	315.0	320.0	325.0	330.0	335.0	340.0	345.0	350.0	355.0	360.0	365.0	370.0	375.0	380.0	385.0	390.0	395.0	400.0	405.0	410.0	415.0	420.0	425.0	430.0	435.0	440.0	445.0	450.0	455.0	460.0	465.0	470.0	475.0	480.0	485.0	490.0	495.0	500.0	505.0	510.0	515.0	520.0	525.0	530.0	535.0	540.0	545.0	550.0	555.0	560.0	565.0	570.0	575.0	580.0	585.0	590.0	595.0	600.0
230.0	78.77	1034	2893	846.4	42.43	7.626	5.624	5.189	4.367	4.030	3.193	3.143	2.567	2.394	1.918	1.518	1.508	1.247	1.180	1.098	0.955	0.938	0.875	0.788	0.760	0.675	0.690	0.635	0.675	0.649	0.596	0.569	0.524	0.522	0.469	0.479	0.478	0.468	0.475	0.462	0.540	0.795	0.913	0.547	0.378	0.397	1.110	5.059	8.755	6.644	2.653	0.641	0.331	0.310	0.240	0.267	0.285	0.300	0.282	0.259	0.285	0.291	0.265	0.286	0.276	0.285	0.274	0.278	0.285	0.289	0.311	0.301	0.299	0.280	0.328	0.281	0.287
235.0	196.3	297.0	1524	2470	573.2	59.61	6.990	5.756	4.543	3.853	3.891	3.605	2.943	2.213	2.046	1.678	1.426	1.205	1.242	1.378	1.028	1.021	0.904	0.929	0.768	0.834	0.695	0.666	0.700	0.716	0.580	0.563	0.513	0.516	0.449	0.435	0.515	0.456	0.386	0.415	0.470	0.515	0.638	0.760	0.783	0.492	0.542	1.405	3.038	5.365	7.879	8.905	4.089	1.073	0.271	0.354	0.268	0.273	0.259	0.271	0.261	0.256	0.327	0.262	0.308	0.322	0.289	0.271	0.284	0.325	0.311	0.314	0.315	0.257	0.275	0.313	0.272
240.0	229.7	202.7	440.2	1870	2523	453.2	28.73	7.422	4.864	4.716	3.889	3.281	3.612	2.385	2.001	1.715	1.600	1.266	1.026	1.120	1.142	1.023	0.869	0.978	0.780	0.749	0.765	0.622	0.713	0.725	0.622	0.615	0.487	0.444	0.504	0.457	0.434	0.477	0.421	0.427	0.436	0.436	0.465	0.596	0.818	0.905	0.625	0.576	0.952	1.663	3.919	9.301	12.03	8.799	3.105	0.739	0.374	0.269	0.281	0.301	0.310	0.262	0.306	0.293	0.316	0.294	0.249	0.310	0.265	0.290	0.317	0.311	0.290	0.294	0.282	0.329	0.377
245.0	149.7	274.7	182.1	616.0	2450	2524	329.7	12.04	5.570	5.133	4.093	3.915	2.961	2.852	2.118	1.819	1.576	1.396	1.285	1.101	1.307	0.862	0.837	0.817	0.848	0.839	0.699	0.751	0.664	0.752	0.641	0.554	0.525	0.570	0.472	0.432	0.429	0.486	0.422	0.388	0.423	0.400	0.422	0.490	0.539	0.852	1.009	0.931	0.701	0.592	1.101	3.020	7.550	13.41	13.37	7.912	2.133	0.451	0.316	0.334	0.377	0.257	0.265	0.280	0.298	0.286	0.276	0.306	0.274	0.280	0.283	0.321	0.279	0.291	0.307	0.329	0.341
250.0	69.48	172.6	266.2	235.8	757.1	2280	2982	1076	63.39	6.362	4.889	4.232	3.148	3.204	2.088	2.135	1.815	1.581	1.308	1.196	1.187	1.008	0.957	0.844	0.904	0.816	0.791	0.788	0.667	0.688	0.609	0.530	0.557	0.537	0.481	0.463	0.418	0.448	0.425	0.406	0.465	0.490	0.426	0.396	0.440	0.489	0.618	0.953	1.001	0.852	0.715	0.999	2.017	4.216	7.752	12.06	15.17	13.92	8.060	2.447	0.524	0.314	0.276	0.324	0.272	0.260	0.280	0.293	0.289	0.295	0.311	0.310	0.319	0.302	0.317	0.326	0.302
255.0	50.62	59.14	177.5	313.2	268.0	580.8	2190	4516	1443	53.58	6.132	5.580	4.175	3.293	2.486	2.126	1.924	1.532	1.491	1.258	1.260	1.088	0.962	0.862	0.876	0.787	0.673	0.776	0.681	0.723	0.782	0.630	0.563	0.475	0.499	0.546	0.499	0.489	0.470	0.417	0.434	0.481	0.510	0.477	0.407	0.416	0.408	0.486	0.605	0.869	1.296	1.383	0.998	1.251	2.054	3.145	5.390	12.99	23.74	24.47	11.92	2.552	0.451	0.363	0.342	0.291	0.311	0.303	0.284	0.293	0.273	0.300	0.339	0.332	0.309	0.299	0.291
260.0	36.31	32.10	74.59	268.3	310.5	193.7	676.5	3645	4959	267.3	24.50	6.469	5.186	3.460	3.093	2.384	2.101	1.628	1.597	1.331	1.200	1.138	1.083	0.845	0.923	0.849	0.831	0.795	0.717	0.752	0.688	0.600	0.674	0.414	0.484	0.538	0.473	0.523	0.461	0.396	0.432	0.509	0.536	0.482	0.458	0.415	0.330	0.391	0.388	0.520	0.829	1.571	1.682	1.056	0.797	1.039	1.610	3.675	10.38	22.22	30.78	23.16	9.226	1.338	0.395	0.355	0.361	0.329	0.300	0.287	0.273	0.294	0.339	0.298	0.298	0.309	0.313
265.0	32.77	32.16	37.01	128.2	370.8	248.4	205.3	1236	5224	4816	208.7	12.02	6.343	4.694	3.431	2.494	2.265	1.754	1.636	1.448	1.380	1.208	1.029	0.996	0.973	0.842	0.847	0.807	0.764	0.755	0.689	0.663	0.578	0.523	0.524	0.552	0.488	0.460	0.388	0.369	0.425	0.525	0.504	0.459	0.424	0.417	0.350	0.383	0.382	0.349	0.410	0.912	1.587	1.919	1.251	0.866	0.822	1.217	2.721	6.760	15.80	30.23	32.55	20.77	5.427	0.738	0.461	0.298	0.302	0.350	0.402	0.340	0.379	0.304	0.274	0.355	0.352
270.0	47.25	37.85	31.54	56.31	198.1	396.9	285.8	343.8	1698	5009	5946	788.9	39.90	7.346	4.855	3.352	2.651	2.267	1.933	1.555	1.457	1.205	1.195	1.097	0.960	0.903	0.892	0.892	0.764	0.759	0.800	0.734	0.689	0.644	0.553	0.522	0.542	0.536	0.413	0.456	0.495	0.492	0.491	0.492	0.489	0.449	0.404	0.400	0.336	0.351	0.359	0.521	0.764	1.245	1.741	2.157	1.799	1.152	1.135	1.954	4.008	8.950	16.72	27.44	30.31	29.90	14.59	4.941	0.696	0.361	0.340	0.341	0.360	0.342	0.329	0.397	0.379
275.0	80.11	58.34	48.02	48.53	93.21	226.0	508.9	317.4	425.4	1277	4707	8573	1045	28.51	7.300	4.471	3.366	2.426	2.271	1.823	1.853	1.257	1.152	1.194	1.118	0.856	1.042	0.884	0.863	0.960	0.782	0.736	0.788	0.691	0.726	0.596	0.645	0.618	0.562	0.547	0.518	0.464	0.480	0.512	0.549	0.475	0.513	0.442	0.384	0.356	0.417	0.474	0.505	0.722	0.860	1.320	2.257	2.854	2.160	1.297	1.304	2.437	4.114	6.634	9.284	21.51	42.72	33.15	22.12	5.003	0.483	0.388	0.370	0.336	0.321	0.375	0.386
280.0	118.1	103.6	68.32	55.73	73.23	128.8	351.8	538.0	222.4	336.1	1430	7330	7814	144.5	14.12	5.977	4.211	2.887	2.426	1.867	1.543	1.567	1.498	1.231	1.223	0.964	0.911	0.919	0.844	0.963	0.772	0.717	0.709	0.805	0.779	0.745	0.840	0.724	0.728	0.544	0.579	0.565	0.587	0.628	0.570	0.630	0.630	0.533	0.476	0.445	0.429	0.399	0.475	0.571	0.696	0.827	1.252	2.163	3.317	2.741	1.474	1.066	1.378	1.988	2.552	5.753	15.59	32.08	51.62	32.34	16.56	2.175	0.522	0.469	0.402	0.386	0.396
285.0	173.0	147.5	109.8	65.83	71.55	97.38	180.6	494.0	342.0	165.5	395.1	2423	8924	5982	104.8	8.618	5.008	3.560	2.880	2.255	1.899	1.715	1.681	1.291	1.235	1.166	0.987	0.906	0.874	0.903	0.875	0.742	0.824	0.831	0.881	0.787	1.009	0.740	0.745	0.559	0.738	0.682	0.756	0.656	0.571	0.754	0.620	0.685	0.586	0.574	0.455	0.488	0.539	0.588	0.600	0.689	0.759	1.179	1.959	2.952	3.353	2.065	0.893	0.927	1.169	1.891	4.102	8.896	21.70	41.87	55.99	28.09	10.72	0.984	0.501	0.433	0.379
290.0	281.9	257.4	179.3	110.2	83.92	96.33	120.3	237.4	484.3	442.0	238.5	670.6	2813	6720	6190	425.0	21.32	5.430	3.812	2.862	2.087	1.926	1.806	1.417	1.357	1.246	1.087	1.120	0.930	1.029	0.914	0.865	0.844	0.933	0.973	1.067	1.098	1.044	0.969	0.869	0.860	0.746	0.819	0.795	0.910	0.948	0.759	0.890	0.804	0.692	0.579	0.599	0.637	0.660	0.664	0.650	0.706	0.843	1.052	1.454	2.129	3.224	3.047	2.275	1.573	1.262	1.772	2.744	5.669	11.28	21.81	32.26	42.34	38.18	18.60	8.020	1.183
295.0	394.7	336.6	258.6	163.2	112.2	111.9	119.8	152.4	261.3	613.6	583.7	341.9	784.9	1732	4983	6502	579.9	15.39	5.214	3.602	2.888	2.257	1.807	1.669	1.317	1.303	1.494	1.134	1.073	1.062	0.928	0.944	0.883	0.966	1.111	1.260	1.380	1.301	1.322	1.126	1.022	0.953	1.048	1.111	1.126	1.230	1.095	1.137	0.895	0.796	0.720	0.758	0.724	0.685	0.695	0.818	0.746	0.779	0.912	1.028	1.170	1.638	2.186	3.452	4.077	2.676	1.718	1.682	2.354	3.516	5.774	8.142	11.14	19.69	40.22	55.82	28.84
300.0	470.9	415.4	321.9	202.1	138.2	129.7	137.5	162.4	206.6	421.2	851.4	496.0	387.9	524.8	1481	6415	5380	83.17	9.556	4.952	3.405	2.566	2.270	1.803	1.564	1.458	1.384	1.230	1.048	1.059	0.928	0.886	0.997	1.213	1.251	1.233	1.542	1.383	1.327	1.203	1.136	1.095	1.132	1.117	1.143	1.298	1.200	1.251	1.178	1.035	0.836	0.846	0.744	0.768	0.823	0.887	0.855	0.923	0.982	1.014	1.122	1.271	1.541	2.335	3.505	4.702	3.735	2.182	1.978	2.173	2.387	2.738	3.340	5.179	12.36	30.98	52.35
305.0	495.2	486.9	383.2	235.9	170.5	148.0	172.9	192.4	235.0	338.3	705.4	860.3	412.4	306.4	448.5	2116	7304	4108	61.92	6.557	4.514	3.239	2.398	2.172	1.630	1.501	1.478	1.232	1.217	1.103	1.022	0.870	0.976	1.068	1.208	1.376	1.778	1.583	1.468	1.289	1.241	1.299	1.220	1.237	1.341	1.460	1.331	1.324	1.179	1.058	1.041	0.948	0.862	0.914	0.761	0.881	0.892	0.907	1.063	1.200	1.304	1.439	1.581	1.899	2.357	3.662	5.071	4.433	2.764	1.981	1.909	1.787	1.775	2.011	3.505	8.146	18.38
310.0	535.3	508.6	412.7	267.9	185.9	168.2	192.1	215.9	270.4	341.4	501.4	784.3	763.5	374.9	253.4	565.2	2302	5256	4682	287.7	14.70	4.693	3.256	2.518	2.157	1.631	1.506	1.424	1.340	1.070	1.167	0.954	1.049	1.090	1.236	1.359	1.693	1.638	1.622	1.366	1.311	1.383	1.297	1.348	1.441	1.367	1.353	1.469	1.292	1.120	0.994	0.996	1.025	0.958	0.890	0.932	1.068	1.176	1.282	1.321	1.395	1.430	1.730	1.869	2.224	2.582	3.071	3.852	4.225	3.840	3.032	2.124	1.645	1.611	1.763	2.626	4.826
315.0	577.9	560.6	441.9	292.1	205.9	191.2	212.0	246.0	292.9	369.1	458.4	563.8	735.2	694.8	283.3	235.0	585.2	1305	3981	4483	420.9	10.97	4.502	3.428	2.522	1.918	1.645	1.640	1.466	1.277	1.109	1.069	1.068	1.205	1.324	1.408	1.712	1.506	1.583	1.402	1.396	1.437	1.341	1.474	1.529	1.578	1.339	1.508	1.511	1.170	1.083	1.061	1.166	1.111	1.051	1.014	1.135	1.288	1.343	1.401	1.448	1.556	1.819	2.097	2.124	2.328	2.581	2.762	2.956	3.484	4.493	4.157	2.813	1.731	1.439	1.471	1.832
320.0	601.2	599.0	492.6	319.3	222.6	204.3	230.8	264.4	311.5	388.1	463.0	515.7	576.7	750.7	476.3	194.9	218.8	345.5	1142	4865	3957	61.88	7.303	3.886	3.030	2.222	1.816	1.648	1.461	1.438	1.182	1.166	1.140	1.196	1.267	1.321	1.688	1.619	1.635	1.529	1.503	1.451	1.305	1.540	1.509	1.662	1.470	1.667	1.657	1.257	1.147	1.160	1.180	1.068	1.107	1.045	1.157	1.316	1.399	1.503	1.590	1.602	1.659	1.976	2.258	2.414	2.458	2.637	2.821	2.900	3.143	4.224	4.616	2.848	1.845	1.389	1.320
325.0	663.9	651.8	564.7	355.9	250.8	224.3	241.3	278.9	335.6	404.1	481.1	523.0	523.0	593.8	652.9	283.2	156.4	143.2	299.5	1611	5568	3138	48.31	5.259	3.561	2.801	2.262	1.874	1.471	1.496	1.347	1.300	1.129	1.129	1.289	1.333	1.419	1.565	1.310	1.506	1.342	1.560	1.567	1.404	1.432	1.775	1.756	1.765	1.768	1.423	1.230	1.147	1.162	1.069	1.085	1.033	1.283	1.373	1.518	1.492	1.688	1.777	1.696	2.107	2.431	2.431	2.373	2.506	2.685	2.518	2.610	3.074	3.742	4.146	3.225	2.052	1.310
330.0	704.6	728.0	645.2	445.8	299.4	256.9	264.4	298.6	351.0	421.5	491.3	535.2	524.5	490.7	522.3	482.4	247.1	123.3	126.6	403.7	1769	4098	3766	234.5	12.36	3.896	2.846	2.289	1.839	1.684	1.430	1.299	1.163	1.258	1.311	1.469	1.518	1.491	1.453	1.505	1.464	1.485	1.595	1.529	1.604	1.892	1.805	2.073	1.922	1.627	1.461	1.419	1.421	1.243	1.177	1.297	1.349	1.416	1.529	1.594	1.709	1.857	1.918	2.232	2.438	2.566	2.555	2.689	2.673	2.580	2.654	2.586	2.799	3.025	3.263	3.339	2.790
335.0	747.4	815.1	714.3	524.6	349.1	300.6	294.9	328.2	372.9	443.0	500.0	549.0	539.3	485.5	421.9	418.6	444.6	202.5	112.6	149.4	434.8	1022	3344	3634	353.0	10.60	4.015	2.946	2.329	2.079	1.610	1.458	1.180	1.282	1.340	1.395	1.380	1.751	1.456	1.456	1.447	1.441	1.493	1.753	1.801	1.833	2.061	2.188	2.082	1.803	1.700	1.703	1.562	1.378	1.446	1.366	1.608	1.504	1.704	1.753	1.744	1.902	2.072	2.293	2.435	2.692	2.684	2.673	2.680	2.681	2.554	2.561	2.656	2.610	2.456	2.688	3.071
340.0	738.4	828.7	765.4	562.3	398.1	334.7	320.3	352.0	393.8	442.6	511.7	556.4	547.0	490.0	416.3	352.0	432.6	350.3	147.0	103.3	151.6	268.1	969.3	4129	3330	53.79	6.158	3.400	2.543	2.254	1.777	1.493	1.409	1.256	1.434	1.454	1.438	1.722	1.558	1.573	1.528	1.470	1.558	1.664	1.686	1.976	2.084	2.328	2.287	1.905	1.850	1.992	1.540	1.627	1.604	1.629	1.638	1.722	1.774	1.622	1.740	2.029	1.973	2.325	2.203	2.596	2.523	2.815	2.577	2.732	2.757	2.632	2.745	2.607	2.311	2.374	2.410
345.0	805.6	848.0	780.3	599.0	436.6	362.6	355.4	362.9	410.5	454.7	517.0	550.8	554.2	497.3	427.3	341.0	340.9	420.3	252.8	122.8	98.85	113.0	256.2	1369	4719	2773	44.47	4.568	3.069	2.292	1.806	1.602	1.488	1.339	1.444	1.217	1.451	1.452	1.503	1.572	1.581	1.559	1.534	1.699	1.663	2.062	2.036	2.386	2.342	2.006	1.806	2.056	1.739	1.670	1.579	1.651	1.847	1.740	1.858	1.799	1.775	2.007	2.133	2.233	2.326	2.539	2.764	2.834	2.844	2.663	2.724	2.677	2.539	2.615	2.292	2.439	2.278
350.0	753.5	826.7	785.3	627.0	499.8	412.7	395.9	392.1	419.1	466.9	514.7	545.0	547.9	506.8	441.4	366.3	318.1	338.6	363.7	235.2	132.1	105.0	116.9	350.8	1489	3376	3210	213.6	12.72	3.233	2.308	1.908	1.473	1.363	1.492	1.426	1.473	1.491	1.501	1.495	1.460	1.597	1.588	1.672	1.730	2.038	2.052	2.290	2.259	1.941	1.842	2.169	1.908	1.867	1.794	1.864	1.836	1.791	2.024	1.963	1.931	2.098	2.161	2.378	2.384	2.479	2.581	2.722	2.709	2.819	2.699	2.724	2.607	2.730	2.378	2.409	2.193
355.0	778.6	819.0	779.2	634.6	551.1	465.4	445.1	436.8	452.0	486.9	524.1	538.4	548.6	520.4	461.5	392.2	344.0	312.0	316.2	363.6	231.1	138.7	114.6	143.9	376.0	836.1	2585	4051	345.3	11.65	3.236	2.304	2.009	1.494	1.436	1.349	1.451	1.567	1.561	1.543	1.463	1.588	1.551	1.692	1.806	1.887	1.982	2.322	2.278	2.076	1.921	2.297	2.065	2.167	1.823	1.977	1.892	2.017	2.162	2.177	2.006	2.260	2.322	2.435	2.517	2.656	2.683	2.606	2.676	2.688	2.843	2.587	2.683	2.655	2.618	2.457	2.463
360.0	781.3	823.0	778.8	665.6	582.9	505.6	480.3	464.0	475.6	505.0	531.1	545.0	547.6	522.5	478.4	415.3	370.3	329.0	301.8	345.0	342.9	196.8	138.1	115.8	137.7	228.8	729.7	3386	3111	52.48	6.381	3.240	2.225	1.794	1.618	1.620	1.415	1.619	1.626	1.655	1.403	1.543	1.630	1.548	1.767	2.008	2.005	2.341	2.193	2.073	1.895	2.381	2.128	2.262	2.085	2.081	2.218	2.252	2.246	2.235	2.171	2.579	2.394	2.576	2.416	2.515	2.875	2.715	2.806	2.779	2.750	2.726	2.740	2.493	2.552	2.689	2.598
365.0	789.1	806.3	762.1	685.7	621.7	558.8	522.8	500.2	504.9	517.7	539.0	560.8	550.2	526.3	493.2	434.8	398.4	356.2	323.7	316.6	371.0	297.2	175.9	130.5	110.1	107.7	203.0	1053	3850	2720	45.01	4.888	2.786	2.066	1.786	1.524	1.416	1.585	1.531	1.576	1.553	1.459	1.649	1.758	1.650	1.799	2.153	2.382	2.135	2.026	1.977	2.412	2.409	2.318	2.332	2.161	2.312	2.486	2.413	2.564	2.473	2.457	2.377	2.493	2.616	2.744	2.774	2.851	2.866	2.818	3.005	2.744	2.846	2.557	2.677	2.669	2.874
370.0	757.1	821.0	771.2	709.5	655.8	593.7	574.5	536.9	546.4	543.9	562.2	572.0	564.6	536.7	504.7	465.8	428.5	395.5	363.0	335.6	335.1	356.6	287.0	179.1	133.5	106.8	103.6	278.1	1167	2921	3009	757.3	13.58	3.110	2.179	1.826	1.630	1.577	1.623	1.502	1.637	1.547	1.667	1.779	1.698	1.923	2.076	2.175	2.169	1.993	2.012	2.379	2.422	2.338	2.516	2.379	2.449	2.638	2.459	2.593	2.410	2.553	2.594	2.611	2.724	2.733	2.688	2.793	2.755	2.701	2.890	2.927	3.056	2.860	2.693	2.979	2.958
375.0	753.8	812.0	790.8	750.1	690.3	639.3	619.7	588.6	582.2	571.6	577.8	585.5	572.7	549.4	518.1	487.9	456.5	432.4	400.1	368.7	341.3	332.7	363.0	283.4	176.9	133.9	106.0	123.3	302.9	715.2	2165	3768	324.7	13.98	3.059	2.221	1.988	1.805	1.727	1.564	1.608	1.710	1.680	1.740	1.999	1.994	1.975	2.293	2.127	2.128	2.223	2.546	2.527	2.580	2.592	2.569	2.831	2.728	2.600	2.926	2.711	2.533	2.636	2.629	2.584	2.666	2.716	2.931	2.580	2.863	2.905	3.135	2.962	2.916	2.933	2.765	3.214
380.0	796.4	835.9	771.6	754.8	705.4	674.5	640.4	626.8	610.6	594.0	598.3	598.4	580.0	564.5	528.3	500.7	474.5	451.4	426.2	394.5	363.6	335.2	343.0	356.2	233.4	160.8	124.8	104.4	124.6	199.1	597.0	2801	2742	260.0	6.806	2.969	2.224	2.059	1.755	1.560	1.692	1.690	1.763	1.862	1.956	1.967	2.121	2.406	2.125	2.104	2.333	2.504	2.707	2.726	2.728	2.512	2.908	2.817	2.778	2.887	2.970	2.744	2.719	2.739	2.672	2.752	2.627	2.707	2.921	2.885	2.720	3.030	2.913	2.979	2.945	3.016	3.094
385.0	818.8	835.7	830.9	767.8	747.3	712.9	672.8	650.7	632.1	621.3	619.4	607.3	588.3	563.8	540.0	510.6	485.2	466.8	443.0	415.8	383.6	354.0	331.2	356.6	309.4	202.8	147.8	114.9	99.75	95.79	169.7	824.6	2930	2386	39.24	4.387	2.694	2.226	1.958	1.923	1.808	1.837	1.822	1.917	2.023	2.227	2.100	2.450	2.388	2.054	2.272	2.711	2.780	2.899	2.650	2.612	2.956	2.986	2.685	2.823	2.873	2.798	2.892	2.803	2.819	3.051	2.646	2.757	2.810	3.110	2.936	3.128	2.961	3.090	2.958	3.067	3.165
390.0	831.5	869.2	836.9	796.6	760.4	732.4	709.9	689.2	659.9	640.7	635.5	616.7	596.3	577.7	543.1	521.2	499.0	485.9	465.2	434.7	407.8	378.8	348.6	334.3	336.7	288.8	199.6	147.5	118.7	95.33	89.41	220.1	838.0	2111	2290	675.5	13.85	2.889	2.299	2.201	1.998	1.870	1.863	2.077	2.050	2.079	2.199	2.398	2.295	2.115	2.256	2.629	2.762	2.855	2.833	2.736	3.100	3.097	2.851	3.127	3.071	2.946	3.048	2.941	2.820	2.983	2.802	2.935	2.742	3.113	3.059	3.125	3.202	3.248	3.080	3.085	3.229
395.0	833.2	865.5	858.6	817.0	790.5	763.2	733.1	707.7	691.5	663.4	643.9	633.4	612.0	585.5	552.0	528.0	508.3	497.7	476.8	450.9	428.9	400.3	370.1	345.5	319.8	326.2	282.8	192.6	149.8	118.1	92.75	99.51	220.6	506.5	1366	2805	284.9	16.11	3.140	2.346	2.381	2.065	1.919	2.011	2.070	2.095	2.255	2.655	2.331	2.246	2.416	2.615	2.865	3.096	3.028	2.905	3.127	3.259	3.017	3.223	3.293	3.067	3.212	3.222	2.926	3.015	3.092	3.032	2.963	3.130	3.122	3.081	3.188	3.359	3.212	3.209	3.261
400.0	825.6	873.4	884.1	826.9	783.8	782.8	739.7	719.1	708.1	682.4	661.0	637.7	616.8	589.8	553.9	528.0	509.9	498.0	478.4	460.0	437.1	410.7	385.3	357.7	325.0	314.5	323.8	246.8	178.1	138.5	105.8	85.72	91.13	142.0	359.3	1780	2314	245.9	9.168	3.091	2.437	2.414	2.202	2.065	2.027	2.354	2.253	2.432	2.366	2.294	2.305	2.867	2.906	3.113	2.918	2.916	3.190	3.105	3.122	3.286	3.212	3.244	3.400	3.235	3.218	3.147	2.972	3.180	2.892	3.006	3.028	3.091	3.004	3.210	3.239	3.457	3.407
405.0	879.5	901.5	867.7	832.4	807.4	793.7	772.7	740.2	723.4	706.8	674.5	642.3	620.4	583.7	553.1	525.4	509.2	496.8	481.8	462.7	440.4	418.6	393.5	367.0	338.7	311.9	313.7	300.0	215.6	160.5	125.1	94.20	72.89	68.59	104.7	486.7	1949	2066	190.0	5.159	2.729	2.459	2.227	2.122	2.239	2.201	2.257	2.415	2.368	2.167	2.193	3.000	2.855	3.076	3.011	3.263	3.420	3.249	3.233	3.473	3.266	3.248	3.368	3.314	3.182	3.285	2.984	3.025	2.981	3.039	2.930	3.012	3.077	3.293	3.250	3.320	3.219
410.0	869.7	895.5	862.1	818.6	800.4	798.7	771.1	760.2	732.8	713.1	684.7	648.1	618.6	584.2	549.1	516.8	500.7	488.5	475.3	456.4	440.5	420.6	402.9	377.1	350.7	323.1	302.5	303.2	275.2	201.3	149.5	111.7	82.51	62.58	56.41	131.3	528.8	1493	1835	608.0	13.96	3.090	2.474	2.206	2.279	2.269	2.163	2.428	2.443	2.299	2.334	2.833	2.880	3.106	3.123	3.120	3.373	3.246	3.430	3.433	3.537	3.296	3.313	3.288	3.166	3.284	3.178	2.979	3.212	3.102	3.168	3.063	3.117	3.193	3.165	3.240	3.143
