Sample:	'1
File name:	ÅôÔ¶Î÷ÇÅ.FD3
Run date:	'14:54:48, 05/24/2023
Operator:	aa
Comment:	'

Instrument
Model:	F-2700 FL Spectrophotometer
Serial number:	2086-009
ROM Version:	4J14000 07

Instrument parameters
Measurement type:	3-D scan
Data mode:	Fluorescence
EX  Start WL:	220.0 nm
EX  End WL:	600.0 nm
EX Sampling interval:	5.0 nm
EM  Start WL:	230.0 nm
EM  End WL:	650.0 nm
EM Sampling interval:	5.0 nm
Scan speed:	12000 nm/min
EX Slit:	5.0 nm
EM Slit:	5.0 nm
PMT Voltage:	700 V
Response:	0.04 s
Corrected spectra:	Off
Contour interval:	50.000

Peak integration
Integration method:	Rectangular
Sensitivity:	1
Threshold:	1.000

Peaks
No.	ApexEX/EM(nm)	Height(Data)
1	225.0/585.0	38.29
2	225.0/625.0	26.63
3	230.0/340.0	823.4
4	240.0/525.0	224.6
5	245.0/400.0	773.7
6	245.0/540.0	193.5
7	250.0/550.0	156.9
8	255.0/280.0	437.1
9	255.0/565.0	141.3
10	260.0/285.0	459.4
11	260.0/405.0	804.1
12	260.0/415.0	803.8
13	260.0/440.0	792.7
14	260.0/575.0	113.2
15	265.0/420.0	806.3
16	265.0/435.0	797.4
17	265.0/585.0	90.46
18	270.0/300.0	852.0
19	270.0/400.0	802.6
20	270.0/410.0	803.0
21	270.0/600.0	86.88
22	275.0/305.0	 1048
23	275.0/610.0	77.12
24	280.0/310.0	 1026
25	280.0/340.0	939.1
26	280.0/625.0	77.26
27	285.0/315.0	986.2
28	290.0/325.0	886.9
29	305.0/345.0	479.8
30	310.0/350.0	437.3
31	315.0/355.0	440.2
32	320.0/365.0	459.7
33	325.0/370.0	462.6
34	330.0/375.0	471.6
35	335.0/380.0	482.0
36	505.0/275.0	2.018
37	520.0/285.0	2.782
38	540.0/295.0	4.005
39	545.0/300.0	4.639
40	550.0/305.0	5.090
41	560.0/310.0	4.758
42	570.0/315.0	4.396
43	575.0/320.0	4.618
44	580.0/325.0	4.556

Data points
	220.0	225.0	230.0	235.0	240.0	245.0	250.0	255.0	260.0	265.0	270.0	275.0	280.0	285.0	290.0	295.0	300.0	305.0	310.0	315.0	320.0	325.0	330.0	335.0	340.0	345.0	350.0	355.0	360.0	365.0	370.0	375.0	380.0	385.0	390.0	395.0	400.0	405.0	410.0	415.0	420.0	425.0	430.0	435.0	440.0	445.0	450.0	455.0	460.0	465.0	470.0	475.0	480.0	485.0	490.0	495.0	500.0	505.0	510.0	515.0	520.0	525.0	530.0	535.0	540.0	545.0	550.0	555.0	560.0	565.0	570.0	575.0	580.0	585.0	590.0	595.0	600.0
230.0	20.88	738.3	 3070	 1472	83.26	4.934	3.802	3.895	2.556	3.134	3.055	2.210	2.290	2.012	1.699	1.503	1.347	1.038	0.893	0.953	0.943	0.908	0.736	0.764	0.751	0.801	0.574	0.530	0.524	0.402	0.401	0.404	0.464	0.462	0.328	0.442	0.370	0.391	0.409	0.425	0.368	0.472	0.466	0.480	0.299	0.255	0.588	3.876	8.779	8.687	5.135	1.488	0.329	0.176	0.136	0.108	0.130	0.109	0.095	0.093	0.099	0.053	0.067	0.088	0.051	0.050	0.032	0.041	0.057	0.057	0.003	0.017	-0.013	0.006	0.000	-0.039	-0.014
235.0	54.40	192.0	 1335	 2851	790.7	118.9	5.070	4.895	4.348	2.689	2.998	2.680	2.351	1.821	1.504	1.362	1.339	1.080	1.035	0.959	0.822	0.854	0.897	0.661	0.836	0.711	0.867	0.541	0.586	0.258	0.380	0.282	0.437	0.395	0.328	0.390	0.419	0.402	0.449	0.349	0.401	0.374	0.420	0.609	0.461	0.355	0.304	1.070	2.636	4.609	8.253	10.88	6.442	2.337	0.297	0.170	0.214	0.158	0.124	0.078	0.121	0.093	0.094	0.061	0.076	0.074	0.023	0.043	0.064	0.082	0.005	0.029	-0.024	0.010	-0.019	-0.030	-0.010
240.0	64.89	98.45	340.3	 1678	 3071	672.4	72.57	6.461	4.932	4.067	3.889	3.387	2.908	2.051	2.053	1.552	1.401	1.031	1.152	1.267	0.875	1.020	0.867	0.704	0.893	0.737	0.752	0.585	0.575	0.374	0.429	0.417	0.512	0.303	0.323	0.330	0.338	0.323	0.484	0.481	0.368	0.330	0.259	0.395	0.385	0.615	0.560	0.542	0.793	1.285	3.203	8.506	11.85	11.53	5.865	1.510	0.306	0.186	0.181	0.091	0.065	0.114	0.052	0.073	0.117	0.035	0.049	0.117	0.074	0.022	0.014	0.051	0.017	-0.019	0.004	-0.035	0.018
245.0	47.15	111.4	114.3	478.9	 2345	 3536	546.4	35.63	5.654	6.062	5.127	3.342	3.252	2.476	2.076	1.667	1.417	1.390	1.060	1.278	0.779	0.968	1.052	0.772	0.664	0.865	0.588	0.676	0.801	0.418	0.415	0.504	0.404	0.424	0.328	0.353	0.305	0.352	0.519	0.535	0.330	0.255	0.327	0.331	0.276	0.508	0.717	0.618	0.514	0.432	0.857	2.381	5.400	11.88	15.87	12.61	5.220	0.824	0.122	0.113	0.173	0.069	0.074	0.070	0.041	0.039	0.020	0.044	0.046	0.034	0.045	-0.040	0.017	-0.019	0.013	-0.029	0.014
250.0	15.25	61.25	140.7	179.5	653.3	 2397	 4245	 2024	167.8	9.513	6.217	4.190	4.404	2.969	2.258	2.168	1.266	1.388	1.209	1.120	1.191	0.948	0.863	0.780	0.893	0.774	0.743	0.692	0.690	0.519	0.515	0.391	0.458	0.400	0.356	0.378	0.330	0.392	0.398	0.469	0.377	0.394	0.380	0.288	0.276	0.363	0.376	0.522	0.644	0.664	0.604	0.805	1.419	3.406	6.696	12.15	17.88	19.59	13.84	5.635	1.150	0.193	0.117	0.088	0.075	0.150	0.081	0.032	0.035	0.027	0.056	0.002	-0.011	0.023	-0.011	-0.023	-0.026
255.0	7.180	18.51	74.41	208.8	235.0	567.5	 2192	 6773	 3137	230.6	11.94	7.158	4.459	4.156	2.811	2.288	1.679	1.431	1.474	1.284	1.334	1.024	0.959	0.815	0.916	0.915	0.725	0.748	0.660	0.525	0.437	0.429	0.467	0.362	0.272	0.390	0.272	0.326	0.289	0.434	0.379	0.434	0.290	0.371	0.310	0.349	0.324	0.222	0.369	0.540	0.756	0.963	0.961	1.142	1.778	2.954	5.209	12.48	27.12	35.22	24.71	9.409	0.869	0.070	0.108	0.119	0.040	0.094	0.087	-0.005	0.013	-0.026	0.030	0.000	0.068	0.068	-0.004
260.0	4.699	11.20	29.34	146.4	247.5	183.1	568.7	 3933	 8691	 2653	145.3	9.781	7.366	5.533	3.945	2.394	1.907	2.081	1.557	1.527	1.545	1.215	0.950	0.996	0.804	0.864	0.755	0.707	0.546	0.636	0.559	0.639	0.500	0.421	0.424	0.370	0.374	0.296	0.283	0.362	0.374	0.355	0.346	0.340	0.284	0.312	0.309	0.278	0.271	0.354	0.482	1.019	1.371	1.183	0.790	0.853	1.388	3.088	9.306	24.08	42.84	41.07	22.11	4.058	0.260	0.120	0.068	0.052	0.124	-0.013	0.033	0.029	0.103	0.005	-0.005	0.046	-0.024
265.0	11.22	12.72	14.49	59.70	233.9	219.7	162.0	 1095	 5945	9999.9	 2105	59.39	10.11	6.745	4.784	3.100	2.556	2.278	1.729	1.648	1.446	1.006	0.991	1.045	0.976	1.125	0.805	0.780	0.577	0.713	0.647	0.548	0.554	0.486	0.424	0.358	0.471	0.253	0.253	0.473	0.317	0.277	0.404	0.364	0.311	0.319	0.327	0.273	0.330	0.233	0.272	0.431	0.956	1.562	1.310	0.777	0.593	0.779	2.342	6.501	17.98	43.14	56.65	35.81	13.44	1.385	0.171	0.106	0.117	0.124	0.115	0.090	0.044	-0.036	0.016	-0.023	0.100
270.0	24.56	23.24	22.03	26.02	92.10	253.2	244.5	297.9	 1586	 6054	9999.9	 4682	123.6	11.71	7.566	4.933	3.300	2.795	2.266	2.038	1.498	1.279	1.296	1.053	1.018	1.100	1.037	0.818	0.647	0.899	0.719	0.538	0.579	0.546	0.533	0.462	0.442	0.342	0.444	0.414	0.307	0.355	0.392	0.486	0.369	0.364	0.406	0.378	0.354	0.281	0.287	0.267	0.455	0.767	1.042	1.398	1.468	0.962	0.893	1.718	4.294	11.47	22.41	35.78	41.04	46.16	23.02	9.673	1.198	0.174	0.156	0.088	0.090	0.080	0.099	0.025	0.049
275.0	55.66	63.49	45.30	26.39	35.12	95.48	310.6	319.3	405.9	 1422	 4424	9999.9	 8063	148.9	12.68	7.336	4.700	3.646	2.767	2.735	1.870	1.830	1.627	1.266	1.128	1.063	1.063	0.775	0.943	0.792	0.660	0.779	0.583	0.549	0.602	0.733	0.471	0.394	0.550	0.485	0.387	0.354	0.434	0.537	0.500	0.539	0.506	0.513	0.361	0.365	0.276	0.226	0.353	0.376	0.435	0.742	1.490	2.018	1.676	0.998	1.265	2.780	5.257	8.388	11.76	28.50	58.31	72.59	34.16	10.32	0.541	0.145	0.178	0.128	0.105	0.042	0.075
280.0	92.20	97.59	70.56	38.94	33.18	45.62	171.4	437.1	281.7	379.7	 1138	 6212	9999.9	 1696	93.61	9.956	5.983	5.136	3.186	2.776	2.624	1.786	1.499	1.418	1.354	1.288	0.833	0.882	1.066	0.643	0.650	0.802	0.713	0.642	0.677	0.709	0.542	0.674	0.605	0.481	0.458	0.503	0.642	0.593	0.630	0.606	0.613	0.664	0.529	0.380	0.347	0.296	0.292	0.219	0.341	0.411	0.647	1.254	1.981	2.209	1.247	1.076	1.470	2.241	2.958	7.093	19.32	50.20	78.40	45.30	24.32	3.124	0.218	0.083	0.130	0.102	0.158
285.0	144.2	138.6	109.2	56.72	39.39	41.23	84.05	323.3	459.4	228.7	354.7	 1721	 8902	9999.9	 1290	40.19	8.102	6.170	3.664	3.244	3.046	1.946	1.637	1.331	1.501	1.656	1.338	1.114	1.090	0.871	0.868	0.735	0.771	0.806	0.653	0.747	0.700	0.754	0.689	0.701	0.576	0.640	0.727	0.591	0.685	0.762	0.763	0.758	0.656	0.545	0.537	0.381	0.303	0.359	0.343	0.458	0.445	0.606	1.061	2.214	2.782	1.871	0.985	0.967	1.123	2.116	4.907	13.20	32.53	64.42	90.11	39.16	13.38	0.814	0.269	0.141	0.145
290.0	202.7	216.4	171.6	99.62	67.16	62.78	81.11	167.3	403.9	509.5	313.1	568.7	 2421	 7596	9999.9	 4478	70.50	9.743	5.622	4.351	3.371	2.570	2.087	1.737	1.662	1.676	1.261	1.211	1.144	0.996	0.990	0.949	0.781	0.882	0.820	0.942	0.879	1.094	0.821	0.864	0.775	0.791	0.863	0.862	0.898	0.959	0.980	1.041	0.928	0.690	0.626	0.599	0.424	0.467	0.388	0.438	0.507	0.530	0.695	1.069	1.709	2.405	2.620	2.281	1.518	1.416	1.907	3.795	8.076	17.18	36.36	51.39	67.53	57.89	24.51	10.16	0.892
295.0	268.4	298.9	247.2	150.2	108.0	96.65	112.1	155.3	256.2	542.9	746.0	484.7	804.0	 1903	 4667	9999.9	 6133	85.86	9.075	6.392	4.651	3.360	2.322	2.014	1.775	1.750	1.415	1.177	1.220	0.837	1.080	0.891	0.800	0.823	0.955	1.087	1.331	1.198	1.094	0.976	0.890	0.882	0.952	1.153	1.057	1.278	1.295	1.263	1.198	0.743	0.869	0.729	0.592	0.647	0.633	0.557	0.541	0.555	0.691	0.814	1.096	1.659	1.929	3.213	4.005	2.727	1.975	2.096	3.119	4.941	9.069	12.31	18.67	36.74	75.93	91.77	35.61
300.0	337.0	351.0	302.2	208.7	141.5	132.3	149.6	187.6	258.0	430.7	852.0	758.8	549.6	686.1	 1261	 6185	9999.9	982.9	54.74	8.429	6.092	3.736	2.879	2.611	2.319	2.088	1.583	1.507	1.251	1.060	1.023	0.895	0.998	0.893	0.903	1.172	1.499	1.163	1.196	1.199	1.186	1.194	1.183	1.261	1.336	1.391	1.279	1.439	1.365	0.974	0.721	0.937	0.716	0.763	0.738	0.730	0.662	0.770	0.832	1.142	1.157	1.323	1.773	2.259	3.292	4.639	3.816	2.552	2.322	2.497	3.264	3.852	5.084	9.346	25.28	64.88	94.85
305.0	356.9	401.9	357.2	235.7	162.9	157.4	181.3	232.9	309.5	424.8	705.1	 1048	680.7	478.6	495.7	 1665	 8492	9999.9	801.2	25.66	7.795	4.844	3.623	2.892	2.633	2.045	1.630	1.494	1.463	1.068	1.040	1.013	0.840	1.076	0.990	1.140	1.457	1.469	1.538	1.560	1.296	1.235	1.308	1.364	1.497	1.530	1.446	1.710	1.487	1.159	1.084	0.947	0.765	0.760	0.816	0.897	0.856	0.901	1.134	1.321	1.283	1.511	1.705	1.956	2.411	3.622	5.090	4.653	3.198	2.384	2.271	2.047	2.180	3.215	6.376	16.81	40.37
310.0	399.6	462.1	409.4	274.4	193.8	189.0	223.3	290.5	364.2	485.6	641.1	898.0	 1026	651.4	393.9	521.1	 2216	 6942	 9042	 3019	48.06	7.480	5.309	3.629	3.043	2.542	1.895	1.631	1.477	1.207	1.085	1.048	1.016	1.022	1.182	1.257	1.537	1.570	1.587	1.485	1.424	1.304	1.471	1.473	1.485	1.580	1.562	1.684	1.536	1.195	1.094	1.018	0.935	0.969	1.024	1.025	1.038	1.114	1.224	1.490	1.520	1.731	1.935	2.300	2.476	2.858	3.657	4.434	4.758	4.298	3.047	2.244	1.926	1.849	2.275	4.427	9.698
315.0	448.9	533.9	459.7	323.2	222.3	210.6	256.8	326.6	415.0	543.5	673.6	783.1	933.3	986.2	520.3	305.0	604.4	 1628	 4317	9999.9	 4450	58.83	7.430	5.410	4.253	3.484	2.619	2.065	1.777	1.852	1.268	1.095	0.933	0.916	1.254	1.196	1.529	1.622	1.534	1.425	1.329	1.383	1.396	1.598	1.548	1.891	1.761	1.928	1.782	1.405	1.270	1.156	1.173	1.110	1.088	1.182	1.201	1.307	1.396	1.578	1.653	1.856	2.054	2.377	2.380	2.886	3.047	3.719	3.975	4.230	4.396	4.072	2.602	1.761	1.609	1.843	2.840
320.0	500.2	591.5	537.4	358.1	245.0	233.9	268.8	365.9	446.9	578.7	712.9	788.8	868.9	966.6	764.2	323.4	266.9	442.5	 1072	 6162	9999.9	719.0	38.22	6.909	5.205	4.161	2.705	2.622	1.920	1.898	1.654	1.153	1.039	0.900	1.212	1.324	1.421	1.335	1.395	1.545	1.378	1.513	1.590	1.740	1.778	1.835	2.033	2.167	1.956	1.336	1.370	1.308	1.069	1.077	1.127	1.192	1.352	1.277	1.523	1.555	1.796	2.030	2.103	2.599	2.774	3.005	3.204	3.467	3.851	3.617	4.045	4.618	4.317	2.830	1.622	1.354	1.459
325.0	547.7	658.2	653.6	422.6	274.9	247.8	289.4	385.1	478.7	614.1	752.7	827.7	883.1	844.5	886.9	483.5	224.9	200.3	304.4	 1604	 8046	9999.9	603.3	15.22	6.715	5.766	3.029	2.764	2.417	1.611	1.531	1.189	1.339	1.121	1.055	1.449	1.360	1.531	1.487	1.445	1.452	1.547	1.899	1.923	2.011	2.245	2.296	2.459	2.205	1.771	1.616	1.396	1.270	1.360	1.219	1.197	1.435	1.377	1.607	1.730	2.219	2.387	2.497	2.567	3.205	3.334	3.448	3.626	3.701	3.538	3.364	3.942	4.556	4.187	2.508	1.695	1.299
330.0	598.6	750.9	741.8	509.0	333.6	282.2	322.8	405.8	504.2	646.7	783.0	854.9	920.6	816.2	738.2	632.3	376.7	185.6	157.4	421.4	 2075	 6684	 7499	 2325	37.38	7.800	5.015	3.273	2.628	2.151	1.734	1.430	1.572	1.207	1.062	1.474	1.507	1.513	1.479	1.584	1.475	1.660	1.761	2.053	2.000	2.372	2.488	2.811	2.531	1.994	1.787	1.750	1.333	1.371	1.389	1.461	1.597	1.498	1.622	1.869	2.161	2.517	2.825	2.762	3.084	3.280	3.528	3.808	3.741	3.707	3.366	3.487	3.414	3.494	3.272	3.123	2.396
335.0	606.0	776.2	783.7	592.2	387.5	331.5	349.1	431.8	527.5	669.3	804.8	858.9	938.4	833.2	688.1	532.3	537.2	318.4	158.1	183.7	525.9	 1555	 3948	9999.9	 3659	48.53	6.646	4.917	3.090	2.883	1.790	1.686	1.562	1.302	1.342	1.552	1.640	1.445	1.640	1.680	1.609	1.588	1.869	2.072	2.078	2.317	2.681	2.879	2.748	2.321	1.926	2.039	1.352	1.421	1.445	1.554	1.562	1.854	1.926	2.022	1.979	2.411	2.848	3.154	3.250	3.401	3.465	3.661	3.753	3.767	3.640	3.342	3.352	2.993	2.687	2.661	3.320
340.0	625.9	808.3	823.4	626.0	429.4	360.1	388.3	453.1	536.4	670.3	810.3	865.3	939.1	844.1	692.1	491.6	482.4	467.5	225.5	152.3	201.0	408.7	996.6	 6114	9999.9	 2769	29.38	5.979	4.251	3.737	2.319	1.891	1.638	1.365	1.245	1.473	1.595	1.783	1.590	1.657	1.511	1.456	1.888	2.049	2.187	2.418	2.568	2.983	2.831	2.243	2.125	2.104	1.618	1.584	1.527	1.452	1.822	1.788	1.854	2.134	2.115	2.409	2.848	3.204	3.223	3.576	3.833	3.587	3.696	3.559	3.645	3.482	3.285	2.971	2.425	2.636	2.418
345.0	601.0	786.1	822.1	651.4	475.9	399.6	415.6	467.9	550.3	671.6	799.0	858.5	935.6	841.0	696.1	504.8	420.0	479.8	361.7	185.2	151.0	173.0	285.7	 1633	 8606	9999.9	501.6	12.65	5.375	4.504	2.921	2.023	1.714	1.626	1.280	1.642	1.510	1.710	1.742	1.800	1.631	1.759	1.836	1.963	2.154	2.493	2.627	2.722	2.888	2.256	2.224	2.153	1.796	1.703	1.678	1.686	1.904	1.799	1.928	2.285	1.938	2.639	2.774	2.994	3.231	3.535	3.196	3.534	3.895	3.758	3.765	3.633	3.393	3.167	2.438	2.515	2.155
350.0	592.1	770.2	796.0	665.1	523.7	447.3	456.5	499.7	575.4	670.2	779.6	834.6	899.7	827.3	695.4	529.1	429.2	402.1	437.3	337.1	202.3	159.7	158.6	436.8	 2285	 7825	 6798	 2022	31.14	5.883	3.935	2.780	2.144	1.578	1.464	1.689	1.661	1.674	1.571	1.675	1.440	1.660	1.602	1.983	2.043	2.304	2.508	2.732	2.806	2.102	2.237	2.437	2.085	1.809	1.748	1.873	1.947	1.830	2.215	2.293	2.364	2.734	2.763	3.202	3.235	3.355	3.467	3.492	3.773	3.610	3.628	3.490	3.429	3.175	2.677	2.558	2.548
355.0	543.9	707.8	754.4	659.1	563.4	500.9	515.4	538.3	611.7	687.2	777.4	817.0	863.1	810.3	697.3	555.2	466.6	411.3	394.6	440.2	349.7	213.4	172.2	204.4	580.4	 1827	 3785	 9944	 3058	38.68	6.017	3.758	2.867	2.043	1.678	1.797	1.574	1.587	1.514	1.624	1.559	1.629	1.594	1.788	1.857	2.369	2.272	2.743	2.676	2.153	2.252	2.467	2.142	2.182	1.995	2.000	1.945	1.956	2.221	2.402	2.525	2.814	2.939	3.062	3.324	3.223	3.470	3.141	3.572	3.527	3.374	3.446	3.279	3.102	2.925	2.888	2.529
360.0	520.0	687.7	763.6	643.9	585.5	570.6	541.4	573.7	641.5	712.0	780.5	793.9	846.9	798.6	700.5	579.2	492.0	439.3	401.3	418.7	454.1	301.6	208.2	179.8	230.1	480.8	969.0	 5932	 9669	539.1	22.22	5.103	3.363	2.458	1.829	1.942	1.897	1.720	1.714	1.730	1.518	1.682	1.666	1.848	1.798	2.259	2.359	2.569	2.642	2.278	2.106	2.369	2.315	2.414	2.427	2.316	2.230	2.335	2.385	2.473	2.599	2.891	3.030	2.996	3.152	3.056	3.380	3.181	3.561	3.538	3.518	3.320	3.151	3.081	2.860	2.790	2.750
365.0	515.0	652.8	735.0	666.7	605.6	602.1	575.3	606.0	646.3	719.8	780.1	786.4	835.6	785.0	697.5	592.0	527.3	474.8	434.8	413.0	459.7	415.1	264.7	204.3	179.2	201.1	281.4	 1611	 7540	 8188	429.3	9.323	4.656	3.242	2.300	2.081	1.870	1.796	1.811	1.721	1.586	1.752	1.732	1.800	2.116	2.216	2.176	2.439	2.323	2.224	2.192	2.367	2.249	2.237	2.452	2.467	2.484	2.438	2.477	2.621	2.778	2.927	3.298	3.146	3.337	3.259	3.185	3.334	3.649	3.436	3.320	3.459	3.275	3.601	3.174	2.880	3.097
370.0	496.9	645.1	701.3	681.4	645.0	631.8	624.5	650.9	680.4	734.4	775.7	792.0	809.6	772.5	705.6	613.3	562.6	519.8	481.7	454.4	443.3	462.6	402.4	277.1	210.5	175.1	157.4	426.2	 2033	 6022	 6194	 1725	25.91	4.780	3.251	2.607	2.119	1.867	1.933	1.793	1.536	1.770	1.735	1.900	1.998	2.025	2.226	2.306	2.363	2.035	2.107	2.454	2.262	2.420	2.595	2.511	2.673	2.729	2.545	2.713	2.879	2.879	2.943	3.208	3.295	3.413	3.326	3.438	3.491	3.420	3.451	3.598	3.217	3.497	3.342	3.027	3.099
375.0	492.7	608.8	697.9	697.4	680.4	673.9	675.3	691.0	707.9	767.8	785.8	790.8	809.8	761.7	703.4	626.7	593.5	566.7	534.5	503.5	475.6	451.5	471.6	407.9	275.6	213.3	166.4	191.0	518.4	 1418	 3696	 8633	 2491	28.65	4.763	3.560	2.713	2.137	2.267	1.886	1.572	1.691	1.984	1.876	2.159	2.054	2.025	2.386	2.457	2.304	2.191	2.697	2.537	2.569	2.475	2.902	2.626	2.697	2.862	3.041	3.142	3.050	3.029	3.170	3.341	3.482	3.348	3.301	3.232	3.589	3.354	3.288	3.060	3.504	2.958	3.053	3.404
380.0	515.1	599.5	701.0	700.5	707.1	712.5	704.1	706.0	736.8	752.0	788.7	785.3	805.7	754.7	701.9	645.9	607.2	597.5	560.4	538.1	511.3	473.7	464.1	482.0	360.9	257.1	199.8	165.1	204.9	378.2	963.1	 5515	 8293	439.0	14.72	4.854	3.160	2.235	2.374	1.936	1.818	1.830	1.993	2.074	1.935	2.187	2.191	2.508	2.362	2.207	2.230	2.692	2.579	2.686	2.549	2.862	2.697	2.841	2.802	2.973	2.911	3.167	3.034	3.277	3.505	3.206	3.372	3.337	3.437	3.580	3.513	3.373	3.296	3.169	2.782	3.099	3.498
385.0	492.9	600.7	672.5	708.3	713.4	718.4	715.0	729.5	740.8	767.3	797.1	795.5	799.8	758.5	704.6	652.4	625.4	616.5	581.5	571.0	534.2	506.5	471.4	475.8	449.5	313.8	233.4	186.3	154.8	165.1	272.8	 1546	 6862	 6573	325.4	8.162	3.933	2.616	2.938	2.467	1.913	1.956	1.871	2.183	2.236	2.216	2.228	2.557	2.395	2.058	2.307	2.583	2.740	2.894	2.828	2.729	2.900	2.730	3.008	3.169	2.921	2.980	3.023	3.408	3.350	3.310	3.395	3.396	3.440	3.346	3.380	3.440	3.342	3.287	3.075	3.538	3.403
390.0	495.5	606.3	677.5	711.3	735.7	742.7	738.7	750.4	763.3	786.7	795.6	791.7	795.3	749.7	707.4	658.6	638.4	632.6	609.5	597.9	567.1	538.7	503.2	473.9	473.2	418.8	304.8	228.5	180.7	148.1	140.8	397.4	 1887	 5146	 4990	 1381	20.19	4.113	3.682	3.021	2.314	2.098	2.151	2.224	2.179	2.147	2.202	2.405	2.411	2.180	2.432	2.727	2.734	2.958	2.746	3.027	3.134	2.938	3.099	3.130	3.029	3.054	3.152	3.367	3.160	3.347	3.421	3.391	3.346	3.179	3.446	3.370	3.395	3.546	3.259	3.358	3.356
395.0	510.6	612.9	680.0	738.2	732.5	764.3	751.9	765.7	780.1	797.9	793.6	782.5	788.9	755.1	703.0	659.7	652.2	647.7	628.6	617.3	597.9	575.3	539.9	501.5	472.2	464.4	410.5	297.9	224.5	179.8	139.2	160.0	467.8	 1209	 3205	 8129	 1929	22.34	5.111	3.573	2.689	2.464	2.456	2.337	2.517	2.145	2.344	2.668	2.430	2.171	2.202	2.683	2.772	2.981	3.027	2.980	2.955	2.945	3.326	3.352	3.277	3.321	3.478	3.020	3.273	3.235	3.293	3.058	3.317	3.015	3.329	3.267	3.482	3.371	3.447	3.611	3.448
400.0	493.9	619.9	699.9	724.8	748.1	773.7	760.1	778.1	781.9	801.9	802.6	791.4	788.5	746.1	698.7	651.2	651.4	651.3	637.0	627.2	615.4	591.4	560.2	529.1	486.3	464.4	458.8	368.7	264.0	209.5	156.6	125.1	161.6	309.0	842.9	 5429	 6356	360.3	13.28	4.777	3.084	2.558	2.527	2.314	2.308	2.336	2.431	2.607	2.364	2.244	2.294	3.007	2.852	2.969	3.059	2.926	3.268	3.316	3.019	2.984	3.203	3.392	3.325	3.115	3.169	3.315	3.491	3.278	3.296	3.281	3.495	3.370	3.490	3.222	3.432	3.807	3.700
405.0	496.7	619.0	694.7	731.0	748.8	771.3	765.3	778.2	804.1	795.7	788.5	780.4	780.2	743.9	696.9	652.5	647.7	644.6	643.4	629.4	622.7	602.2	574.3	546.2	509.4	473.1	456.2	432.9	314.4	239.2	182.0	133.1	107.7	117.2	220.3	 1536	 5369	 3175	288.3	6.673	3.486	3.076	2.880	2.648	2.196	2.452	2.478	2.711	2.479	2.235	2.396	3.064	2.848	3.014	3.016	3.135	3.233	3.217	3.291	3.139	3.245	3.196	3.350	3.106	3.208	3.333	3.138	3.259	3.145	3.496	3.447	3.401	3.273	3.452	3.330	3.947	3.833
410.0	488.8	602.6	713.3	723.4	741.5	770.6	770.4	793.7	798.8	798.3	803.0	783.2	770.3	732.6	696.5	649.3	638.2	632.7	636.9	630.6	620.1	609.7	590.2	564.3	532.6	492.1	452.6	440.6	392.2	293.4	214.6	158.0	113.2	88.96	92.46	373.9	 1490	 3699	 4903	 1218	17.18	3.956	3.325	3.051	2.497	2.462	2.424	2.614	2.537	2.272	2.368	2.983	3.022	3.174	2.931	3.182	3.174	3.276	3.366	3.459	3.264	3.258	3.268	3.239	3.140	3.397	3.253	3.272	3.200	3.280	3.295	3.355	3.255	3.358	3.386	3.555	3.678
