Sample:	'1
File name:	t2025031906∑… ®ΩÌ±ª”Í≈≈ø⁄.FD3
Run date:	'20:27:25, 03/19/2025
Operator:	Administrator
Comment:	'

Instrument
Model:	F-2700 FL Spectrophotometer
Serial number:	23B8-004
ROM Version:	4J14000 07

Instrument parameters
Measurement type:	3-D scan
Data mode:	Fluorescence
EX  Start WL:	220.0 nm
EX  End WL:	600.0 nm
EX Sampling interval:	5.0 nm
EM  Start WL:	230.0 nm
EM  End WL:	650.0 nm
EM Sampling interval:	5.0 nm
Scan speed:	12000 nm/min
EX Slit:	5.0 nm
EM Slit:	5.0 nm
PMT Voltage:	700 V
Response:	Auto 
Corrected spectra:	Off
Contour interval:	50.000

Peak integration
Integration method:	Rectangular
Sensitivity:	1
Threshold:	1.000

Peaks
No.	ApexEX/EM(nm)	Height(Data)
1	225.0/620.0	50.51
2	230.0/505.0	147.3
3	230.0/640.0	67.64
4	235.0/340.0	2970
5	235.0/515.0	151.9
6	240.0/265.0	433.3
7	240.0/525.0	150.2
8	245.0/270.0	418.0
9	245.0/540.0	144.6
10	250.0/275.0	531.3
11	250.0/550.0	121.5
12	255.0/280.0	601.0
13	255.0/565.0	106.6
14	260.0/290.0	522.2
15	260.0/575.0	92.19
16	265.0/590.0	80.48
17	275.0/320.0	3406
18	275.0/615.0	215.2
19	280.0/315.0	3399
20	280.0/625.0	190.2
21	320.0/360.0	365.0
22	330.0/375.0	227.9
23	335.0/380.0	199.9
24	345.0/395.0	125.4
25	350.0/400.0	129.1
26	355.0/405.0	108.0
27	360.0/415.0	91.24
28	365.0/420.0	96.48
29	370.0/425.0	79.91
30	375.0/435.0	61.54
31	380.0/440.0	63.17
32	385.0/445.0	55.15
33	395.0/460.0	38.13
34	400.0/465.0	33.48
35	410.0/480.0	21.29
36	415.0/485.0	18.74
37	420.0/490.0	15.00
38	425.0/500.0	14.00
39	430.0/505.0	12.38
40	435.0/510.0	9.666
41	440.0/520.0	8.902
42	445.0/525.0	8.056
43	450.0/535.0	6.099
44	455.0/540.0	5.852
45	460.0/545.0	4.653
46	465.0/555.0	3.306
47	470.0/560.0	2.957
48	480.0/340.0	11.38
49	480.0/575.0	1.769
50	485.0/265.0	2.543
51	485.0/580.0	1.658
52	495.0/270.0	2.398
53	505.0/275.0	3.481
54	510.0/280.0	3.828
55	520.0/285.0	4.042
56	530.0/290.0	3.874
57	560.0/310.0	17.02
58	570.0/315.0	16.84
59	585.0/325.0	15.66

Data points
	220.0	225.0	230.0	235.0	240.0	245.0	250.0	255.0	260.0	265.0	270.0	275.0	280.0	285.0	290.0	295.0	300.0	305.0	310.0	315.0	320.0	325.0	330.0	335.0	340.0	345.0	350.0	355.0	360.0	365.0	370.0	375.0	380.0	385.0	390.0	395.0	400.0	405.0	410.0	415.0	420.0	425.0	430.0	435.0	440.0	445.0	450.0	455.0	460.0	465.0	470.0	475.0	480.0	485.0	490.0	495.0	500.0	505.0	510.0	515.0	520.0	525.0	530.0	535.0	540.0	545.0	550.0	555.0	560.0	565.0	570.0	575.0	580.0	585.0	590.0	595.0	600.0
230.0	34.89	351.4	898.2	319.3	16.58	7.478	5.848	5.031	4.521	4.003	3.906	3.325	2.836	2.904	2.261	1.898	1.709	1.600	1.157	1.131	1.024	0.928	0.941	0.847	0.756	0.725	0.732	0.726	0.722	0.672	0.665	0.705	0.643	0.535	0.551	0.549	0.503	0.501	0.500	0.430	0.444	0.441	0.460	0.421	0.406	0.385	0.602	1.976	3.578	2.943	1.254	0.440	0.347	0.332	0.360	0.346	0.330	0.365	0.332	0.360	0.349	0.330	0.339	0.358	0.398	0.354	0.321	0.355	0.355	0.346	0.348	0.349	0.365	0.340	0.358	0.373	0.384
235.0	51.60	120.6	782.8	1482	427.4	28.16	5.599	6.491	4.641	5.189	4.451	3.406	3.180	3.105	2.184	1.856	1.749	1.613	1.322	1.249	1.130	1.066	0.895	0.882	0.786	0.768	0.686	0.700	0.760	0.686	0.660	0.820	0.693	0.545	0.578	0.567	0.477	0.455	0.434	0.465	0.464	0.493	0.463	0.513	0.468	0.426	0.409	0.779	1.657	3.551	5.889	6.372	3.007	0.741	0.357	0.341	0.377	0.375	0.357	0.323	0.301	0.332	0.328	0.354	0.342	0.344	0.399	0.358	0.378	0.297	0.355	0.319	0.335	0.313	0.313	0.333	0.351
240.0	79.02	76.02	272.7	1570	1987	356.7	16.64	7.040	5.526	4.864	4.260	3.553	3.247	2.602	2.348	1.960	1.888	1.502	1.237	1.317	1.229	0.958	0.966	1.040	0.775	0.774	0.775	0.737	0.690	0.825	0.672	0.649	0.587	0.549	0.626	0.495	0.420	0.430	0.471	0.499	0.418	0.489	0.468	0.449	0.484	0.587	0.453	0.438	0.639	1.413	3.687	8.584	10.94	7.039	2.585	0.493	0.372	0.347	0.370	0.295	0.350	0.345	0.337	0.340	0.346	0.367	0.349	0.360	0.373	0.313	0.404	0.357	0.339	0.363	0.340	0.435	0.396
245.0	79.56	137.7	110.8	616.4	2438	2098	247.6	10.54	6.031	5.024	4.682	3.977	3.528	2.951	2.526	2.378	1.959	1.711	1.376	1.087	0.988	0.958	1.003	0.829	0.730	0.758	0.796	0.702	0.625	0.684	0.638	0.717	0.555	0.555	0.566	0.554	0.487	0.501	0.553	0.470	0.470	0.418	0.451	0.439	0.475	0.565	0.606	0.644	0.548	0.562	1.108	3.364	8.016	13.68	12.60	6.859	1.901	0.438	0.334	0.331	0.369	0.395	0.393	0.379	0.326	0.357	0.333	0.351	0.356	0.316	0.373	0.303	0.336	0.399	0.461	0.361	0.408
250.0	48.66	128.1	216.2	224.5	841.2	2399	2796	901.0	50.36	6.787	5.593	5.080	3.668	3.253	2.799	2.328	1.922	1.545	1.424	1.159	1.089	1.073	1.044	0.918	0.791	0.877	0.710	0.710	0.707	0.647	0.723	0.713	0.549	0.564	0.578	0.509	0.512	0.524	0.497	0.539	0.497	0.466	0.456	0.456	0.470	0.458	0.513	0.877	0.999	0.864	0.777	1.101	2.212	4.666	8.494	13.49	16.78	13.79	7.311	2.081	0.518	0.370	0.399	0.396	0.391	0.413	0.346	0.347	0.397	0.400	0.365	0.306	0.367	0.358	0.370	0.338	0.369
255.0	35.65	56.57	180.4	329.9	274.5	640.7	2408	4379	1327	43.32	7.317	6.082	4.889	3.587	2.954	2.370	2.174	1.844	1.521	1.230	1.184	1.247	0.951	1.026	0.833	0.908	0.850	0.805	0.791	0.781	0.701	0.797	0.584	0.541	0.566	0.519	0.500	0.538	0.506	0.533	0.504	0.464	0.464	0.473	0.404	0.413	0.385	0.493	0.634	0.977	1.417	1.434	1.089	1.395	2.283	3.534	6.743	14.82	25.60	24.38	11.20	2.208	0.421	0.402	0.405	0.419	0.384	0.359	0.329	0.373	0.389	0.316	0.362	0.394	0.402	0.370	0.352
260.0	36.48	33.51	79.28	319.2	327.7	201.3	760.9	3871	5437	245.3	22.72	8.128	5.994	4.378	3.584	2.681	2.127	2.064	1.614	1.380	1.375	1.235	1.079	1.032	0.953	0.905	0.876	0.811	0.872	0.787	0.753	0.708	0.623	0.664	0.633	0.562	0.476	0.483	0.449	0.518	0.481	0.459	0.607	0.521	0.423	0.447	0.393	0.456	0.421	0.624	1.064	1.923	1.915	1.227	0.913	1.143	1.921	4.410	11.48	24.08	31.69	23.05	8.095	1.206	0.358	0.443	0.401	0.380	0.354	0.354	0.421	0.357	0.351	0.443	0.382	0.393	0.405
265.0	35.67	27.64	35.98	164.0	433.3	242.1	206.8	1364	6032	4524	196.1	13.51	7.367	5.339	3.514	3.254	2.382	2.300	1.985	1.483	1.339	1.301	1.180	1.069	0.930	0.811	0.919	0.836	0.879	0.793	0.710	0.782	0.739	0.640	0.562	0.588	0.559	0.491	0.521	0.522	0.521	0.453	0.479	0.436	0.438	0.425	0.434	0.422	0.384	0.476	0.515	1.104	2.147	2.543	1.529	0.818	0.899	1.345	3.173	7.226	18.07	33.28	31.68	20.18	4.752	0.685	0.437	0.375	0.391	0.424	0.372	0.383	0.419	0.418	0.407	0.423	0.407
270.0	38.34	29.17	27.49	58.17	214.2	418.0	279.2	358.7	1930	4759	5871	779.3	46.97	7.614	5.013	4.050	3.020	2.576	2.118	1.786	1.540	1.477	1.302	1.194	1.045	0.909	0.945	0.897	0.855	0.872	0.789	0.830	0.785	0.726	0.631	0.648	0.645	0.591	0.555	0.576	0.535	0.584	0.536	0.498	0.461	0.424	0.467	0.463	0.408	0.413	0.398	0.544	0.899	1.493	2.058	2.398	2.191	1.293	1.191	2.039	4.575	9.793	17.07	28.23	30.57	31.13	14.03	5.078	0.820	0.486	0.447	0.419	0.456	0.439	0.414	0.434	0.440
275.0	53.89	36.75	39.75	34.68	71.02	198.2	531.3	330.4	473.5	1181	4131	8322	1113	46.54	7.567	5.598	4.075	2.967	2.418	1.897	1.731	1.756	1.319	1.325	1.029	1.147	0.986	0.920	0.834	0.842	0.800	0.958	0.762	0.782	0.755	0.622	0.671	0.576	0.636	0.625	0.554	0.539	0.585	0.559	0.532	0.467	0.466	0.449	0.512	0.387	0.376	0.505	0.508	0.625	0.837	1.255	2.609	3.481	2.517	1.257	1.526	2.570	4.267	6.853	9.461	21.79	43.24	51.52	22.61	5.402	0.632	0.429	0.465	0.399	0.417	0.443	0.494
280.0	53.84	56.74	58.46	42.62	43.92	77.14	333.5	601.0	253.0	301.6	1152	6048	8961	786.6	20.86	7.249	5.001	3.738	2.792	1.991	1.798	1.728	1.438	1.251	1.074	1.186	1.031	1.057	0.978	1.059	0.961	0.958	0.794	0.821	0.790	0.578	0.704	0.564	0.697	0.628	0.614	0.538	0.496	0.542	0.474	0.579	0.608	0.552	0.550	0.453	0.386	0.468	0.437	0.516	0.574	0.656	1.176	2.263	3.828	3.449	1.846	1.198	1.469	2.041	2.600	5.757	14.40	34.82	52.61	32.62	17.65	2.542	0.632	0.411	0.407	0.448	0.493
285.0	64.84	72.50	72.70	50.80	39.42	44.02	132.7	523.4	509.6	148.1	302.2	1763	8388	6881	118.3	11.27	6.387	4.481	3.341	2.449	2.008	1.819	1.483	1.362	1.357	1.298	1.036	1.011	1.023	1.034	0.940	0.875	0.871	0.778	0.778	0.729	0.809	0.615	0.632	0.632	0.580	0.561	0.509	0.609	0.596	0.569	0.567	0.606	0.576	0.501	0.454	0.490	0.478	0.512	0.479	0.551	0.597	0.961	1.992	3.725	4.042	2.546	1.162	0.966	1.112	1.739	3.705	9.050	20.22	41.07	57.92	28.70	14.15	1.433	0.511	0.547	0.532
290.0	80.12	89.80	96.64	70.83	46.62	44.14	64.29	199.4	522.2	462.6	182.3	455.4	2333	5747	6303	1645	33.09	7.355	4.234	2.893	2.577	2.055	1.837	1.599	1.404	1.400	1.217	1.248	1.057	1.021	0.925	0.976	0.936	0.854	0.876	0.694	0.702	0.760	0.633	0.647	0.593	0.605	0.483	0.618	0.578	0.613	0.572	0.662	0.625	0.584	0.535	0.536	0.528	0.566	0.496	0.549	0.609	0.674	0.990	1.514	2.352	3.466	3.874	2.735	1.465	1.026	1.429	2.543	5.169	10.71	20.81	31.09	53.49	40.32	19.53	9.434	1.637
295.0	97.93	126.6	143.1	118.4	84.94	82.65	95.59	135.9	255.9	618.0	654.7	255.9	644.8	1428	3537	8165	699.0	45.32	7.850	4.033	3.130	2.397	2.243	1.912	1.741	1.415	1.416	1.292	1.085	1.081	1.009	1.083	0.987	0.848	0.906	0.741	0.714	0.731	0.715	0.672	0.680	0.606	0.559	0.604	0.567	0.656	0.681	0.827	0.726	0.735	0.681	0.739	0.644	0.697	0.684	0.765	0.772	0.925	0.876	0.997	1.338	1.561	2.452	4.344	5.052	3.222	1.732	1.506	2.274	3.386	5.587	7.930	13.70	18.52	38.95	59.26	31.19
300.0	139.4	249.1	274.5	236.4	188.3	212.9	283.1	310.9	329.3	815.7	1394	1054	810.4	833.8	1331	5360	5894	571.3	32.06	7.217	4.200	3.261	2.599	2.038	2.028	1.563	1.464	1.450	1.242	1.191	1.096	1.286	0.966	0.889	0.946	0.802	0.888	0.796	0.793	0.748	0.703	0.660	0.649	0.669	0.730	0.861	0.834	1.162	1.154	1.160	1.065	1.037	1.094	1.071	1.148	1.309	1.513	1.774	1.983	2.247	2.402	2.774	3.432	4.465	5.840	7.797	7.083	4.788	4.407	4.143	4.675	4.469	5.840	7.278	13.13	29.27	54.61
305.0	270.9	444.1	530.6	452.8	406.1	479.8	693.3	971.1	1322	1814	2402	2841	2124	1270	1230	2361	6808	5171	410.4	14.06	5.995	3.985	3.316	2.759	2.357	1.722	1.728	1.449	1.472	1.512	1.219	1.399	1.256	1.007	1.045	0.885	0.882	0.941	0.851	0.866	0.840	0.864	0.792	0.854	1.009	1.225	1.451	1.897	1.871	1.750	1.546	1.837	1.957	1.834	2.245	2.500	3.124	3.568	4.154	5.116	5.545	6.758	7.751	9.154	9.957	11.53	13.91	13.91	12.43	9.869	9.312	8.080	8.455	9.171	9.560	12.53	21.42
310.0	372.5	657.8	834.2	722.8	643.5	735.5	1014	1387	1788	2334	2829	3366	3223	2267	1909	1753	3019	5347	5463	1460	25.19	6.024	4.318	3.247	2.614	2.089	2.021	1.633	1.572	1.442	1.460	1.530	1.314	1.124	1.055	0.969	0.940	1.004	0.953	1.000	0.888	0.962	0.961	1.026	1.088	1.528	2.047	2.559	2.796	2.476	2.441	2.808	2.769	2.799	3.171	3.434	4.534	5.024	6.044	6.665	7.784	9.002	10.31	11.49	12.52	13.55	14.57	16.20	17.02	16.13	14.12	11.86	11.14	11.73	10.78	10.14	11.16
315.0	517.9	886.5	1112	993.9	843.2	925.2	1200	1576	1937	2487	2974	3396	3399	3016	2315	1732	1992	1944	3148	6824	519.8	26.74	6.054	4.375	3.183	2.617	2.390	1.842	1.923	1.659	1.465	1.707	1.207	1.150	1.186	1.045	1.051	0.998	0.961	1.036	1.022	0.960	1.042	1.372	1.314	1.761	2.575	3.271	3.663	3.351	3.192	3.664	3.663	3.617	3.911	4.042	5.260	5.914	7.084	7.509	8.373	9.421	11.01	12.78	13.23	14.64	14.90	16.30	16.70	16.34	16.84	16.01	14.01	13.71	11.45	10.18	9.573
320.0	584.1	1048	1265	1121	952.7	993.5	1273	1623	1959	2490	2971	3406	3319	3099	2669	1790	1757	1171	921.6	4278	6286	431.1	13.51	5.755	3.979	3.232	2.560	2.204	1.971	1.888	1.666	1.730	1.387	1.341	1.217	1.124	1.070	1.043	0.896	0.986	1.076	0.997	0.966	1.353	1.621	2.190	2.883	3.651	4.226	3.910	3.568	4.203	3.882	3.897	4.260	4.271	5.519	6.139	7.659	7.831	8.611	9.466	10.40	12.54	13.19	14.70	15.34	15.84	16.71	16.15	15.82	16.09	16.52	15.21	12.54	10.44	9.245
325.0	580.9	1101	1418	1246	1015	970.4	1213	1525	1781	2226	2697	3083	3008	2731	2636	1815	1571	927.3	365.9	1204	5423	3940	61.30	8.876	4.698	3.619	2.946	2.560	2.143	2.023	1.869	1.747	1.282	1.215	1.109	1.145	1.104	1.026	1.106	1.014	0.975	0.964	1.099	1.278	1.724	2.204	2.829	3.979	4.326	4.368	3.945	4.503	4.143	4.056	4.021	4.508	5.211	6.110	7.101	7.499	7.609	8.267	9.979	11.16	11.87	13.21	13.89	14.80	15.38	14.78	14.15	14.04	14.68	15.66	13.68	10.70	9.179
330.0	650.9	1264	1831	1951	1634	1189	1106	1336	1500	1862	2263	2620	2608	2350	2175	1804	1515	833.0	293.9	384.2	1541	4026	4553	1270	21.19	5.131	3.691	2.896	2.453	2.093	1.864	1.916	1.329	1.308	1.225	1.167	1.067	0.969	1.070	1.046	0.993	1.027	1.118	1.277	1.744	2.504	3.238	4.577	5.409	5.511	6.129	6.907	6.652	6.411	5.358	4.517	4.709	5.440	6.242	6.666	6.693	7.395	8.348	9.355	9.974	10.88	11.86	12.81	13.36	13.16	12.59	12.09	11.97	12.50	12.27	10.99	10.02
335.0	723.3	1463	2350	2887	2605	1616	1082	1188	1275	1580	1916	2250	2286	2108	1898	1578	1581	922.4	362.4	282.2	496.9	1044	2898	6326	433.8	21.90	4.867	3.747	2.768	2.396	1.987	2.135	1.729	1.360	1.204	1.175	1.098	1.051	0.982	1.022	1.141	1.014	1.094	1.295	1.861	2.538	3.745	5.352	6.437	7.545	8.418	10.13	10.38	10.37	7.736	5.209	4.878	5.212	5.406	5.907	5.921	6.530	6.887	8.059	8.694	9.698	10.06	10.72	11.60	11.64	11.36	11.31	10.77	10.47	10.49	9.267	9.666
340.0	684.4	1405	2359	2970	2744	1641	994.2	1030	1078	1313	1617	1889	1958	1833	1638	1326	1330	996.9	407.9	265.2	269.4	357.6	840.2	4255	5498	361.3	10.26	4.646	3.237	2.533	2.201	2.109	1.675	1.403	1.164	1.179	1.132	1.161	0.927	0.985	1.062	1.181	1.119	1.292	1.852	2.448	3.443	5.056	6.831	7.372	8.596	10.97	11.38	10.66	8.097	4.972	4.484	4.564	4.726	5.166	5.117	5.502	5.944	7.004	7.460	8.119	8.715	9.255	9.612	9.724	9.874	10.11	9.789	9.386	9.021	7.741	7.680
345.0	590.4	1309	2226	2781	2604	1506	844.1	856.0	902.3	1074	1315	1547	1615	1531	1373	1101	1023	887.8	493.3	259.4	208.9	202.1	295.0	1234	5046	3315	52.57	6.491	4.148	2.880	2.460	2.333	1.748	1.704	1.223	1.161	1.045	1.092	0.958	0.998	0.953	0.965	0.993	1.307	1.705	2.307	3.044	4.470	6.099	6.934	8.183	10.76	10.59	9.988	7.379	4.656	4.045	3.728	3.965	4.485	4.102	4.450	4.985	5.865	5.997	6.833	7.073	7.694	8.283	8.556	7.992	8.238	8.323	8.067	7.582	6.842	6.401
350.0	546.3	1157	2052	2712	2639	1496	745.2	710.4	737.6	864.5	1057	1235	1300	1257	1141	932.4	829.3	668.7	529.0	368.8	221.3	179.4	184.0	346.3	1433	3557	4037	1089	16.75	3.922	3.167	2.921	1.941	1.571	1.384	1.239	1.148	1.013	0.963	1.031	0.957	0.931	1.013	1.144	1.477	2.076	2.715	4.360	5.741	6.745	7.869	10.48	10.54	10.33	7.438	4.479	3.523	3.402	3.445	3.849	3.571	3.719	4.070	4.513	4.827	5.355	5.733	6.383	6.612	6.790	6.671	6.893	6.808	6.759	6.225	6.126	5.409
355.0	486.1	984.6	1846	2471	2490	1391	652.6	595.6	601.7	690.3	838.1	971.8	1029	1010	920.1	777.9	688.3	533.8	403.1	432.1	301.8	177.6	157.8	149.3	347.1	838.6	2776	5778	388.8	16.04	4.054	3.467	2.263	1.707	1.443	1.325	1.188	1.026	0.974	1.021	0.980	1.039	0.939	1.120	1.235	1.904	2.471	3.899	5.112	6.287	7.117	9.639	9.797	9.948	6.952	3.970	3.287	3.058	3.012	3.121	3.004	2.998	3.267	3.631	4.261	4.285	4.644	4.833	5.227	5.216	5.428	5.514	5.549	5.908	5.377	4.889	4.875
360.0	420.6	810.9	1558	2135	2149	1221	567.1	501.4	504.0	567.3	683.3	780.2	830.5	817.9	755.5	641.9	573.9	445.4	321.2	339.5	365.0	200.5	138.6	98.78	106.4	205.8	734.8	4291	4795	320.5	7.948	4.506	2.667	2.012	1.555	1.331	1.098	1.089	1.072	0.937	0.876	0.936	0.916	1.081	1.204	1.778	2.269	3.617	4.329	5.379	6.186	8.096	8.564	9.030	6.167	3.380	3.057	2.666	2.689	2.534	2.487	2.734	2.823	3.120	3.297	3.441	3.852	4.038	4.585	4.670	4.364	4.554	4.460	4.799	4.348	4.164	4.446
365.0	343.8	708.0	1306	1836	1891	1061	494.8	429.0	434.1	481.0	572.7	654.0	685.0	676.0	629.9	542.8	485.0	383.3	278.9	253.8	322.3	269.4	141.9	82.73	53.30	65.93	179.7	1257	4890	3050	47.29	6.130	3.248	2.244	1.829	1.421	1.245	1.268	1.052	0.907	0.931	0.950	0.931	1.029	1.092	1.531	1.971	2.872	3.743	4.496	5.475	7.227	7.529	8.002	5.637	3.025	2.793	2.401	2.345	2.335	2.373	2.345	2.416	2.670	2.734	2.967	3.223	3.455	3.780	3.905	3.819	3.833	4.141	4.142	3.749	3.564	3.555
370.0	282.3	601.3	1101	1545	1638	929.1	437.0	370.5	369.4	403.2	461.1	525.5	557.1	551.0	516.8	452.6	408.1	336.0	250.3	214.5	220.1	263.2	213.3	94.12	44.74	36.97	56.21	295.5	1430	3611	3717	1064	13.88	3.157	2.306	1.699	1.403	1.392	1.091	1.070	0.889	0.902	0.965	0.951	1.048	1.336	1.647	2.453	3.208	3.722	4.686	5.952	6.535	6.725	4.959	2.911	2.288	2.217	1.986	2.056	2.004	2.115	2.102	2.157	2.284	2.532	2.610	2.954	3.054	3.190	3.177	3.194	3.530	3.463	3.169	3.109	2.927
375.0	232.2	466.2	891.0	1249	1339	792.1	388.4	322.7	317.3	334.3	377.1	425.3	444.0	441.3	412.9	370.1	334.4	283.2	222.9	190.8	169.0	173.1	227.9	157.5	52.68	33.60	31.80	82.00	330.8	859.0	2808	7311	333.0	12.39	2.959	2.255	1.815	1.504	1.098	1.166	0.895	0.962	0.963	0.929	0.897	1.221	1.410	1.979	2.623	2.981	3.791	5.018	5.341	5.490	4.015	2.489	2.120	1.886	1.623	1.777	1.685	1.773	1.778	1.812	2.038	2.153	2.254	2.174	2.396	2.595	2.648	2.687	2.674	2.655	2.627	2.577	2.361
380.0	193.4	378.2	725.3	1045	1106	677.0	349.7	285.9	274.3	286.5	319.1	354.8	364.9	365.8	347.5	308.9	286.5	246.4	199.7	171.7	147.3	133.9	167.2	199.9	89.37	36.42	28.94	36.47	88.15	204.2	761.9	5839	2840	253.4	5.413	2.697	1.977	1.883	1.163	1.202	0.980	0.970	0.885	0.881	0.931	1.132	1.268	1.783	2.059	2.536	3.410	4.217	4.448	4.637	3.589	2.248	1.882	1.559	1.692	1.639	1.708	1.648	1.760	1.743	1.765	1.869	1.971	2.017	2.176	2.161	2.123	2.209	2.263	2.200	2.208	2.330	2.161
385.0	177.5	320.3	609.6	891.6	937.7	603.3	324.0	261.9	248.6	259.2	276.2	304.1	317.5	314.6	296.1	271.0	248.7	218.5	181.0	157.2	135.1	117.2	119.9	164.9	147.2	53.14	31.35	28.18	35.59	58.59	182.1	1744	4069	2465	37.91	3.499	2.269	1.970	1.488	1.436	1.017	1.083	0.925	0.818	0.946	1.007	1.166	1.470	1.866	2.343	2.658	3.650	3.832	4.072	3.286	2.079	1.731	1.561	1.481	1.491	1.492	1.459	1.516	1.566	1.745	1.583	1.711	1.748	1.960	1.906	1.968	2.031	2.031	1.958	1.938	1.898	1.865
390.0	142.9	265.3	488.6	728.6	787.1	529.3	305.1	252.0	226.2	229.5	243.5	259.9	267.5	266.1	249.2	224.9	211.8	186.7	160.0	141.4	124.2	108.7	98.41	102.4	138.7	113.7	47.31	29.27	26.29	27.86	52.50	401.6	1220	2881	2945	668.0	11.02	2.279	1.865	1.526	1.173	1.158	1.001	0.860	0.951	0.986	1.010	1.365	1.640	1.963	2.250	2.980	3.331	3.575	2.715	1.932	1.824	1.486	1.625	1.440	1.452	1.346	1.266	1.376	1.485	1.544	1.540	1.542	1.593	1.629	1.677	1.739	1.701	1.767	1.870	1.712	1.767
395.0	116.7	230.9	407.8	590.3	659.6	461.9	289.5	234.7	206.6	201.7	211.1	222.0	223.8	220.6	212.4	192.0	179.3	161.9	139.5	126.5	110.6	97.99	88.35	78.01	83.24	125.4	104.4	40.71	27.24	22.60	25.63	100.4	279.7	689.6	2326	3684	271.0	9.420	2.471	1.898	1.347	1.221	1.152	0.927	1.041	1.014	1.005	1.219	1.498	1.543	1.918	2.482	2.690	3.100	2.290	1.794	1.615	1.463	1.424	1.334	1.408	1.172	1.157	1.316	1.401	1.288	1.363	1.363	1.520	1.459	1.517	1.657	1.530	1.559	1.764	1.559	1.518
400.0	109.1	194.9	350.5	507.0	580.7	415.1	281.9	227.7	195.5	186.4	192.6	195.8	198.7	195.4	184.6	168.8	155.9	144.0	125.3	115.3	101.3	92.32	82.67	71.22	64.54	87.85	129.1	59.32	30.38	23.66	20.00	33.63	70.98	161.0	643.5	3029	2329	209.8	4.510	2.146	1.555	1.223	1.117	1.067	0.955	0.842	0.957	1.186	1.483	1.422	1.699	2.191	2.443	2.584	2.228	1.728	1.552	1.446	1.297	1.256	1.227	1.155	1.148	1.065	1.211	1.227	1.210	1.269	1.474	1.347	1.352	1.371	1.470	1.415	1.367	1.459	1.344
405.0	103.2	178.7	304.4	443.3	508.6	397.7	280.4	223.8	185.6	177.5	179.1	177.6	179.9	176.5	166.0	153.8	141.5	127.3	114.7	103.7	94.38	87.07	79.79	68.06	60.30	62.55	104.6	108.0	45.03	25.30	20.20	20.16	25.06	42.69	150.8	928.6	3209	2068	32.92	3.194	1.799	1.421	1.249	1.017	0.897	0.910	0.913	1.180	1.381	1.234	1.421	1.923	2.227	2.266	2.203	1.617	1.602	1.436	1.309	1.244	1.242	1.209	1.180	1.176	1.234	1.180	1.112	1.196	1.308	1.214	1.333	1.345	1.247	1.379	1.249	1.370	1.287
410.0	93.45	153.2	263.3	376.4	447.8	368.3	273.7	220.0	174.8	165.4	164.0	162.8	163.2	157.9	144.4	135.3	125.7	112.7	102.4	93.10	86.35	80.40	75.25	65.22	57.43	53.49	65.84	97.05	88.70	40.00	22.20	17.81	15.20	17.09	39.80	213.3	966.4	2340	2366	618.8	8.885	1.766	1.316	1.271	1.048	0.866	0.913	1.037	1.297	1.207	1.318	1.659	1.946	1.989	1.967	1.623	1.458	1.510	1.375	1.259	1.191	1.085	1.134	1.185	1.109	1.166	1.118	1.114	1.134	1.131	1.228	1.143	1.178	1.161	1.165	1.217	1.222
