Sample:	'1
File name:	Default_20230713_163330.FD3
Run date:	'16:27:09, 07/13/2023
Operator:	user
Comment:	'

Instrument
Model:	F-2700 FL Spectrophotometer
Serial number:	2190-003
ROM Version:	4J14000 07

Instrument parameters
Measurement type:	3-D scan
Data mode:	Fluorescence
EX  Start WL:	220.0 nm
EX  End WL:	600.0 nm
EX Sampling interval:	5.0 nm
EM  Start WL:	230.0 nm
EM  End WL:	650.0 nm
EM Sampling interval:	5.0 nm
Scan speed:	12000 nm/min
EX Slit:	5.0 nm
EM Slit:	5.0 nm
PMT Voltage:	700 V
Response:	Auto 
Corrected spectra:	Off
Contour interval:	50.000

Peak integration
Integration method:	Rectangular
Sensitivity:	1
Threshold:	1.000

Peaks
No.	ApexEX/EM(nm)	Height(Data)
1	225.0/300.0	48.69
2	225.0/525.0	12.85
3	230.0/275.0	-17.29
4	230.0/340.0	 1650
5	230.0/555.0	-2.861
6	230.0/570.0	-7.142
7	230.0/605.0	-15.22
8	235.0/295.0	39.79
9	235.0/560.0	-1.209
10	235.0/585.0	-11.00
11	235.0/635.0	-2.365
12	240.0/520.0	61.72
13	240.0/615.0	-16.10
14	240.0/630.0	-9.380
15	245.0/365.0	 2500
16	245.0/535.0	62.75
17	245.0/595.0	-1.738
18	245.0/625.0	-5.742
19	250.0/540.0	64.43
20	250.0/620.0	-13.86
21	255.0/280.0	301.1
22	255.0/555.0	67.66
23	260.0/240.0	-10.08
24	260.0/285.0	410.2
25	260.0/570.0	69.09
26	265.0/235.0	-10.05
27	265.0/290.0	433.5
28	265.0/580.0	73.47
29	265.0/635.0	8.611
30	270.0/295.0	658.4
31	270.0/590.0	62.55
32	275.0/305.0	778.3
33	275.0/605.0	65.52
34	280.0/310.0	708.3
35	280.0/615.0	50.63
36	285.0/315.0	657.1
37	285.0/630.0	31.79
38	290.0/260.0	-0.689
39	290.0/325.0	642.1
40	290.0/640.0	32.28
41	295.0/240.0	-1.422
42	295.0/330.0	543.6
43	300.0/235.0	-2.537
44	300.0/265.0	-1.828
45	300.0/335.0	494.9
46	305.0/245.0	-0.564
47	305.0/280.0	-0.376
48	305.0/340.0	505.1
49	310.0/275.0	-1.123
50	310.0/345.0	433.1
51	315.0/600.0	4.388
52	320.0/275.0	-1.099
53	320.0/360.0	355.9
54	320.0/635.0	395.2
55	325.0/255.0	-1.892
56	325.0/365.0	320.2
57	330.0/265.0	-0.883
58	330.0/370.0	272.7
59	330.0/415.0	208.3
60	335.0/275.0	0.428
61	335.0/380.0	281.4
62	335.0/430.0	205.0
63	340.0/385.0	283.0
64	340.0/425.0	204.6
65	345.0/240.0	-0.295
66	345.0/390.0	246.7
67	350.0/280.0	-0.701
68	350.0/395.0	251.2
69	355.0/405.0	255.8
70	355.0/440.0	203.9
71	360.0/305.0	-0.111
72	360.0/330.0	0.765
73	360.0/410.0	237.4
74	360.0/445.0	205.2
75	365.0/415.0	235.8
76	370.0/315.0	-0.187
77	370.0/425.0	237.6
78	375.0/430.0	215.7
79	380.0/435.0	206.8
80	385.0/445.0	192.9
81	390.0/245.0	-0.269
82	395.0/255.0	-0.330
83	400.0/260.0	-0.128
84	400.0/465.0	133.5
85	430.0/295.0	-0.161
86	435.0/265.0	-0.361
87	445.0/525.0	29.28
88	495.0/360.0	7.474
89	505.0/275.0	0.553
90	515.0/280.0	1.034
91	525.0/290.0	0.760
92	535.0/295.0	1.447
93	545.0/300.0	1.686
94	550.0/305.0	1.399
95	565.0/335.0	1.819
96	570.0/315.0	1.454
97	575.0/320.0	1.748
98	580.0/325.0	1.339

Data points
	220.0	225.0	230.0	235.0	240.0	245.0	250.0	255.0	260.0	265.0	270.0	275.0	280.0	285.0	290.0	295.0	300.0	305.0	310.0	315.0	320.0	325.0	330.0	335.0	340.0	345.0	350.0	355.0	360.0	365.0	370.0	375.0	380.0	385.0	390.0	395.0	400.0	405.0	410.0	415.0	420.0	425.0	430.0	435.0	440.0	445.0	450.0	455.0	460.0	465.0	470.0	475.0	480.0	485.0	490.0	495.0	500.0	505.0	510.0	515.0	520.0	525.0	530.0	535.0	540.0	545.0	550.0	555.0	560.0	565.0	570.0	575.0	580.0	585.0	590.0	595.0	600.0
230.0	-56.53	27.95	 1434	 1529	105.3	-20.24	-12.84	-15.15	-14.32	-10.89	-12.25	-10.24	-5.002	-7.408	-7.526	-6.818	-3.266	-3.848	-3.372	-3.819	-3.180	-3.245	-1.796	-1.618	-2.053	-1.767	-2.013	-2.129	-1.608	-1.684	-1.906	-1.647	-1.269	-1.048	-0.812	-1.024	-0.881	-0.771	-0.964	-1.118	-0.685	-0.753	-0.889	-0.933	-0.832	-0.695	-0.715	0.600	2.553	2.686	0.825	-0.786	-0.818	-0.670	-0.684	-0.801	-0.704	-0.859	-0.802	-0.790	-0.849	-0.742	-0.952	-0.896	-0.717	-0.949	-0.876	-0.716	-1.154	-1.099	-0.690	-0.908	-0.819	-0.740	-0.951	-0.761	-1.059
235.0	-39.14	-23.19	448.3	 1954	 1652	164.1	-13.00	-14.31	-13.85	-10.05	-13.18	-7.707	-7.643	-8.116	-8.996	-4.903	-2.537	-4.386	-4.406	-2.589	-3.911	-4.342	-2.677	-3.102	-2.246	-1.568	-1.845	-1.550	-2.535	-1.779	-1.870	-1.984	-1.820	-0.783	-0.727	-1.002	-1.569	-1.213	-0.963	-0.568	-1.027	-1.001	-0.852	-1.017	-1.425	-1.175	-1.103	-0.559	0.644	1.689	2.809	3.278	1.109	-0.469	-0.853	-0.974	-0.202	-0.900	-0.401	-1.239	-0.483	-0.394	-0.658	-0.816	-0.843	-0.954	-1.171	-0.714	-1.268	-0.865	-0.438	-0.891	-0.924	-0.792	-0.910	-0.482	-0.894
240.0	-36.00	-8.180	74.22	837.9	 2488	 1528	73.41	-17.51	-10.08	-15.95	-7.177	-7.009	-6.541	-7.004	-2.924	-1.422	-4.736	-4.359	-5.736	-4.175	-4.013	-3.596	-2.964	-3.380	-2.555	-0.295	-2.606	-2.485	-1.692	-1.558	-2.671	-1.434	-1.472	-2.107	-0.965	-0.846	-0.839	-1.645	-1.179	-0.764	-0.852	-0.826	-0.882	-0.774	-0.811	-1.032	-0.981	-0.845	-0.413	0.041	1.228	3.405	4.768	3.894	0.735	-0.895	-0.383	-0.703	-0.556	-1.248	-0.847	-0.707	-0.858	-1.480	-0.604	-1.333	-0.669	-0.610	-1.134	-1.046	-0.644	-0.611	-0.706	-1.292	-0.848	-0.664	-0.963
245.0	-44.54	-55.67	12.61	208.3	 1312	 2995	 1171	13.79	-20.52	-15.92	-7.665	-10.34	-15.08	-6.549	-4.323	-5.946	-4.710	-0.564	-5.079	-4.633	-2.882	-2.214	-3.426	-2.552	-2.475	-0.883	-2.967	-1.684	-0.976	-1.682	-2.061	-1.556	-0.380	-0.850	-0.269	-1.229	-0.673	-1.552	-1.086	-0.937	-0.977	-0.677	-1.233	-1.141	-1.240	-1.061	-0.570	-0.780	-0.388	-0.511	-0.265	0.397	2.584	5.627	6.348	2.696	0.261	-0.813	-0.632	-1.100	-0.956	-0.951	-0.895	-1.064	-0.902	-1.085	-0.819	-0.841	-0.848	-1.141	-0.752	-0.448	-0.482	-0.965	-1.090	-0.871	-1.434
250.0	-34.47	-10.79	-1.294	65.83	312.5	 1391	 2894	 2180	292.1	-9.962	-4.138	-8.659	-9.376	-9.096	-6.353	-5.617	-3.346	-4.307	-3.527	-3.713	-2.506	-2.392	-2.641	-2.169	-2.596	-1.457	-1.908	-0.941	-1.721	-1.960	-1.498	-1.312	-0.973	-1.517	-0.900	-0.460	-0.532	-1.434	-0.633	-0.904	-0.695	-0.679	-0.896	-0.960	-0.653	-0.725	-0.761	-0.451	-0.169	-0.451	0.029	-0.462	-0.091	0.793	3.239	4.907	6.324	4.301	1.908	-0.481	-1.174	-0.802	-0.750	-0.860	-0.886	-1.196	-0.748	-0.919	-0.522	-1.027	-0.798	-0.829	-0.828	-0.875	-0.954	-0.716	-0.974
255.0	-18.91	-33.22	-27.34	54.12	121.3	317.2	958.3	 3777	 3449	300.6	-6.115	-6.560	-9.653	-7.117	-5.509	-5.670	-3.095	-3.170	-2.832	-3.435	-2.447	-1.892	-3.082	-3.727	-2.360	-1.386	-2.042	-1.061	-1.611	-2.107	-2.228	-1.420	-1.304	-1.701	-1.415	-0.330	-0.970	-1.209	-0.605	-1.127	-0.921	-0.747	-1.840	-1.380	-0.830	-0.779	-0.783	-1.161	-0.645	-0.594	-0.347	-0.448	-0.462	-0.425	0.498	0.128	2.537	4.507	8.105	6.545	2.969	-0.753	-0.123	-0.623	-0.716	-0.974	-1.183	-0.769	-0.742	-0.577	-1.099	-0.484	-1.323	-0.401	-0.766	-0.926	-1.048
260.0	-54.16	-29.80	-38.00	8.601	132.5	119.2	205.6	 1618	 5239	 1530	107.8	-6.468	-11.03	-6.280	-0.689	-3.951	-2.921	-4.559	-4.123	-4.923	-2.540	-2.003	-2.604	-2.340	-3.431	-1.170	-1.601	-1.018	-1.530	-1.992	-1.654	-0.915	-2.409	-1.108	-1.142	-0.569	-0.128	-0.967	-0.974	-0.826	-1.355	-0.863	-1.289	-0.718	-0.674	-0.637	-0.844	-0.840	-0.563	-0.763	-0.562	-0.615	0.262	-0.453	-0.323	-0.552	0.367	0.831	2.996	7.465	10.19	6.827	1.171	-0.024	-0.730	-1.028	-0.697	-0.752	-0.948	-0.521	-0.732	-0.826	-0.806	-0.624	-0.781	-0.808	-1.133
265.0	-81.85	-51.51	-43.13	-36.70	69.09	157.1	70.21	387.5	 2690	 5286	 1169	27.91	-6.879	-5.096	-3.329	-5.537	-1.828	-3.825	-3.682	-4.325	-2.930	-2.238	-0.883	-1.830	-2.106	-2.125	-2.981	-1.046	-1.679	-1.755	-0.778	-0.841	-1.723	-1.122	-0.936	-1.131	-0.724	-1.435	-0.950	-0.946	-1.726	-0.723	-1.163	-0.361	-0.511	-1.407	-1.159	-0.709	-0.387	-0.654	-0.442	-0.347	-0.086	-0.451	0.279	-0.417	-0.496	-0.851	-0.015	1.745	4.669	9.948	11.18	4.763	0.332	-0.732	-0.811	-1.133	-1.328	-0.470	-0.756	-0.785	-0.741	-0.760	-0.847	-1.186	-1.512
270.0	-61.77	-48.19	-50.19	-31.17	-6.857	109.4	182.7	124.3	654.4	 2397	 4331	 2686	256.1	0.020	-6.273	-3.474	-4.106	-2.546	-2.933	-4.099	-1.910	-2.312	-2.580	-2.675	-1.838	-1.938	-0.970	-1.327	-2.315	-1.918	-1.663	-0.607	-1.522	-1.304	-1.450	-0.897	-1.552	-1.118	-1.155	-0.851	-1.182	-0.844	-1.089	-1.060	-0.597	-1.007	-0.948	-0.937	-0.250	-0.446	-0.830	-0.569	-0.222	-0.614	-0.064	0.103	0.117	-0.323	-0.633	-0.225	0.534	2.447	5.616	8.835	9.710	8.703	3.913	0.301	-1.300	-0.873	-1.141	-0.520	-0.486	-0.972	-0.943	-1.418	-1.182
275.0	-31.79	-55.05	-17.29	-39.37	-29.69	20.90	162.2	281.0	203.1	546.7	 1395	 4654	 3744	209.9	-3.345	-3.850	-3.688	-1.311	-1.123	-3.473	-1.099	-3.411	-1.643	0.428	-1.634	-1.856	-0.729	-1.174	-1.846	-2.221	-1.983	-1.828	-1.455	-1.083	-1.321	-1.028	-0.951	-1.041	-0.765	-1.328	-1.263	-1.221	-1.274	-0.901	-0.796	-0.764	-1.017	-0.408	-0.789	-0.154	-0.503	-0.885	-0.501	-0.984	-0.965	-0.151	0.258	0.553	0.069	-0.644	-0.500	-0.080	0.260	1.489	2.702	7.643	15.75	14.07	4.764	-0.465	-0.916	-1.172	-0.129	-0.901	-1.034	-1.324	-0.923
280.0	-39.00	-17.33	-19.02	-11.08	-23.64	-7.100	51.12	301.1	252.7	157.9	347.8	 1792	 5637	916.5	74.96	-1.941	-2.434	-0.376	-1.390	-3.007	-1.591	-3.474	-3.719	-1.846	-1.578	-2.116	-0.701	-0.723	-1.859	-1.455	-2.007	-1.617	-1.342	-0.661	-1.242	-0.569	-1.163	-0.977	-1.070	-0.913	-0.806	-1.149	-0.332	-1.697	-0.790	-0.594	-0.734	-0.660	-0.419	-0.450	-0.424	-1.440	-0.660	-0.169	-1.061	-0.346	-0.113	0.501	0.545	1.034	-0.293	-0.885	-0.464	-0.063	0.152	1.784	5.567	13.00	19.33	11.28	1.968	-0.694	-0.350	-0.817	-0.957	-0.837	-0.765
285.0	-13.68	-15.00	-45.72	-13.44	-13.65	-20.96	3.168	145.1	410.2	173.4	123.5	478.8	 2526	 5458	684.2	18.35	0.741	-2.382	-2.761	-1.943	-2.139	-1.950	-3.647	-2.700	-2.226	-1.460	-1.378	-0.754	-0.755	-1.205	-1.286	-1.779	-1.111	-1.084	-1.894	-1.907	-0.894	-1.413	-0.935	-1.165	-1.400	-1.566	-1.085	-1.102	-1.114	-0.548	-0.701	-0.785	-0.656	-0.549	-0.282	-0.752	-0.733	-0.930	-0.937	-0.161	-0.335	-0.211	0.186	0.787	0.123	0.180	-0.323	-0.359	-0.151	0.061	0.728	3.068	10.26	18.31	16.65	6.543	0.180	-0.906	-0.612	-0.647	-0.409
290.0	-22.66	-4.731	-1.257	5.702	-8.137	-8.722	5.487	44.44	227.5	433.5	278.6	221.0	683.1	 2459	 4175	 2289	159.7	-0.424	-1.046	-0.251	-2.133	-1.586	-2.441	-2.552	-2.727	-1.736	-1.477	-1.906	-0.968	-1.328	-1.133	-1.124	-1.301	-1.017	-1.369	-1.252	-0.812	-0.769	-1.494	-1.000	-1.344	-1.258	-1.184	-0.812	-0.379	-0.748	-0.850	-0.532	-0.211	-0.531	-0.407	-0.825	-0.401	-0.645	-0.646	-0.460	-0.640	-0.496	-0.587	-0.052	0.336	0.760	0.696	0.009	0.066	-0.051	-0.321	0.445	1.751	4.506	9.241	13.22	14.45	11.52	4.587	-0.079	-0.833
295.0	-21.59	-4.303	26.77	39.79	-13.90	9.782	17.04	34.73	117.4	270.8	658.4	340.5	297.4	640.9	 1291	 4530	 3436	175.6	2.181	0.311	-2.557	-1.276	-1.741	-1.875	-0.860	-1.940	-1.407	-2.591	-1.485	-1.243	-1.013	-1.333	-2.234	-1.232	-0.892	-0.850	-1.336	-0.842	-0.607	-1.104	-0.952	-1.239	-0.161	-0.711	-0.479	-0.394	-1.306	-0.666	-0.222	-0.180	-0.219	-0.324	-0.657	-0.908	-0.824	-0.436	-0.841	-0.724	-0.523	-1.203	-0.652	-0.358	0.054	1.447	1.187	0.198	-0.092	-0.155	0.321	0.429	1.533	2.152	4.569	11.76	20.68	18.50	5.397
300.0	-69.99	48.69	40.71	21.91	14.88	17.92	24.93	60.25	93.90	181.5	570.0	684.5	275.5	252.0	339.5	 1750	 5907	 2421	74.16	0.645	-0.805	-0.849	-1.666	-2.315	-0.498	-0.939	-1.536	-2.018	-0.995	-1.192	-1.424	-2.386	-1.692	-1.071	-0.677	-0.465	-1.240	-1.530	-0.289	-1.135	-1.245	-0.987	-1.181	-0.941	-0.974	-0.613	-0.589	-0.615	-0.292	-0.289	-0.256	-0.377	-0.699	-1.310	-0.535	-0.599	-0.601	-0.550	-0.009	-0.705	-0.643	-0.732	-0.217	-0.061	0.754	1.686	0.657	0.333	-0.360	-0.158	-0.334	-0.102	0.455	2.397	8.689	19.57	21.77
305.0	-25.91	32.63	41.28	29.42	10.64	24.08	33.89	71.74	110.3	178.5	363.9	778.3	524.2	199.8	131.4	439.0	 2763	 5787	434.3	20.04	-0.846	-0.272	-1.588	-0.596	-0.600	-2.571	-1.768	-0.790	-0.111	-0.384	-0.598	-1.394	-1.157	-0.750	-1.256	0.045	-0.487	-2.072	-1.359	-1.269	-0.587	-0.461	-1.030	-0.814	-0.373	-1.451	-0.188	-0.476	-0.417	-0.624	-0.294	-0.453	-0.004	-0.598	-0.195	-0.880	-0.647	-0.192	-0.455	-0.340	0.004	0.031	-0.056	-0.017	0.699	1.036	1.399	0.851	-0.404	-0.127	-0.724	-0.707	-0.227	-0.480	1.514	5.230	13.65
310.0	3.821	33.44	56.19	35.89	38.50	34.58	46.82	86.38	119.6	183.2	279.3	486.0	708.3	409.3	111.6	132.0	669.6	 2546	 4458	 1639	123.0	0.853	-0.179	-0.628	-0.355	-0.407	-0.763	-0.828	-1.161	-1.051	-1.219	-1.324	-1.662	-1.124	-0.626	-0.729	-1.012	-1.175	-1.389	-1.531	-0.273	-0.786	-0.866	-0.585	-0.311	-0.515	-0.093	-0.259	-0.406	-0.172	-0.142	-0.610	-0.119	0.241	-0.427	-0.721	-0.397	-0.375	-0.477	-0.037	-0.424	0.252	-0.268	-0.436	-0.427	0.074	0.324	0.728	0.928	0.877	-0.197	-0.163	-0.193	-0.695	-0.302	0.865	2.900
315.0	46.90	74.06	134.2	83.29	54.41	55.23	55.77	107.9	161.8	206.3	285.9	360.6	459.1	657.1	314.0	89.64	185.4	592.8	 1415	 4875	 2515	154.4	1.391	0.589	0.121	-1.182	-0.249	-1.122	-1.268	-0.621	-0.187	-1.030	-1.600	-1.144	-0.654	-0.527	-1.401	-0.519	-1.463	-0.976	-0.427	-0.828	-0.521	-0.776	-0.167	-0.673	-0.581	-0.186	-0.196	-0.502	-0.071	-0.567	-0.560	0.176	-0.531	-0.498	0.098	-0.618	0.148	0.213	-0.050	-0.012	0.050	0.000	-0.001	-0.248	0.200	0.352	0.545	1.162	1.454	0.497	-0.320	-0.794	-0.933	-0.458	-0.426
320.0	91.77	243.7	385.7	217.5	120.3	110.3	128.5	178.4	239.0	284.0	382.8	434.0	435.4	553.7	603.5	212.4	107.9	177.8	358.6	 2010	 5674	 2014	72.36	1.405	-0.254	-0.979	-0.398	-0.738	-1.872	-0.455	-0.209	-0.366	-1.157	-1.665	-0.709	-0.581	-0.978	0.024	-1.612	-0.656	-0.720	-0.732	-0.445	-1.023	-0.766	-0.356	-0.310	0.180	0.279	0.008	0.079	-0.109	-0.545	-0.005	0.270	-0.189	-0.124	-0.265	-0.217	0.399	0.480	0.094	-0.002	0.194	0.266	0.438	0.077	0.506	0.318	0.790	0.841	1.748	0.642	0.366	-0.559	-0.429	-0.145
325.0	162.5	434.2	695.1	507.0	233.6	232.4	257.2	285.4	362.4	428.8	502.4	542.9	499.1	493.9	642.1	469.8	163.2	115.6	136.9	517.1	 2912	 5866	 1420	23.23	1.816	0.143	-1.022	-0.786	-1.222	-0.164	-1.593	-0.935	-0.815	-0.551	-0.963	-0.776	-1.319	0.083	-0.763	-0.869	-0.253	-1.054	-0.309	-1.115	-0.549	0.048	-0.020	0.976	1.583	0.692	0.083	0.106	-0.078	0.469	0.697	-0.415	0.040	0.376	0.808	0.886	0.945	0.323	0.759	0.814	0.590	1.077	0.463	0.915	0.287	0.171	0.363	1.280	1.339	0.435	0.032	-0.242	-0.493
330.0	216.3	551.2	961.5	794.2	530.3	557.9	544.9	539.0	563.3	593.0	605.4	604.9	572.4	492.8	476.9	543.6	389.2	158.8	108.6	176.1	739.7	 2806	 4373	 2077	102.7	1.908	-0.392	0.180	0.765	-0.266	-1.199	-0.707	-0.987	-0.227	-0.561	-0.820	-0.775	-0.446	-0.517	-0.561	-0.759	-1.039	-0.318	-0.893	-0.244	0.209	0.718	1.496	1.585	1.300	0.751	0.780	0.677	0.691	0.701	1.150	1.397	1.222	0.740	1.518	1.463	1.263	0.694	1.252	0.707	0.656	0.620	0.734	0.609	0.993	0.573	0.640	0.842	0.635	0.890	0.913	0.631
335.0	291.2	744.3	 1297	 1155	941.6	 1001	 1005	938.5	847.5	852.0	767.7	684.5	654.8	547.9	434.2	391.6	494.9	378.4	154.3	127.4	231.8	679.3	 1484	 4707	 1994	134.5	0.690	0.734	-0.620	0.890	-0.598	-0.179	-0.271	-0.589	-1.144	-0.340	0.068	-0.703	-0.184	-0.473	-0.883	-1.136	0.287	-0.488	-0.197	0.567	0.788	2.062	1.932	1.658	1.632	1.844	1.992	1.775	2.194	1.875	2.956	2.363	2.061	1.885	1.245	1.553	1.614	1.151	1.095	0.945	0.769	1.450	0.642	1.819	0.275	0.803	0.825	0.541	0.434	0.935	1.916
340.0	410.4	949.4	 1650	 1484	 1329	 1348	 1377	 1294	 1149	 1054	868.8	723.7	676.4	588.2	456.7	361.4	367.9	505.1	278.3	131.3	132.1	211.6	374.0	 2054	 5124	 1652	72.03	1.429	0.503	0.118	-0.578	-0.498	-0.162	0.057	-1.712	-0.488	-0.654	-0.450	-0.663	-0.327	-0.767	-0.835	-0.235	-0.094	-0.077	0.864	1.764	2.301	2.977	2.270	1.731	2.761	2.712	2.779	2.685	3.297	4.094	3.646	3.292	3.024	2.133	2.046	2.333	1.216	0.814	1.098	0.924	1.167	1.610	1.001	0.474	0.089	0.366	0.801	0.270	0.219	0.750
345.0	425.7	893.1	 1621	 1725	 1606	 1684	 1680	 1535	 1348	 1186	901.5	724.0	631.4	551.7	454.5	340.8	297.6	407.9	433.1	181.0	115.1	114.8	130.0	514.5	 2771	 4993	 1251	25.12	1.682	0.820	-0.724	-1.288	-0.683	-1.022	-1.414	-0.686	-0.377	-0.120	-0.462	-0.253	-0.677	-0.490	-0.464	-0.202	-0.042	0.999	1.595	2.924	2.667	2.716	2.258	3.673	3.990	4.186	4.636	4.784	4.741	4.658	4.285	2.988	2.504	2.365	2.580	2.095	1.379	1.231	0.498	1.080	1.272	0.482	0.678	0.605	-0.015	0.526	-0.043	0.296	-0.171
350.0	450.7	882.8	 1568	 1870	 1909	 2074	 2067	 1858	 1560	 1283	943.5	679.7	588.1	506.8	425.7	339.3	276.2	285.9	382.2	345.7	166.1	103.3	87.01	154.9	686.6	 2440	 3951	 1908	96.66	2.778	0.409	0.543	-0.862	-1.429	-0.868	-0.525	-0.126	-0.780	0.250	-0.385	-0.796	-0.512	-0.246	0.064	0.479	0.928	1.394	2.716	2.495	3.237	3.007	3.716	4.867	5.048	5.354	5.778	5.534	5.301	4.633	3.577	3.255	3.030	3.046	2.211	1.163	1.103	1.024	0.790	0.557	0.800	0.347	0.783	-0.042	0.398	-0.300	0.008	-0.257
355.0	439.0	925.2	 1600	 1915	 2109	 2355	 2331	 2120	 1692	 1407	965.6	653.5	524.7	482.0	391.2	327.3	271.4	256.7	267.2	340.3	316.1	141.4	88.50	85.78	189.8	569.0	 1393	 4266	 1744	128.8	1.935	0.670	0.737	-0.310	-0.161	-0.585	-0.157	-0.103	-0.347	0.024	-0.610	-0.531	-0.531	0.576	0.535	1.127	1.277	3.575	3.677	3.142	3.219	4.926	4.872	6.057	6.205	7.249	6.154	6.163	5.423	4.049	3.932	3.665	3.061	2.205	1.329	1.024	1.246	0.860	0.694	0.134	0.976	0.653	0.205	0.325	0.232	0.333	-0.570
360.0	436.9	947.7	 1443	 1991	 2223	 2430	 2420	 2225	 1747	 1406	946.5	616.5	486.0	438.7	384.8	305.1	275.4	248.6	235.7	259.0	355.9	239.5	105.1	79.90	84.95	155.1	338.1	 1904	 4664	 1528	74.10	2.526	-0.632	0.182	0.000	-0.008	-0.567	-0.299	-0.173	-0.177	-0.390	-0.193	-0.447	0.464	-0.028	0.834	1.426	2.661	2.971	2.953	4.192	4.384	5.658	7.188	6.788	7.474	6.753	6.170	5.170	4.554	4.004	3.398	1.827	1.733	0.902	1.318	0.578	0.751	0.618	0.467	0.753	0.297	0.373	0.308	1.274	-0.415	-0.756
365.0	447.7	906.1	 1393	 1948	 2253	 2500	 2429	 2210	 1779	 1393	936.7	568.5	445.5	393.9	356.2	293.9	273.4	252.0	228.8	214.5	276.3	320.2	161.3	92.64	71.86	73.14	103.5	475.5	 2521	 4893	 1208	31.45	1.294	0.588	-0.383	-0.518	-0.806	-0.852	0.076	-0.094	-0.893	-0.854	0.203	-0.612	0.197	0.456	1.282	1.458	2.548	2.336	3.755	3.877	5.173	6.443	6.471	7.193	6.568	5.311	4.896	4.489	4.202	3.659	2.620	1.795	0.623	0.432	0.558	0.291	0.426	0.676	-0.031	0.075	-0.087	0.300	0.136	-0.536	-0.375
370.0	381.1	767.3	 1332	 1818	 2174	 2497	 2417	 2094	 1705	 1361	876.3	513.5	408.9	364.0	324.3	284.5	264.0	243.3	234.3	206.6	207.6	262.5	272.7	156.2	88.83	66.67	63.93	135.0	624.9	 2388	 4054	 2302	80.49	2.398	1.547	0.291	0.004	-0.410	-0.235	-0.146	-0.900	-0.241	0.536	-0.258	0.406	0.501	1.055	1.389	2.371	2.517	3.508	4.331	4.364	6.069	5.625	6.324	6.198	5.453	5.043	4.062	3.830	3.102	2.660	1.847	0.760	0.691	0.310	0.548	0.138	0.527	0.488	0.510	0.129	-0.014	0.330	-0.084	-0.125
375.0	289.6	672.4	 1180	 1685	 2041	 2254	 2228	 1932	 1573	 1238	805.0	454.8	385.4	346.0	295.9	271.0	254.7	248.9	237.3	219.1	194.9	194.2	247.6	269.6	137.7	81.92	71.99	74.33	170.5	556.6	 1438	 5277	 1469	103.3	2.054	1.220	-0.102	-0.026	-0.145	-0.023	-0.496	-0.113	-0.073	0.174	0.205	0.321	0.741	1.567	2.484	2.025	3.228	4.349	5.114	6.902	4.731	6.221	5.674	5.250	4.998	3.967	3.127	2.480	1.422	1.757	0.637	0.754	0.284	0.598	0.103	0.515	0.241	0.007	0.398	-0.234	0.276	0.107	0.500
380.0	291.4	578.6	 1086	 1546	 1816	 1986	 2032	 1813	 1429	 1161	756.8	423.8	354.1	301.9	286.5	255.6	251.6	249.1	239.8	222.2	201.0	191.2	200.5	281.4	224.0	107.5	82.79	70.14	79.41	155.9	351.7	 2375	 4470	 1272	56.18	1.646	0.022	-0.252	-0.415	-0.211	-0.444	-0.211	-0.466	-0.217	0.858	0.620	0.804	1.207	2.079	1.949	3.518	3.537	4.377	5.325	4.866	5.272	5.440	5.238	4.740	3.708	3.850	2.258	1.984	1.317	1.131	0.818	0.431	0.333	-0.024	-0.142	0.069	-0.373	0.916	0.072	0.321	0.804	-0.153
385.0	262.6	498.8	906.1	 1354	 1688	 1868	 1856	 1635	 1342	 1058	691.5	403.9	335.3	271.3	267.2	231.5	244.7	248.4	240.1	226.5	206.0	191.2	180.8	226.9	283.0	171.3	99.84	78.80	68.62	75.60	110.7	590.5	 2511	 4428	918.9	14.37	1.230	0.822	0.319	0.419	-0.676	-0.266	-0.310	-0.606	-0.393	-0.015	1.073	1.418	1.654	2.122	2.875	3.770	3.887	4.653	4.501	4.529	4.938	5.608	3.653	3.424	2.761	1.902	1.880	1.309	0.911	0.584	0.333	0.451	-0.341	0.324	0.275	-0.040	0.221	0.346	-0.162	0.417	-0.057
