Sample:	'1
File name:	银河泊车设备公司原水4-（64倍）.FD3
Run date:	'11:06:46, 04/03/2025
Operator:	Administrator
Comment:	'

Instrument
Model:	F-2700 FL Spectrophotometer
Serial number:	23B8-004
ROM Version:	4J14000 07

Instrument parameters
Measurement type:	3-D scan
Data mode:	Fluorescence
EX  Start WL:	220.0 nm
EX  End WL:	600.0 nm
EX Sampling interval:	5.0 nm
EM  Start WL:	230.0 nm
EM  End WL:	650.0 nm
EM Sampling interval:	5.0 nm
Scan speed:	12000 nm/min
EX Slit:	5.0 nm
EM Slit:	5.0 nm
PMT Voltage:	700 V
Response:	Auto 
Corrected spectra:	Off
Contour interval:	50.000

Peak integration
Integration method:	Rectangular
Sensitivity:	1
Threshold:	1.000

Peaks
No.	ApexEX/EM(nm)	Height(Data)
1	225.0/420.0	66.68
2	225.0/490.0	182.9
3	230.0/505.0	164.6
4	235.0/255.0	395.4
5	235.0/515.0	140.7
6	240.0/265.0	459.4
7	240.0/525.0	139.1
8	245.0/270.0	450.1
9	245.0/540.0	120.4
10	250.0/465.0	28.94
11	250.0/550.0	122.5
12	265.0/585.0	545.8
13	270.0/300.0	7016
14	270.0/590.0	532.5
15	300.0/335.0	321.8
16	305.0/345.0	272.5
17	310.0/350.0	208.2
18	315.0/355.0	194.7
19	320.0/360.0	177.1
20	330.0/375.0	125.8
21	335.0/380.0	139.7
22	340.0/385.0	112.7
23	350.0/400.0	98.10
24	355.0/405.0	91.09
25	360.0/410.0	66.71
26	365.0/420.0	71.53
27	370.0/425.0	66.97
28	375.0/430.0	50.80
29	380.0/440.0	48.10
30	385.0/445.0	45.38
31	390.0/300.0	27.08
32	390.0/450.0	35.34
33	390.0/585.0	2.789
34	395.0/455.0	32.04
35	400.0/465.0	29.64
36	405.0/470.0	22.24
37	410.0/480.0	19.72
38	415.0/485.0	18.36
39	420.0/490.0	15.03
40	425.0/500.0	14.06
41	430.0/505.0	12.59
42	435.0/510.0	9.809
43	440.0/520.0	9.231
44	445.0/300.0	25.73
45	445.0/525.0	8.158
46	455.0/540.0	5.876
47	465.0/555.0	3.301
48	470.0/560.0	2.830
49	475.0/260.0	2.063
50	485.0/265.0	2.329
51	535.0/590.0	2.761
52	540.0/295.0	31.40
53	550.0/305.0	28.13

Data points
	220.0	225.0	230.0	235.0	240.0	245.0	250.0	255.0	260.0	265.0	270.0	275.0	280.0	285.0	290.0	295.0	300.0	305.0	310.0	315.0	320.0	325.0	330.0	335.0	340.0	345.0	350.0	355.0	360.0	365.0	370.0	375.0	380.0	385.0	390.0	395.0	400.0	405.0	410.0	415.0	420.0	425.0	430.0	435.0	440.0	445.0	450.0	455.0	460.0	465.0	470.0	475.0	480.0	485.0	490.0	495.0	500.0	505.0	510.0	515.0	520.0	525.0	530.0	535.0	540.0	545.0	550.0	555.0	560.0	565.0	570.0	575.0	580.0	585.0	590.0	595.0	600.0
230.0	81.17	987.3	2478	740.0	25.44	4.586	3.761	3.521	3.106	3.160	3.049	2.795	1.956	1.313	0.913	0.748	0.760	0.613	0.592	0.513	0.464	0.453	0.412	0.416	0.384	0.303	0.315	0.331	0.257	0.306	0.253	0.260	0.307	0.245	0.219	0.280	0.230	0.208	0.210	0.264	0.412	0.722	0.775	0.430	0.259	0.222	1.091	4.613	7.209	4.496	1.557	0.332	0.159	0.162	0.144	0.155	0.155	0.155	0.157	0.147	0.169	0.146	0.160	0.154	0.145	0.130	0.176	0.170	0.169	0.183	0.137	0.137	0.161	0.138	0.145	0.153	0.146
235.0	237.7	285.5	1355	2169	520.2	35.50	4.126	4.047	3.933	3.275	3.775	3.271	1.954	1.611	0.709	0.758	0.728	0.506	0.513	0.441	0.466	0.429	0.399	0.398	0.314	0.239	0.369	0.319	0.328	0.306	0.256	0.253	0.261	0.243	0.257	0.272	0.247	0.230	0.286	0.212	0.239	0.450	0.622	0.883	0.729	0.398	0.446	1.286	2.926	4.851	6.392	5.999	2.309	0.469	0.178	0.142	0.184	0.152	0.154	0.155	0.167	0.217	0.177	0.170	0.163	0.118	0.179	0.160	0.124	0.180	0.135	0.131	0.161	0.144	0.157	0.143	0.150
240.0	305.5	226.6	397.0	1769	2115	370.1	13.90	4.927	4.202	4.011	3.263	2.995	2.036	1.385	0.824	0.880	0.737	0.588	0.557	0.478	0.485	0.506	0.459	0.387	0.290	0.264	0.327	0.260	0.312	0.247	0.252	0.272	0.256	0.261	0.244	0.248	0.205	0.270	0.301	0.249	0.290	0.282	0.347	0.588	0.844	1.085	0.507	0.501	0.802	1.596	3.838	8.653	8.945	5.508	1.620	0.271	0.160	0.152	0.156	0.163	0.211	0.164	0.154	0.172	0.151	0.153	0.188	0.138	0.151	0.145	0.134	0.173	0.125	0.173	0.182	0.136	0.157
245.0	216.3	329.8	176.6	599.4	2262	1963	243.3	7.739	5.267	4.550	3.448	3.541	2.620	1.944	1.033	0.927	0.765	0.611	0.623	0.492	0.597	0.520	0.427	0.414	0.419	0.320	0.370	0.288	0.312	0.291	0.364	0.307	0.224	0.269	0.229	0.263	0.219	0.269	0.231	0.249	0.218	0.265	0.282	0.310	0.514	1.010	1.112	0.748	0.447	0.494	1.049	3.209	7.110	11.37	10.04	4.793	0.977	0.184	0.169	0.190	0.194	0.175	0.178	0.166	0.135	0.180	0.171	0.131	0.165	0.155	0.127	0.163	0.175	0.152	0.198	0.142	0.158
250.0	82.83	226.5	327.6	251.7	742.0	2032	2324	774.9	33.94	5.521	5.032	4.258	2.637	1.835	1.378	1.033	0.726	0.804	0.697	0.649	0.614	0.509	0.456	0.450	0.491	0.307	0.329	0.302	0.305	0.317	0.335	0.311	0.301	0.269	0.318	0.238	0.249	0.255	0.239	0.240	0.187	0.252	0.219	0.241	0.301	0.401	0.591	0.983	1.112	0.790	0.670	0.930	1.846	3.987	7.327	10.30	11.87	9.479	5.504	1.069	0.249	0.205	0.187	0.166	0.167	0.157	0.174	0.141	0.172	0.157	0.131	0.157	0.138	0.145	0.200	0.169	0.154
255.0	37.63	71.54	228.0	395.4	271.3	531.9	1989	2918	294.6	27.22	7.021	5.287	3.302	2.035	1.347	1.375	0.809	0.880	0.759	0.709	0.578	0.573	0.481	0.433	0.470	0.339	0.378	0.329	0.326	0.298	0.393	0.298	0.286	0.300	0.332	0.213	0.230	0.242	0.212	0.280	0.253	0.218	0.213	0.240	0.221	0.232	0.298	0.394	0.617	1.042	1.493	1.357	0.833	1.115	1.854	2.721	5.197	11.54	21.66	15.36	7.372	1.158	0.179	0.139	0.179	0.170	0.162	0.185	0.145	0.184	0.137	0.182	0.166	0.126	0.180	0.196	0.179
260.0	34.64	32.47	89.53	353.5	359.1	174.4	629.3	3040	2356	235.3	14.93	6.515	4.009	2.143	1.691	1.225	0.896	0.837	0.887	0.864	0.667	0.568	0.452	0.406	0.479	0.332	0.396	0.345	0.404	0.337	0.365	0.312	0.320	0.261	0.322	0.258	0.222	0.256	0.211	0.289	0.257	0.206	0.255	0.218	0.267	0.226	0.235	0.249	0.341	0.431	0.970	2.063	1.701	0.957	0.670	0.831	1.420	3.401	10.67	18.16	25.97	14.59	4.184	0.474	0.252	0.190	0.198	0.180	0.159	0.156	0.186	0.148	0.173	0.124	0.179	0.184	0.233
265.0	32.46	24.37	38.32	165.9	459.4	255.6	172.8	1106	3778	2009	168.0	9.871	4.624	2.407	1.838	1.391	1.020	1.075	0.802	0.758	0.694	0.589	0.569	0.512	0.423	0.523	0.390	0.402	0.404	0.402	0.403	0.360	0.430	0.319	0.383	0.320	0.267	0.212	0.291	0.262	0.287	0.236	0.256	0.221	0.237	0.293	0.215	0.230	0.220	0.214	0.418	1.102	1.889	2.329	1.339	0.554	0.498	1.010	2.698	5.994	16.86	24.22	21.88	11.06	2.082	0.329	0.299	0.168	0.212	0.224	0.177	0.145	0.171	0.171	0.155	0.200	0.199
270.0	135.0	75.84	37.17	54.05	225.6	450.1	279.8	322.6	1363	3354	3353	654.1	28.14	4.980	2.524	1.823	1.377	1.175	0.911	0.767	0.913	0.601	0.655	0.519	0.569	0.486	0.406	0.404	0.390	0.367	0.450	0.543	0.692	0.678	0.795	0.562	0.605	0.502	0.464	0.534	0.536	0.475	0.497	0.450	0.415	0.469	0.335	0.241	0.253	0.218	0.213	0.417	0.749	1.411	2.019	2.171	1.767	0.978	0.991	1.690	4.326	7.901	13.32	19.02	21.64	18.01	8.800	1.993	0.375	0.249	0.175	0.161	0.183	0.197	0.182	0.177	0.208
275.0	1005	582.3	191.5	71.90	103.6	266.9	677.6	400.3	578.1	1398	3739	6135	805.0	24.39	4.401	2.938	2.177	1.617	1.125	1.128	1.011	0.684	0.799	0.666	0.659	0.544	0.418	0.425	0.415	0.465	0.580	0.937	2.099	3.065	2.794	2.186	1.516	1.387	1.429	1.542	1.750	1.814	2.021	1.867	2.176	1.837	1.519	0.932	0.634	0.427	0.307	0.333	0.389	0.665	0.912	1.620	3.169	3.951	2.739	1.688	2.605	3.508	5.057	6.715	9.771	19.06	30.59	27.14	13.44	2.360	0.521	0.300	0.299	0.328	0.233	0.292	0.236
280.0	2519	1683	665.6	233.7	165.1	271.1	744.5	1283	1300	1790	2608	6549	4576	135.5	11.27	4.303	2.889	2.128	1.685	1.319	1.191	0.798	0.669	0.865	0.645	0.593	0.506	0.478	0.512	0.556	0.783	2.397	5.019	7.779	7.047	5.232	3.515	3.391	3.532	3.943	4.487	4.678	5.577	5.853	6.028	5.805	4.365	3.028	1.978	0.936	0.665	0.724	0.627	0.800	0.902	1.405	2.393	4.108	6.321	5.564	5.284	5.778	6.748	8.058	9.432	11.14	17.23	28.48	35.09	24.53	8.394	1.224	0.501	0.493	0.431	0.461	0.372
285.0	5517	3923	1286	704.9	384.4	420.7	839.7	1828	2424	2971	3278	4115	6041	3100	89.80	6.555	3.807	2.944	2.154	1.801	1.298	0.954	0.995	0.903	0.701	0.771	0.616	0.565	0.621	0.605	1.008	3.569	8.492	13.60	12.84	9.469	7.211	6.694	6.627	6.701	8.078	8.498	9.772	10.83	11.63	11.25	8.505	6.774	4.727	3.121	2.084	1.770	1.425	1.425	1.608	1.915	2.731	4.004	6.006	9.371	10.89	10.96	11.36	13.35	14.75	13.36	14.49	16.66	22.18	32.78	31.78	17.77	4.372	0.966	0.638	0.576	0.495
290.0	9355	7158	3822	1935	873.3	705.8	1158	2168	3786	4994	5020	4309	3271	4094	2652	349.5	13.50	4.081	2.847	2.152	1.860	1.322	1.149	1.089	0.949	0.876	0.858	0.729	0.787	0.757	1.563	4.951	13.05	20.48	21.02	15.74	12.91	11.33	10.81	11.07	12.33	13.99	15.36	17.83	18.83	18.54	15.57	13.32	10.30	7.482	5.533	4.718	3.336	2.668	2.645	3.108	4.009	5.369	7.380	10.16	13.99	17.79	20.28	21.88	23.06	20.74	20.42	19.00	14.93	14.88	17.42	21.84	24.31	21.35	12.74	4.498	1.111
295.0	9999.9	9586	5865	3077	1403	984.0	1378	2440	4132	6088	6514	5051	2614	1580	2775	3912	94.66	9.320	3.705	2.897	2.482	1.561	1.554	1.347	1.184	0.934	0.954	0.886	0.904	0.799	1.831	6.282	15.36	25.48	25.90	20.47	17.08	14.80	13.87	14.12	14.97	17.12	19.03	21.77	23.04	24.04	20.84	19.32	15.33	11.47	8.451	7.226	4.974	3.827	3.526	3.736	5.239	6.619	8.771	11.00	14.95	19.07	22.67	28.62	31.40	27.11	24.92	22.36	15.95	11.62	9.511	8.162	8.508	14.39	26.31	31.28	17.12
300.0	9999.9	9999.9	6800	3659	1669	1091	1446	2453	4064	5903	7016	5438	2592	1007	929.7	3690	3402	73.80	5.664	3.429	2.897	1.878	1.705	1.371	1.343	1.041	0.981	0.998	0.868	0.893	1.782	6.706	16.03	25.54	27.08	21.49	18.61	16.84	14.99	14.94	15.48	17.70	19.93	22.15	25.01	25.73	23.10	20.85	17.36	13.58	10.24	8.660	5.916	4.359	4.117	4.389	5.444	6.820	9.020	11.65	15.32	18.66	22.14	26.88	30.48	29.72	27.74	23.67	16.70	11.34	8.406	5.250	3.989	4.912	9.313	20.01	31.24
305.0	9999.9	9961	6939	3880	1766	1119	1393	2294	3752	5349	6415	5592	2595	883.5	335.4	1265	4424	2418	51.72	4.330	3.219	2.265	1.847	1.403	1.246	1.230	1.103	0.990	0.930	0.897	1.837	6.406	14.58	24.33	25.93	21.34	18.83	16.55	14.80	14.28	14.88	17.35	18.59	21.61	23.09	24.54	22.25	21.27	18.54	14.01	10.96	8.861	6.178	4.906	4.281	4.395	5.113	6.177	8.217	10.98	14.19	17.46	20.72	24.46	26.92	27.99	28.13	25.00	17.37	11.37	8.007	4.899	2.808	2.484	3.331	6.068	12.75
310.0	9449	8718	6273	3573	1652	1015	1169	1892	3065	4347	5060	4639	2690	891.0	204.3	328.9	1408	3098	2290	254.9	8.948	2.992	2.010	1.573	1.408	1.148	1.039	0.987	1.003	0.856	1.632	5.147	12.45	20.36	22.20	18.71	16.48	14.64	13.23	12.48	12.94	14.44	15.87	18.37	19.98	20.87	19.30	18.87	16.98	13.17	10.19	8.121	5.829	4.665	3.898	3.679	4.390	5.181	6.805	8.824	11.62	14.47	17.11	20.06	21.95	21.97	21.62	20.80	16.34	12.54	8.568	4.702	2.575	1.835	1.734	2.216	3.694
315.0	7339	6994	5144	2979	1385	851.5	924.2	1422	2277	3225	3732	3341	2187	1122	217.7	115.5	336.8	775.0	2331	3387	68.47	6.260	2.622	1.779	1.517	1.285	1.012	0.979	0.799	0.911	1.288	4.268	9.594	15.52	17.34	15.37	13.19	11.86	10.56	10.06	10.11	11.10	12.45	13.87	15.16	16.02	15.29	15.19	13.68	10.68	8.368	7.195	5.327	3.728	3.176	2.878	3.364	4.036	5.415	6.799	8.374	10.98	12.35	15.02	16.88	15.50	16.33	15.20	11.33	9.634	8.565	6.254	3.223	1.652	1.383	1.300	1.600
320.0	6007	5561	4186	2491	1188	699.6	731.2	1111	1753	2488	2873	2550	1592	1035	405.0	80.82	98.04	190.9	664.8	3084	2556	57.59	3.931	2.101	1.723	1.073	1.128	0.988	0.788	0.805	1.070	3.175	7.726	11.95	13.69	12.05	10.70	10.02	8.306	7.691	7.933	9.151	9.622	10.81	12.23	12.91	12.51	12.63	10.77	9.137	6.964	6.006	4.302	3.423	2.784	2.455	2.915	3.266	4.055	5.401	6.540	8.466	9.496	11.65	12.35	12.06	12.47	11.46	8.959	7.010	6.168	5.586	4.612	2.925	1.564	0.967	1.096
325.0	4743	4385	3400	2021	957.9	570.6	575.0	845.7	1355	1902	2207	1962	1201	679.2	557.7	118.7	45.95	56.82	163.6	979.1	3016	1795	43.20	2.960	2.001	1.390	1.130	1.015	0.935	0.759	1.076	2.676	5.914	9.769	10.78	9.490	8.495	7.938	6.639	6.109	6.131	6.982	7.596	8.606	9.541	10.35	9.643	10.01	8.950	7.305	5.891	4.939	3.582	2.803	2.266	2.021	2.229	2.597	3.187	3.988	5.100	6.393	7.638	9.039	9.674	9.315	9.424	8.519	7.075	5.292	4.322	3.647	3.382	3.887	2.917	1.559	0.992
330.0	3373	3167	2480	1497	706.6	426.8	416.5	594.8	939.8	1327	1554	1391	861.3	417.2	324.0	340.7	134.5	30.76	48.57	233.9	923.8	2050	1485	207.2	7.994	1.972	1.327	1.112	0.948	0.863	1.023	2.040	4.355	7.026	7.729	7.064	6.173	5.873	4.879	4.576	4.681	4.924	5.502	6.182	6.744	7.549	7.091	7.356	6.593	5.292	4.298	3.654	2.793	2.144	1.654	1.592	1.669	1.856	2.329	2.871	3.647	4.442	5.476	6.488	6.926	6.696	6.840	6.151	5.132	4.048	3.134	2.173	1.701	1.957	2.454	2.665	2.252
335.0	2275	2180	1718	1053	504.3	307.9	282.4	395.8	626.8	874.0	1043	942.2	594.2	278.2	140.8	200.4	321.8	78.06	23.14	63.71	216.4	501.0	1431	2247	290.7	5.879	1.658	1.306	1.228	0.868	0.887	1.627	3.133	4.879	5.300	5.072	4.609	4.283	3.553	3.334	3.337	3.516	4.167	4.302	4.657	5.088	5.011	5.136	4.537	3.708	3.134	2.564	2.082	1.566	1.323	1.157	1.300	1.401	1.520	2.097	2.291	3.066	3.473	4.365	4.583	4.529	4.795	4.226	3.629	2.904	2.152	1.520	1.085	0.905	1.114	1.220	1.985
340.0	1683	1645	1293	799.9	382.9	226.4	212.3	294.5	449.3	631.9	742.0	678.1	441.5	210.3	86.51	87.48	253.3	242.0	42.27	25.34	59.64	122.1	403.6	1895	1864	51.65	2.911	1.539	1.438	1.009	0.970	1.528	2.464	3.726	4.095	3.723	3.427	3.302	2.683	2.807	2.597	2.580	2.885	3.270	3.440	3.852	3.428	3.938	3.457	2.816	2.416	2.129	1.656	1.187	1.081	0.847	1.022	1.169	1.199	1.641	1.713	2.340	2.699	3.043	3.242	3.300	3.485	3.228	2.708	2.122	1.621	1.194	0.842	0.762	0.749	0.697	0.833
345.0	1257	1232	983.8	599.4	296.4	182.7	165.1	222.3	332.4	453.7	545.0	497.2	337.6	165.9	66.45	45.82	109.5	272.5	144.2	22.30	22.85	36.70	99.42	586.0	2031	1464	39.98	2.447	1.605	1.151	1.181	1.308	2.157	2.919	3.160	2.985	2.633	2.349	1.962	1.968	2.125	2.126	2.394	2.355	2.614	2.832	2.842	2.899	2.585	2.167	1.895	1.695	1.144	0.968	0.849	0.680	0.794	0.892	0.981	1.205	1.291	1.688	2.076	2.242	2.579	2.462	2.722	2.387	1.964	1.599	1.278	0.994	0.783	0.579	0.545	0.457	0.506
350.0	888.4	854.1	666.8	430.0	215.9	135.0	118.0	148.8	225.8	312.5	367.9	342.8	236.8	120.5	52.03	32.70	41.70	117.7	208.2	112.3	23.01	16.69	29.91	138.6	608.3	1434	1040	194.8	11.03	1.453	1.299	1.153	1.709	2.214	2.456	2.237	1.999	1.869	1.553	1.365	1.498	1.534	1.646	1.699	1.867	2.104	1.974	2.125	1.850	1.493	1.307	1.180	0.825	0.798	0.604	0.577	0.632	0.641	0.674	0.885	1.028	1.180	1.413	1.618	1.715	1.829	1.873	1.683	1.518	1.228	0.995	0.710	0.626	0.506	0.434	0.408	0.409
355.0	625.2	573.1	458.3	296.4	159.7	100.5	82.28	103.4	147.4	203.9	242.4	224.5	162.4	87.18	42.04	25.27	22.53	37.54	88.97	194.7	70.19	15.53	12.80	37.17	141.2	341.1	854.3	1704	327.4	8.500	1.861	1.268	1.644	1.666	2.011	1.631	1.497	1.367	1.257	1.078	1.072	1.210	1.177	1.280	1.350	1.481	1.356	1.460	1.305	1.054	0.907	0.873	0.631	0.547	0.456	0.486	0.549	0.487	0.608	0.652	0.746	0.828	1.023	1.100	1.170	1.308	1.322	1.138	0.967	0.898	0.740	0.523	0.444	0.449	0.335	0.323	0.388
360.0	473.4	436.4	345.4	228.3	125.2	80.75	64.25	81.33	110.0	147.5	175.3	163.5	122.1	68.62	36.22	22.22	17.05	18.94	33.78	121.0	177.1	48.83	9.782	14.27	37.35	82.12	230.7	1243	2080	51.98	4.089	1.446	1.771	1.569	1.782	1.326	1.247	1.234	0.970	0.918	0.922	0.855	0.996	1.010	1.105	0.993	1.054	1.058	1.006	0.816	0.711	0.751	0.522	0.402	0.392	0.431	0.396	0.429	0.479	0.442	0.618	0.719	0.711	0.946	0.972	0.964	0.999	0.858	0.797	0.704	0.576	0.475	0.419	0.363	0.343	0.344	0.347
365.0	355.2	328.9	264.4	173.8	98.78	67.64	54.03	61.43	90.89	112.2	133.2	130.0	94.78	56.09	31.10	21.17	15.69	13.89	17.05	47.15	155.6	133.8	22.71	8.882	14.19	23.66	57.89	357.4	1925	1511	44.62	2.191	1.841	1.527	1.417	1.297	0.903	1.059	0.902	0.827	0.796	0.717	0.761	0.734	0.848	0.892	0.875	0.965	0.884	0.747	0.626	0.569	0.543	0.433	0.395	0.361	0.385	0.367	0.405	0.430	0.574	0.596	0.604	0.759	0.741	0.718	0.699	0.663	0.605	0.581	0.539	0.438	0.387	0.375	0.309	0.330	0.300
370.0	283.0	254.9	210.9	137.1	81.87	57.46	46.80	48.25	66.37	82.67	99.03	93.88	69.81	44.24	26.30	19.64	15.48	12.73	12.97	20.46	60.88	133.6	97.89	24.04	9.132	10.85	18.51	85.78	539.1	1260	1357	193.7	11.58	1.583	1.502	1.214	1.035	0.892	0.751	0.721	0.683	0.689	0.679	0.664	0.706	0.664	0.685	0.764	0.670	0.562	0.472	0.483	0.436	0.388	0.315	0.364	0.325	0.378	0.351	0.375	0.415	0.424	0.489	0.631	0.590	0.566	0.614	0.587	0.533	0.498	0.463	0.410	0.332	0.305	0.301	0.315	0.305
375.0	213.7	197.4	164.8	107.0	73.95	49.54	38.38	41.00	46.78	60.14	69.86	66.95	53.54	36.44	22.63	17.16	14.89	13.43	11.55	13.35	22.83	51.54	125.8	99.53	18.50	8.782	9.409	24.27	125.5	294.4	787.4	1430	303.4	11.89	1.879	1.106	0.981	0.912	0.703	0.594	0.595	0.589	0.618	0.700	0.576	0.577	0.655	0.601	0.531	0.436	0.533	0.396	0.380	0.350	0.306	0.264	0.322	0.321	0.315	0.306	0.382	0.316	0.360	0.466	0.489	0.485	0.539	0.418	0.429	0.349	0.380	0.304	0.231	0.260	0.262	0.284	0.259
380.0	174.8	163.2	135.7	89.72	61.56	44.81	34.04	33.10	39.95	47.32	56.27	52.91	43.75	29.81	20.84	15.60	14.93	13.24	11.40	11.93	14.20	21.98	69.28	139.7	51.90	10.33	8.032	10.79	33.12	70.66	201.7	921.7	1771	234.4	5.407	1.203	0.941	0.843	0.662	0.660	0.495	0.469	0.468	0.515	0.511	0.462	0.524	0.625	0.469	0.417	0.425	0.349	0.356	0.305	0.282	0.307	0.330	0.275	0.239	0.328	0.300	0.363	0.332	0.367	0.397	0.456	0.501	0.416	0.373	0.303	0.362	0.286	0.288	0.340	0.261	0.288	0.275
385.0	161.2	138.8	118.3	80.31	56.62	40.87	33.39	29.87	33.67	40.71	46.78	44.21	35.86	26.24	18.43	14.70	14.25	12.75	11.52	12.13	11.41	13.53	28.37	98.10	112.7	29.65	7.909	7.790	12.82	20.25	50.01	251.5	1403	1329	39.73	2.148	1.087	0.956	0.792	0.695	0.530	0.491	0.479	0.499	0.428	0.369	0.475	0.480	0.432	0.347	0.300	0.363	0.327	0.268	0.258	0.312	0.310	0.259	0.269	0.240	0.310	0.301	0.363	0.359	0.359	0.346	0.417	0.413	0.383	0.317	0.333	0.314	0.339	0.309	0.247	0.269	0.269
390.0	131.0	113.4	96.96	66.90	49.70	39.74	29.28	26.09	29.49	34.48	38.18	37.12	30.01	22.54	17.23	15.20	13.28	12.92	12.05	12.02	11.20	11.82	15.06	37.77	92.17	80.42	27.11	7.863	7.889	9.175	15.22	59.74	371.1	935.1	1379	158.0	10.15	1.040	0.785	0.643	0.505	0.525	0.443	0.489	0.422	0.396	0.404	0.447	0.373	0.277	0.297	0.313	0.308	0.320	0.273	0.287	0.311	0.268	0.305	0.275	0.300	0.285	0.303	0.318	0.318	0.354	0.346	0.289	0.394	0.322	0.310	0.314	0.294	0.276	0.307	0.272	0.285
395.0	99.99	92.49	76.66	58.38	47.21	38.92	29.18	22.74	25.32	29.49	30.86	31.59	25.95	20.85	16.46	13.93	12.67	12.67	12.65	12.68	11.73	11.58	12.01	17.28	35.09	81.05	84.36	20.80	7.082	6.537	7.596	16.82	85.97	216.1	742.9	1173	245.5	9.524	1.044	0.713	0.468	0.524	0.440	0.465	0.436	0.401	0.451	0.288	0.300	0.287	0.251	0.328	0.297	0.274	0.266	0.321	0.272	0.246	0.251	0.253	0.257	0.255	0.266	0.273	0.256	0.324	0.290	0.278	0.376	0.341	0.336	0.266	0.203	0.259	0.293	0.359	0.317
400.0	95.72	85.46	72.48	55.55	41.71	33.03	29.63	24.77	22.33	25.85	27.40	26.19	23.34	18.67	15.62	13.66	12.63	11.69	11.89	12.49	11.03	11.55	11.28	12.13	16.45	42.25	98.10	50.98	11.14	6.178	5.907	7.241	22.37	51.15	185.2	708.1	991.1	182.9	3.906	0.820	0.669	0.505	0.390	0.406	0.398	0.346	0.462	0.267	0.296	0.281	0.280	0.309	0.327	0.242	0.268	0.312	0.275	0.219	0.263	0.225	0.233	0.320	0.233	0.271	0.240	0.297	0.265	0.243	0.300	0.281	0.255	0.256	0.217	0.224	0.290	0.309	0.375
405.0	86.50	77.93	62.61	50.51	42.32	34.87	26.61	26.01	23.13	21.74	24.19	22.46	21.63	18.13	14.19	12.66	12.27	11.25	11.64	11.46	11.18	11.09	10.89	10.42	11.81	19.65	63.36	91.09	30.44	6.569	4.883	5.319	7.865	14.11	44.83	189.2	751.2	811.5	34.20	1.567	0.748	0.551	0.439	0.402	0.358	0.388	0.345	0.375	0.373	0.293	0.266	0.289	0.304	0.230	0.277	0.266	0.282	0.265	0.298	0.190	0.222	0.271	0.288	0.267	0.231	0.292	0.234	0.198	0.261	0.235	0.250	0.291	0.217	0.266	0.263	0.252	0.244
410.0	82.25	66.99	59.33	48.42	40.15	34.12	27.46	24.98	21.06	21.81	22.69	22.07	18.76	16.16	13.38	12.77	12.12	11.40	11.44	11.21	11.42	10.98	11.05	10.77	10.57	12.38	25.62	63.39	66.71	26.18	6.538	4.643	4.931	6.141	12.59	45.03	197.7	559.3	742.2	142.9	8.346	0.736	0.488	0.403	0.392	0.409	0.382	0.331	0.296	0.293	0.285	0.267	0.269	0.279	0.246	0.262	0.234	0.263	0.285	0.273	0.268	0.231	0.248	0.262	0.233	0.269	0.274	0.236	0.257	0.275	0.226	0.240	0.208	0.241	0.262	0.225	0.234
415.0	76.22	60.78	54.45	44.71	39.24	32.23	27.62	23.87	21.75	20.25	20.46	20.69	16.70	15.47	13.03	12.02	11.73	10.87	11.02	10.25	11.12	10.59	10.56	10.66	10.03	10.40	13.08	24.34	57.94	68.64	20.27	5.142	4.224	4.111	5.630	12.19	46.18	129.3	363.0	739.0	213.5	7.726	0.589	0.511	0.428	0.439	0.398	0.394	0.382	0.275	0.248	0.269	0.262	0.246	0.253	0.266	0.251	0.243	0.291	0.314	0.277	0.242	0.228	0.285	0.265	0.242	0.282	0.211	0.317	0.224	0.258	0.233	0.242	0.257	0.299	0.275	0.244
