Sample:	'1
File name:	T2025041704´óÖ£´åÎ÷ÇÅ.FD3
Run date:	'10:14:36, 04/21/2025
Operator:	Administrator
Comment:	'

Instrument
Model:	F-2700 FL Spectrophotometer
Serial number:	23B8-004
ROM Version:	4J14000 07

Instrument parameters
Measurement type:	3-D scan
Data mode:	Fluorescence
EX  Start WL:	220.0 nm
EX  End WL:	600.0 nm
EX Sampling interval:	5.0 nm
EM  Start WL:	230.0 nm
EM  End WL:	650.0 nm
EM Sampling interval:	5.0 nm
Scan speed:	12000 nm/min
EX Slit:	5.0 nm
EM Slit:	5.0 nm
PMT Voltage:	700 V
Response:	Auto 
Corrected spectra:	Off
Contour interval:	50.000

Peak integration
Integration method:	Rectangular
Sensitivity:	1
Threshold:	1.000

Peaks
No.	ApexEX/EM(nm)	Height(Data)
1	225.0/580.0	60.31
2	230.0/345.0	1211
3	230.0/500.0	304.2
4	230.0/565.0	64.58
5	230.0/585.0	62.71
6	235.0/510.0	267.4
7	240.0/265.0	360.1
8	240.0/525.0	244.9
9	245.0/270.0	357.5
10	245.0/535.0	196.1
11	250.0/275.0	452.9
12	250.0/550.0	153.9
13	255.0/280.0	575.1
14	255.0/560.0	137.5
15	260.0/285.0	586.4
16	260.0/575.0	111.3
17	265.0/400.0	664.6
18	265.0/585.0	106.1
19	270.0/300.0	969.1
20	270.0/405.0	663.6
21	270.0/595.0	93.75
22	275.0/305.0	1147
23	275.0/610.0	84.08
24	280.0/310.0	1030
25	280.0/340.0	899.4
26	280.0/625.0	71.53
27	285.0/315.0	958.9
28	285.0/635.0	54.70
29	290.0/325.0	895.7
30	305.0/345.0	578.1
31	315.0/355.0	458.3
32	320.0/365.0	431.8
33	335.0/380.0	387.6
34	430.0/505.0	31.29
35	445.0/525.0	18.78
36	460.0/345.0	3.361
37	475.0/355.0	3.250
38	505.0/275.0	3.021
39	515.0/280.0	3.105
40	520.0/285.0	3.630
41	530.0/290.0	3.656
42	540.0/295.0	4.797
43	545.0/300.0	5.439
44	555.0/305.0	5.702
45	560.0/310.0	5.158
46	570.0/315.0	5.352
47	580.0/320.0	5.331
48	585.0/325.0	5.435

Data points
	220.0	225.0	230.0	235.0	240.0	245.0	250.0	255.0	260.0	265.0	270.0	275.0	280.0	285.0	290.0	295.0	300.0	305.0	310.0	315.0	320.0	325.0	330.0	335.0	340.0	345.0	350.0	355.0	360.0	365.0	370.0	375.0	380.0	385.0	390.0	395.0	400.0	405.0	410.0	415.0	420.0	425.0	430.0	435.0	440.0	445.0	450.0	455.0	460.0	465.0	470.0	475.0	480.0	485.0	490.0	495.0	500.0	505.0	510.0	515.0	520.0	525.0	530.0	535.0	540.0	545.0	550.0	555.0	560.0	565.0	570.0	575.0	580.0	585.0	590.0	595.0	600.0
230.0	31.05	589.4	1957	752.2	43.76	4.505	3.349	3.014	2.290	2.393	2.499	2.018	1.895	1.711	1.439	1.325	1.001	0.896	0.921	0.861	0.765	0.618	0.617	0.592	0.514	0.545	0.445	0.390	0.432	0.374	0.346	0.358	0.366	0.283	0.282	0.280	0.279	0.270	0.266	0.240	0.264	0.291	0.345	0.278	0.212	0.231	0.580	2.954	6.522	5.544	2.383	0.521	0.165	0.150	0.157	0.140	0.168	0.129	0.146	0.151	0.146	0.104	0.146	0.127	0.130	0.140	0.110	0.128	0.123	0.110	0.109	0.107	0.123	0.098	0.104	0.126	0.099
235.0	91.27	177.2	1120	2461	594.4	75.17	4.820	3.665	2.485	2.964	2.418	2.227	1.931	2.057	1.740	1.295	1.149	1.000	0.972	0.870	0.752	0.623	0.759	0.605	0.508	0.540	0.429	0.437	0.423	0.333	0.410	0.408	0.319	0.264	0.273	0.258	0.291	0.249	0.311	0.240	0.218	0.299	0.289	0.458	0.398	0.336	0.325	0.872	2.303	4.349	7.408	9.434	4.646	1.119	0.201	0.144	0.139	0.115	0.178	0.163	0.150	0.131	0.122	0.107	0.151	0.128	0.129	0.117	0.133	0.108	0.150	0.109	0.175	0.144	0.179	0.100	0.132
240.0	132.2	127.2	322.3	1875	3232	476.5	37.23	5.033	3.458	3.221	2.956	2.562	2.229	2.028	1.812	1.323	1.105	1.074	0.957	0.999	0.846	0.659	0.644	0.601	0.554	0.598	0.386	0.443	0.478	0.389	0.412	0.387	0.347	0.259	0.282	0.241	0.276	0.283	0.257	0.242	0.260	0.304	0.322	0.313	0.418	0.487	0.513	0.429	0.676	1.298	3.470	9.954	13.74	10.59	4.294	0.674	0.180	0.115	0.181	0.148	0.164	0.132	0.197	0.123	0.121	0.134	0.137	0.131	0.112	0.093	0.121	0.122	0.119	0.120	0.214	0.101	0.160
245.0	89.71	187.3	146.1	600.1	3076	3017	363.0	17.24	4.655	3.438	4.247	3.071	2.367	2.354	2.047	1.630	1.264	1.081	0.899	1.050	0.883	0.719	0.665	0.587	0.646	0.680	0.443	0.464	0.539	0.366	0.414	0.300	0.359	0.281	0.284	0.226	0.286	0.300	0.292	0.302	0.338	0.256	0.246	0.273	0.373	0.511	0.623	0.480	0.430	0.461	0.969	2.973	8.258	14.59	17.55	10.10	3.184	0.382	0.181	0.154	0.157	0.126	0.199	0.184	0.119	0.140	0.142	0.168	0.149	0.135	0.159	0.086	0.086	0.114	0.148	0.136	0.134
250.0	35.37	125.3	232.9	235.6	927.1	2481	3414	1289	89.34	6.065	4.639	4.341	3.220	2.386	2.163	1.743	1.489	1.181	1.070	0.967	0.896	0.854	0.696	0.706	0.652	0.660	0.546	0.521	0.491	0.433	0.418	0.389	0.382	0.310	0.297	0.252	0.305	0.250	0.263	0.310	0.292	0.286	0.254	0.277	0.261	0.299	0.395	0.597	0.724	0.774	0.584	0.887	2.083	4.274	8.935	13.86	19.00	17.77	10.75	3.310	0.432	0.165	0.181	0.158	0.190	0.149	0.161	0.139	0.170	0.153	0.136	0.130	0.115	0.168	0.110	0.158	0.141
255.0	25.68	42.88	145.4	323.4	322.9	608.3	2168	5306	1846	106.9	7.980	5.197	4.048	3.328	2.892	1.934	1.640	1.376	1.133	1.199	0.893	0.869	0.643	0.639	0.543	0.698	0.658	0.444	0.641	0.423	0.479	0.441	0.417	0.297	0.289	0.315	0.298	0.228	0.235	0.276	0.298	0.330	0.264	0.289	0.265	0.245	0.259	0.354	0.389	0.681	1.090	1.310	1.160	1.143	2.187	3.397	6.006	14.19	29.15	28.54	17.69	3.952	0.375	0.192	0.163	0.133	0.146	0.243	0.152	0.189	0.147	0.132	0.143	0.137	0.194	0.178	0.121
260.0	20.14	20.94	56.87	248.2	355.2	205.8	609.9	3601	6302	1459	59.96	7.751	4.962	4.064	3.230	2.415	1.699	1.596	1.550	1.183	0.963	0.967	0.732	0.683	0.673	0.663	0.696	0.557	0.576	0.538	0.439	0.422	0.412	0.378	0.389	0.289	0.265	0.312	0.282	0.216	0.272	0.329	0.309	0.356	0.231	0.284	0.245	0.231	0.268	0.342	0.629	1.380	1.773	1.241	0.774	0.949	1.596	3.671	10.82	24.71	40.80	27.83	14.29	2.401	0.268	0.153	0.175	0.157	0.196	0.182	0.174	0.143	0.133	0.173	0.189	0.172	0.180
265.0	23.37	23.09	24.26	110.9	360.1	282.1	178.8	1091	5292	6802	1068	25.95	7.521	5.660	3.552	3.047	2.167	1.852	1.379	1.164	1.095	1.064	0.799	0.847	0.769	0.766	0.712	0.715	0.682	0.631	0.465	0.461	0.455	0.391	0.411	0.370	0.341	0.334	0.363	0.305	0.279	0.391	0.356	0.288	0.289	0.282	0.310	0.273	0.203	0.217	0.292	0.665	1.396	1.903	1.502	0.775	0.648	1.180	2.698	6.749	18.49	36.16	50.91	25.81	9.953	0.944	0.281	0.176	0.237	0.155	0.206	0.159	0.185	0.195	0.142	0.184	0.202
270.0	45.32	52.05	47.80	51.70	157.3	357.5	306.8	303.2	1518	5062	7445	2859	71.33	8.546	5.691	4.018	3.059	2.323	1.989	1.517	1.273	1.119	0.881	0.968	0.869	0.846	0.739	0.679	0.679	0.639	0.588	0.497	0.550	0.430	0.456	0.394	0.368	0.387	0.355	0.361	0.325	0.322	0.370	0.328	0.364	0.311	0.356	0.356	0.265	0.260	0.228	0.359	0.586	0.996	1.494	1.810	1.831	1.193	0.917	1.777	4.473	9.934	21.40	34.05	45.51	41.84	17.51	8.277	1.239	0.249	0.252	0.255	0.174	0.167	0.191	0.159	0.201
275.0	106.2	133.3	131.1	79.77	73.45	142.0	452.9	360.5	396.7	1223	3887	9999.9	1297	82.19	9.390	5.802	4.171	3.108	2.174	1.862	1.459	1.107	1.353	1.060	1.013	0.889	0.817	0.610	0.556	0.575	0.624	0.575	0.530	0.604	0.549	0.399	0.461	0.489	0.435	0.529	0.350	0.348	0.340	0.392	0.417	0.488	0.402	0.575	0.509	0.416	0.312	0.315	0.346	0.504	0.581	0.865	1.875	3.021	2.413	1.291	1.396	2.529	5.229	8.069	12.47	24.25	51.76	72.56	28.05	11.05	0.940	0.298	0.251	0.171	0.244	0.226	0.223
280.0	179.9	235.9	215.2	132.2	70.94	67.95	251.9	575.1	290.5	349.4	1062	6095	9999.9	1030	44.84	7.870	5.456	3.358	2.818	2.386	1.698	1.370	1.411	1.162	0.963	0.994	0.861	0.836	0.676	0.760	0.669	0.517	0.637	0.584	0.651	0.602	0.504	0.495	0.406	0.398	0.358	0.423	0.456	0.507	0.494	0.716	0.733	0.712	0.706	0.579	0.447	0.386	0.338	0.466	0.452	0.454	0.774	1.666	3.039	3.105	1.781	1.131	1.604	2.336	3.289	6.226	16.35	42.24	70.01	75.97	23.71	5.235	0.476	0.282	0.294	0.212	0.276
285.0	267.1	343.0	309.7	190.5	89.55	63.42	118.8	437.1	586.4	242.3	350.4	1745	8336	8651	716.7	18.62	7.149	4.347	3.361	2.543	2.354	1.799	1.579	1.179	1.194	0.978	0.859	0.980	0.776	0.754	0.687	0.732	0.739	0.647	0.652	0.687	0.697	0.527	0.512	0.545	0.424	0.460	0.517	0.559	0.616	0.791	0.877	1.026	0.974	0.695	0.603	0.570	0.465	0.416	0.492	0.380	0.481	0.842	1.513	3.083	3.630	2.394	1.273	1.157	1.344	2.179	4.243	10.87	25.62	60.64	81.00	32.78	16.66	2.490	0.360	0.285	0.331
290.0	322.1	452.2	422.9	261.1	126.9	85.67	97.40	210.6	522.6	618.1	348.5	577.7	2313	6454	8523	2606	40.82	6.828	4.636	3.235	2.544	2.110	1.756	1.484	1.378	1.172	0.958	1.013	0.904	0.784	0.892	0.770	0.750	0.813	0.827	0.803	0.765	0.721	0.591	0.589	0.513	0.559	0.594	0.664	0.808	0.963	1.068	1.229	1.107	0.973	0.828	0.737	0.613	0.511	0.548	0.458	0.598	0.690	0.824	1.431	2.248	3.000	3.656	2.997	1.943	1.505	2.031	3.466	6.654	15.31	28.05	38.20	58.32	54.85	40.66	11.97	2.438
295.0	363.5	500.8	502.8	321.8	169.7	125.0	128.9	178.9	297.3	637.5	826.8	461.9	759.1	1626	4177	9999.9	3201	43.60	7.670	4.700	3.377	2.629	2.077	1.818	1.613	1.347	1.048	1.116	1.032	0.854	0.731	0.779	0.744	0.814	0.976	0.865	0.749	0.845	0.698	0.705	0.540	0.580	0.732	0.752	0.898	1.060	1.215	1.321	1.379	1.203	0.943	0.922	0.825	0.644	0.642	0.751	0.756	0.806	0.858	1.084	1.351	1.759	2.457	3.901	4.797	3.571	2.242	2.075	2.739	4.719	7.314	9.359	14.51	23.21	53.61	81.10	34.10
300.0	390.7	558.3	535.1	359.5	216.5	154.5	169.7	213.6	287.0	473.5	969.1	780.5	499.8	582.9	1150	6213	9999.9	598.8	22.27	6.538	4.479	3.230	2.108	2.197	1.722	1.489	1.311	1.044	1.074	0.997	0.898	0.753	0.956	0.834	1.029	0.945	0.905	0.747	0.674	0.668	0.569	0.609	0.784	0.829	0.985	1.140	1.289	1.372	1.661	1.275	1.095	1.096	0.892	0.713	0.815	0.733	0.912	0.969	1.034	1.220	1.321	1.474	1.848	2.485	3.970	5.439	4.738	2.836	2.339	2.681	3.032	3.372	4.168	6.142	15.06	38.36	69.25
305.0	389.4	559.6	545.8	381.7	248.7	190.8	226.8	278.2	346.0	464.5	770.9	1147	653.8	423.9	443.6	1737	7508	5281	422.7	10.48	5.870	3.770	2.692	2.269	1.733	1.577	1.418	1.205	1.100	1.034	0.915	0.797	0.903	0.874	1.064	0.830	0.965	0.721	0.703	0.781	0.582	0.830	0.764	0.798	0.948	1.037	1.274	1.539	1.514	1.467	1.147	1.281	1.015	0.924	0.872	0.968	1.072	1.150	1.349	1.534	1.700	1.774	2.069	2.231	2.778	4.207	5.506	5.702	3.926	2.714	2.559	2.229	2.260	2.448	4.276	9.617	21.64
310.0	389.0	558.8	548.2	405.1	274.6	233.2	265.5	325.0	404.3	498.9	656.7	940.7	1030	599.7	351.4	527.6	2044	4999	5889	1628	24.24	5.647	3.725	2.712	2.227	1.997	1.712	1.354	1.153	1.236	0.987	0.921	0.995	0.999	1.022	0.892	0.900	0.788	0.747	0.744	0.761	0.816	0.768	0.905	0.969	1.035	1.268	1.651	1.638	1.452	1.166	1.344	1.159	1.054	1.089	1.076	1.285	1.345	1.520	1.622	1.817	1.988	2.319	2.457	2.817	3.317	3.813	4.616	5.158	5.034	4.093	2.736	2.172	1.990	2.058	3.122	5.787
315.0	395.6	568.8	564.6	431.5	304.3	275.3	309.9	373.4	453.4	553.8	658.9	774.3	901.8	958.9	477.9	311.5	579.3	1216	3317	8035	512.9	24.36	5.354	3.826	2.902	2.328	1.680	1.630	1.403	1.264	1.183	1.045	0.922	0.963	0.952	0.843	0.909	0.882	0.800	0.773	0.787	0.660	0.798	0.922	0.874	1.217	1.293	1.673	1.780	1.406	1.234	1.393	1.159	1.086	1.130	1.253	1.465	1.562	1.805	1.910	1.955	2.215	2.394	2.857	3.167	3.227	3.224	3.509	3.832	4.450	5.352	5.215	3.915	2.418	1.792	1.781	2.437
320.0	438.0	631.0	642.4	480.3	346.6	307.2	340.8	404.3	489.9	591.0	697.5	770.1	804.8	943.7	764.6	337.0	294.1	384.1	895.3	5101	6631	410.5	12.12	4.800	3.774	2.999	2.119	1.890	1.424	1.352	1.218	1.026	0.967	0.991	1.031	0.941	0.891	0.805	0.815	0.698	0.801	0.773	0.812	0.972	1.071	1.380	1.496	1.815	2.034	1.642	1.359	1.371	1.351	1.216	1.286	1.247	1.685	1.680	1.927	1.994	2.197	2.307	2.851	2.990	3.179	3.267	3.207	3.420	3.540	3.808	4.342	5.044	5.331	4.020	2.716	1.894	1.721
325.0	473.6	733.9	818.7	588.6	405.2	344.8	371.8	426.6	516.5	622.5	733.3	801.6	810.1	804.8	895.7	511.9	275.7	222.7	289.4	1442	5924	3857	58.50	7.684	4.771	3.487	2.752	2.158	1.795	1.549	1.285	1.248	1.010	0.921	1.084	0.978	1.057	0.894	0.921	0.833	0.785	0.771	0.856	0.997	1.084	1.418	1.705	2.289	2.387	2.041	1.681	1.668	1.616	1.267	1.432	1.400	1.603	1.793	2.151	2.187	2.268	2.360	2.942	3.064	3.490	3.448	3.647	3.941	3.779	3.866	3.764	3.878	5.139	5.435	4.349	2.762	2.067
330.0	534.3	866.5	1019	799.2	518.7	391.9	397.9	459.7	545.4	655.1	770.5	848.2	843.9	775.8	758.1	710.0	444.1	239.7	185.4	408.0	1673	4248	4647	1158	18.53	4.860	3.483	2.493	2.198	1.830	1.433	1.231	1.079	1.132	0.964	0.975	0.978	1.017	0.835	0.847	0.800	0.735	0.905	1.053	1.153	1.491	1.889	2.598	2.782	2.474	2.199	2.252	1.866	1.620	1.663	1.643	1.754	1.979	2.033	2.163	2.334	2.641	3.053	3.212	3.518	3.543	3.849	3.887	4.032	3.974	3.885	3.623	4.027	4.147	4.318	4.534	3.889
335.0	576.6	970.7	1118	953.0	634.7	458.2	432.9	494.7	566.1	679.7	790.7	884.1	881.5	816.0	720.0	634.9	656.3	388.9	211.1	212.3	450.0	1027	3188	6450	413.3	18.56	4.920	3.163	2.559	2.047	1.795	1.484	1.233	1.102	0.990	1.048	1.020	0.908	0.983	0.853	0.801	0.894	0.827	1.068	1.257	1.576	2.003	2.829	3.224	2.817	2.752	2.670	2.200	1.867	1.942	1.702	1.832	2.192	2.018	2.194	2.555	2.731	2.909	3.249	3.525	3.678	3.800	3.863	4.194	4.004	4.060	3.914	3.945	3.801	3.552	3.693	4.101
340.0	617.4	1003	1203	1038	693.8	512.5	466.0	500.1	583.8	692.1	802.0	892.5	899.4	837.3	732.3	601.0	607.4	562.5	278.9	192.0	196.6	291.0	860.5	4723	5653	340.0	9.418	4.162	3.129	2.414	2.088	1.643	1.345	1.193	1.123	0.931	1.087	0.876	0.979	0.801	0.806	0.924	0.853	1.132	1.402	1.789	2.130	2.914	3.290	3.037	2.813	2.874	2.458	2.139	2.112	1.950	2.018	2.197	2.236	2.242	2.754	2.726	2.879	3.262	3.694	3.994	3.848	3.891	3.958	4.120	4.247	4.011	4.133	3.490	3.461	3.502	3.479
345.0	614.2	987.7	1211	1070	740.7	537.4	483.3	520.4	583.0	689.2	798.9	874.5	889.9	835.7	742.3	602.5	531.6	578.1	413.7	219.2	160.2	143.9	247.9	1393	5717	3220	49.98	6.231	3.859	3.011	2.293	1.896	1.504	1.315	1.192	0.990	1.080	0.931	0.954	0.925	0.801	0.909	0.937	1.168	1.480	1.688	2.223	2.953	3.361	2.978	2.831	3.018	2.600	2.423	2.058	2.036	2.195	2.132	2.371	2.360	2.622	2.960	2.918	3.399	3.391	3.851	3.847	4.035	3.924	4.166	4.340	4.144	4.070	3.818	3.530	3.516	3.346
350.0	569.0	908.9	1155	1071	788.0	576.5	511.4	530.9	586.6	681.1	778.7	846.3	859.7	817.5	737.8	619.8	518.8	484.8	485.2	352.6	197.4	142.3	135.9	366.5	1677	4009	4055	973.3	15.87	4.063	3.000	2.083	1.722	1.390	1.222	1.007	1.027	1.006	0.980	0.889	0.834	0.898	0.856	1.159	1.357	1.628	2.015	2.710	3.076	3.034	2.944	3.020	2.752	2.444	2.335	2.057	2.173	2.123	2.369	2.497	2.657	2.789	2.906	3.245	3.278	3.618	3.584	3.865	3.916	4.039	4.133	3.987	4.066	3.777	3.582	3.643	3.381
355.0	544.4	860.5	1079	1048	797.6	615.7	566.2	563.0	605.6	685.4	755.8	813.9	834.4	798.8	729.0	628.5	535.4	461.2	425.6	458.3	319.4	181.9	140.6	162.5	425.1	969.3	3022	5494	375.7	16.02	3.974	2.807	1.877	1.509	1.411	0.999	1.083	1.058	0.954	0.955	0.768	0.904	0.915	1.028	1.280	1.698	1.886	2.493	2.772	2.819	2.818	3.250	2.901	2.660	2.552	2.299	2.393	2.327	2.235	2.598	2.632	2.856	2.634	3.303	3.045	3.408	3.711	3.466	3.712	3.816	4.004	3.781	3.969	3.785	3.745	3.593	3.459
360.0	515.5	827.8	1019	1011	808.1	646.2	585.3	575.2	617.4	671.9	741.2	792.4	811.8	782.4	729.9	630.2	556.9	480.7	416.9	424.7	426.0	253.1	168.7	137.6	166.5	264.2	822.9	4293	4840	313.4	8.246	3.578	2.255	1.691	1.498	1.100	1.070	1.057	0.921	0.926	0.885	0.888	0.964	1.023	1.137	1.534	1.782	2.266	2.733	2.612	2.558	3.002	2.965	2.609	2.420	2.353	2.372	2.356	2.222	2.626	2.520	2.797	2.877	3.314	3.289	3.132	3.496	3.190	3.705	3.566	3.782	3.963	4.077	4.086	3.869	3.641	3.649
365.0	476.1	770.3	999.6	980.4	824.2	683.7	605.1	580.0	620.1	680.0	738.6	774.7	791.6	768.2	716.4	638.9	568.5	499.7	436.0	397.2	431.8	364.6	215.3	155.1	127.3	121.8	226.3	1304	5198	2967	47.06	5.255	3.033	2.215	1.533	1.255	1.081	1.107	1.038	0.960	0.951	0.844	0.824	0.999	1.178	1.308	1.767	2.150	2.471	2.646	2.700	2.901	3.027	2.665	2.511	2.442	2.636	2.238	2.557	2.663	2.666	2.805	2.871	3.250	3.483	3.289	3.350	3.456	3.751	3.734	3.888	3.864	3.772	3.856	3.917	3.730	3.620
370.0	437.1	709.3	911.7	957.5	832.1	698.7	630.8	605.8	628.3	679.7	721.1	751.4	754.1	746.9	706.9	635.4	577.3	520.8	463.7	416.4	395.6	409.2	332.0	207.2	151.0	116.9	110.9	335.2	1567	3584	3626	851.3	14.24	2.918	2.136	1.531	1.341	1.132	1.042	1.031	0.865	0.939	0.888	1.074	1.225	1.343	1.667	2.051	2.337	2.426	2.474	2.829	2.813	2.634	2.586	2.399	2.627	2.543	2.573	2.699	2.746	3.002	2.979	3.080	3.210	3.194	3.248	3.494	3.660	3.646	3.606	3.713	3.819	3.791	3.633	3.677	3.881
375.0	409.3	676.2	843.4	920.8	817.9	702.6	651.7	632.1	638.7	664.2	698.5	735.9	726.1	718.0	687.2	633.6	586.7	539.5	488.7	447.6	403.7	380.5	395.6	316.6	196.8	145.2	111.2	138.2	392.3	872.6	2815	4569	325.2	13.88	2.839	1.880	1.655	1.353	1.087	0.944	0.865	0.984	0.960	1.008	1.131	1.480	1.636	1.939	2.275	2.371	2.277	2.642	2.811	2.896	2.638	2.612	2.690	2.631	2.643	2.948	2.734	2.879	3.051	3.244	3.058	3.175	2.892	3.316	3.407	3.499	3.530	3.552	3.750	3.738	3.510	3.652	3.844
380.0	417.6	643.9	803.4	874.3	823.1	721.3	676.4	635.6	653.4	673.4	687.9	719.1	712.4	698.7	673.9	626.7	588.6	546.1	510.1	464.9	423.0	382.7	375.1	387.6	260.2	174.0	130.4	111.1	142.5	234.4	783.5	3600	2763	261.0	6.321	2.585	1.809	1.546	1.306	1.084	1.008	0.967	0.872	1.001	1.066	1.341	1.617	1.964	2.263	2.272	2.273	2.456	2.857	2.861	2.663	2.648	2.995	2.779	2.775	2.830	2.988	2.654	3.002	3.254	2.991	3.240	3.110	3.290	3.307	3.357	3.283	3.385	3.610	3.543	3.567	3.513	3.575
385.0	403.2	610.6	777.6	856.1	823.2	732.3	673.2	647.6	654.0	671.3	676.8	701.4	693.6	688.7	660.4	619.2	585.6	552.0	521.3	478.7	439.6	396.7	361.7	380.3	340.3	215.0	156.1	121.4	102.5	100.6	212.4	1088	3724	2453	38.40	4.213	2.458	1.716	1.492	1.172	0.978	1.012	1.001	0.976	1.048	1.235	1.495	2.062	2.197	2.140	2.241	2.650	2.925	2.610	2.638	2.689	2.844	2.627	2.789	2.853	2.657	2.804	3.022	3.170	3.288	3.245	3.180	3.119	3.167	3.310	3.348	3.217	3.479	3.538	3.517	3.615	3.496
390.0	409.1	590.7	761.2	839.8	822.9	740.8	677.0	655.0	654.7	661.1	674.1	687.1	677.2	663.4	642.2	604.9	576.5	547.9	520.3	490.9	450.5	416.6	379.4	356.3	356.5	304.0	204.5	151.2	119.1	93.44	97.30	278.7	1109	2644	2764	697.0	12.50	2.630	1.832	1.531	1.162	1.082	1.102	0.988	1.196	1.318	1.573	1.991	2.098	2.167	2.154	2.760	2.665	2.671	2.800	2.642	2.724	2.864	2.906	2.868	2.728	2.751	2.827	3.012	3.086	2.890	3.012	2.994	2.937	3.299	3.198	3.255	3.500	3.462	3.444	3.463	3.495
395.0	408.7	592.7	759.0	839.0	808.2	759.3	695.9	667.5	659.0	662.1	656.9	674.3	654.7	644.2	626.9	583.9	560.0	536.5	514.3	494.0	459.9	429.2	397.5	366.9	337.8	339.2	291.7	197.4	149.7	115.5	93.12	112.1	280.1	638.5	1961	3402	273.5	14.39	2.777	1.939	1.528	1.073	1.078	1.102	1.277	1.574	1.649	1.904	2.089	1.993	2.154	2.667	2.875	2.796	2.716	2.801	2.822	2.922	2.795	2.840	2.762	2.727	2.883	2.834	2.942	3.054	2.980	3.046	2.788	3.252	3.054	3.221	3.280	3.488	3.451	3.409	3.613
400.0	398.5	570.2	723.7	801.1	796.1	763.5	696.2	664.3	659.4	664.6	651.0	657.1	651.4	630.9	605.6	575.1	548.1	531.3	510.5	492.0	460.9	435.9	409.8	376.7	341.4	325.3	331.6	253.0	177.8	137.6	106.2	87.62	102.3	170.6	530.0	2449	2290	238.7	8.067	2.397	1.623	1.328	1.071	1.134	1.333	1.447	1.450	2.000	2.068	2.214	2.240	2.576	3.035	2.659	2.833	2.634	2.867	2.873	2.852	2.848	2.906	2.806	2.687	2.933	2.800	2.781	2.939	2.844	2.963	2.985	3.023	3.061	3.166	3.433	3.252	3.428	3.462
405.0	383.9	553.6	731.7	776.3	792.5	752.5	699.4	672.3	653.9	657.6	663.6	646.3	639.2	623.8	597.8	563.7	537.3	516.7	500.4	483.5	459.4	438.0	413.6	388.5	351.6	324.2	327.4	308.4	216.5	158.2	123.5	93.24	73.77	72.50	143.3	700.9	2671	2179	36.31	4.548	2.094	1.520	1.407	1.176	1.300	1.401	1.354	1.858	2.068	1.963	2.100	2.510	2.718	2.733	3.019	2.714	2.780	2.694	2.698	2.775	2.860	2.733	3.028	2.853	2.837	2.868	2.808	2.880	2.986	2.905	2.983	3.127	3.148	3.154	2.936	3.240	3.422
410.0	354.2	544.7	705.8	764.8	768.6	732.3	698.2	667.1	658.4	650.8	643.9	631.1	619.8	602.4	572.8	543.1	513.4	494.7	483.1	465.8	450.3	432.9	414.8	394.1	360.9	333.5	310.9	310.2	281.3	200.5	147.1	110.6	81.02	61.96	63.96	178.4	757.2	2110	2361	770.8	12.92	2.243	1.582	1.395	1.406	1.469	1.505	1.924	1.909	1.982	2.041	2.490	2.638	2.744	2.839	2.570	2.945	2.909	2.781	2.975	2.762	2.829	2.866	2.786	2.882	2.783	2.755	2.809	2.665	2.683	2.851	2.852	2.986	3.078	3.088	3.103	3.295
415.0	343.8	515.3	654.7	745.8	731.5	723.0	705.6	659.6	643.7	641.4	628.1	617.7	596.7	571.1	547.1	514.4	485.8	469.9	457.1	447.5	433.7	418.6	409.6	389.6	367.9	339.8	311.4	292.4	292.7	260.0	177.6	127.5	95.39	70.86	54.44	67.79	188.3	498.2	1406	3089	261.8	16.51	2.205	1.768	1.612	1.525	1.408	1.812	2.094	1.935	1.911	2.426	2.490	2.727	2.874	2.584	2.647	2.820	2.805	2.725	2.780	2.724	2.801	2.760	2.942	2.665	2.671	2.684	2.738	2.751	2.919	2.651	2.909	2.957	2.889	2.819	2.942
