Sample:	'1
File name:	G2025061913 田华水务排口.FD3
Run date:	'12:25:54, 06/30/2025
Operator:	Administrator
Comment:	'

Instrument
Model:	F-2700 FL Spectrophotometer
Serial number:	23B8-004
ROM Version:	4J14000 07

Instrument parameters
Measurement type:	3-D scan
Data mode:	Fluorescence
EX  Start WL:	220.0 nm
EX  End WL:	600.0 nm
EX Sampling interval:	5.0 nm
EM  Start WL:	230.0 nm
EM  End WL:	650.0 nm
EM Sampling interval:	5.0 nm
Scan speed:	12000 nm/min
EX Slit:	5.0 nm
EM Slit:	5.0 nm
PMT Voltage:	700 V
Response:	Auto 
Corrected spectra:	Off
Contour interval:	50.000

Peak integration
Integration method:	Rectangular
Sensitivity:	1
Threshold:	1.000

Peaks
No.	ApexEX/EM(nm)	Height(Data)
1	225.0/620.0	28.30
2	230.0/295.0	276.3
3	230.0/500.0	225.1
4	230.0/560.0	48.65
5	230.0/580.0	45.84
6	235.0/255.0	291.8
7	235.0/510.0	221.4
8	240.0/265.0	366.4
9	240.0/405.0	619.2
10	240.0/525.0	202.3
11	245.0/270.0	396.9
12	245.0/535.0	171.6
13	250.0/275.0	500.6
14	250.0/420.0	587.7
15	250.0/545.0	143.8
16	255.0/280.0	598.2
17	255.0/560.0	127.9
18	260.0/285.0	549.5
19	260.0/570.0	99.72
20	265.0/290.0	545.6
21	265.0/585.0	97.57
22	270.0/300.0	723.2
23	270.0/595.0	76.84
24	275.0/305.0	816.2
25	275.0/610.0	63.68
26	280.0/310.0	659.9
27	280.0/625.0	50.44
28	285.0/315.0	617.4
29	285.0/635.0	39.50
30	290.0/325.0	533.3
31	295.0/330.0	426.4
32	300.0/335.0	412.6
33	305.0/340.0	384.2
34	310.0/350.0	359.6
35	315.0/355.0	372.6
36	320.0/365.0	396.9
37	320.0/400.0	484.5
38	325.0/370.0	405.5
39	330.0/375.0	422.7
40	335.0/385.0	438.0
41	430.0/505.0	25.76
42	445.0/525.0	14.26
43	460.0/545.0	7.285
44	485.0/265.0	2.433
45	495.0/270.0	2.337
46	505.0/275.0	3.409
47	510.0/280.0	3.837
48	520.0/285.0	3.876
49	530.0/290.0	3.539
50	540.0/295.0	4.482
51	545.0/300.0	4.790
52	555.0/305.0	4.708
53	565.0/310.0	3.975
54	575.0/315.0	4.087
55	580.0/320.0	4.503
56	585.0/325.0	3.837

Data points
	220.0	225.0	230.0	235.0	240.0	245.0	250.0	255.0	260.0	265.0	270.0	275.0	280.0	285.0	290.0	295.0	300.0	305.0	310.0	315.0	320.0	325.0	330.0	335.0	340.0	345.0	350.0	355.0	360.0	365.0	370.0	375.0	380.0	385.0	390.0	395.0	400.0	405.0	410.0	415.0	420.0	425.0	430.0	435.0	440.0	445.0	450.0	455.0	460.0	465.0	470.0	475.0	480.0	485.0	490.0	495.0	500.0	505.0	510.0	515.0	520.0	525.0	530.0	535.0	540.0	545.0	550.0	555.0	560.0	565.0	570.0	575.0	580.0	585.0	590.0	595.0	600.0
230.0	36.24	341.8	874.2	237.5	15.26	6.022	5.150	4.691	3.676	3.182	2.955	2.728	2.483	2.151	1.735	1.644	1.365	1.288	1.060	0.978	0.960	0.927	0.866	0.802	0.741	0.756	0.639	0.674	0.684	0.636	0.594	0.529	0.518	0.481	0.478	0.545	0.476	0.449	0.460	0.429	0.426	0.445	0.447	0.384	0.394	0.408	0.717	1.969	3.318	2.508	0.973	0.426	0.335	0.339	0.327	0.322	0.346	0.324	0.367	0.334	0.309	0.346	0.335	0.355	0.325	0.340	0.323	0.362	0.356	0.309	0.317	0.368	0.358	0.351	0.410	0.374	0.357
235.0	62.69	114.0	668.8	778.9	343.0	23.68	5.653	4.808	4.151	3.209	3.034	2.963	2.696	2.202	2.204	1.619	1.236	1.227	1.017	0.927	0.903	0.740	0.828	0.808	0.792	0.797	0.645	0.610	0.729	0.677	0.568	0.615	0.518	0.490	0.501	0.526	0.488	0.426	0.419	0.435	0.385	0.501	0.466	0.416	0.430	0.406	0.422	0.760	1.641	2.753	4.026	4.376	2.034	0.575	0.314	0.262	0.378	0.341	0.334	0.353	0.300	0.327	0.336	0.328	0.398	0.382	0.312	0.344	0.376	0.293	0.297	0.366	0.382	0.328	0.372	0.321	0.359
240.0	98.31	87.19	219.4	834.8	1184	280.4	14.10	5.589	3.905	3.929	3.312	3.126	2.702	2.097	1.945	1.553	1.600	1.202	1.165	1.097	0.938	0.865	0.796	0.928	0.806	0.806	0.597	0.645	0.711	0.619	0.576	0.561	0.504	0.539	0.513	0.472	0.540	0.420	0.480	0.388	0.450	0.463	0.452	0.354	0.532	0.649	0.601	0.454	0.641	1.011	2.298	5.541	7.000	4.923	1.781	0.478	0.401	0.373	0.304	0.297	0.309	0.391	0.330	0.314	0.350	0.307	0.387	0.330	0.348	0.339	0.297	0.323	0.349	0.349	0.395	0.342	0.428
245.0	84.79	149.2	99.61	316.3	1305	1223	204.7	10.56	5.789	4.162	3.056	2.875	2.727	2.267	1.811	1.286	1.293	1.247	1.119	1.024	1.077	0.896	0.808	0.823	0.801	0.754	0.666	0.737	0.683	0.677	0.597	0.618	0.569	0.569	0.511	0.453	0.495	0.402	0.386	0.416	0.482	0.471	0.475	0.433	0.440	0.591	0.820	0.697	0.493	0.485	0.771	2.042	5.159	8.573	8.308	4.209	1.198	0.409	0.359	0.300	0.349	0.361	0.316	0.306	0.357	0.314	0.333	0.354	0.340	0.367	0.336	0.381	0.329	0.361	0.437	0.380	0.385
250.0	46.38	127.6	197.3	158.2	434.7	1228	1547	977.0	40.04	5.022	4.079	3.423	2.839	2.270	1.841	1.659	1.427	1.354	1.191	1.077	1.007	0.973	0.871	0.870	0.822	0.746	0.713	0.670	0.728	0.647	0.601	0.575	0.626	0.617	0.503	0.448	0.525	0.410	0.425	0.498	0.474	0.426	0.468	0.445	0.417	0.460	0.583	0.783	0.975	0.862	0.649	0.831	1.488	3.001	5.414	7.684	9.895	8.652	4.705	1.400	0.454	0.394	0.327	0.339	0.314	0.336	0.377	0.394	0.355	0.330	0.373	0.351	0.354	0.390	0.397	0.390	0.364
255.0	32.20	46.77	157.4	291.8	183.7	330.3	1189	4450	278.6	37.81	5.242	3.746	2.942	2.441	1.877	1.714	1.446	1.242	1.248	1.157	1.020	1.001	0.954	0.978	0.806	0.753	0.717	0.684	0.691	0.629	0.793	0.613	0.538	0.529	0.553	0.465	0.526	0.380	0.385	0.425	0.456	0.459	0.464	0.435	0.457	0.407	0.389	0.469	0.583	0.912	1.366	1.282	1.037	1.041	1.544	2.125	4.061	9.232	15.17	14.69	6.677	1.461	0.454	0.335	0.368	0.310	0.345	0.355	0.374	0.338	0.401	0.360	0.348	0.358	0.418	0.352	0.340
260.0	33.17	25.67	66.24	265.1	296.5	140.3	380.4	3235	2141	233.7	20.50	5.028	3.611	2.629	2.201	1.867	1.439	1.219	1.220	1.147	1.022	1.042	1.111	0.942	0.946	0.799	0.833	0.702	0.660	0.705	0.725	0.639	0.574	0.508	0.535	0.444	0.447	0.482	0.410	0.406	0.462	0.482	0.393	0.471	0.423	0.421	0.362	0.444	0.472	0.531	0.859	1.732	1.919	1.166	0.808	0.836	1.295	2.803	6.715	13.98	18.70	13.66	5.226	0.865	0.467	0.332	0.342	0.333	0.407	0.341	0.351	0.419	0.415	0.352	0.387	0.364	0.364
265.0	29.43	22.64	29.94	128.0	366.4	250.6	137.6	1004	2345	1890	181.6	9.856	4.064	3.383	2.938	2.144	1.610	1.341	1.449	1.218	1.074	1.057	1.135	0.883	0.810	0.655	0.696	0.682	0.686	0.750	0.749	0.610	0.537	0.513	0.565	0.417	0.509	0.488	0.390	0.432	0.421	0.501	0.482	0.477	0.375	0.377	0.366	0.418	0.425	0.389	0.467	1.004	1.808	2.433	1.610	0.789	0.814	1.002	1.942	4.423	10.53	18.42	21.10	12.43	3.148	0.523	0.416	0.365	0.440	0.330	0.332	0.354	0.371	0.382	0.352	0.371	0.378
270.0	38.93	32.94	31.24	55.11	187.9	396.9	286.0	298.2	729.9	2016	2470	714.2	40.06	4.839	3.362	2.374	1.816	1.608	1.482	1.306	1.137	1.051	0.994	0.951	0.944	0.856	0.751	0.725	0.703	0.719	0.715	0.629	0.608	0.528	0.563	0.458	0.483	0.438	0.426	0.444	0.465	0.479	0.446	0.527	0.444	0.460	0.459	0.409	0.404	0.343	0.384	0.562	0.861	1.398	1.928	2.337	2.242	1.394	1.005	1.480	2.908	5.552	10.21	15.50	18.32	16.59	10.17	3.050	0.630	0.419	0.365	0.350	0.389	0.362	0.351	0.380	0.400
275.0	70.37	68.49	73.78	65.44	93.87	208.3	500.6	348.5	219.9	514.6	1536	3838	994.2	38.38	4.375	2.898	2.442	2.053	1.540	1.422	1.309	1.033	1.046	1.005	0.947	0.721	0.751	0.814	0.757	0.789	0.680	0.635	0.582	0.607	0.618	0.524	0.544	0.585	0.525	0.505	0.497	0.535	0.430	0.500	0.418	0.561	0.492	0.563	0.575	0.489	0.501	0.527	0.648	0.709	0.960	1.361	2.521	3.409	2.927	1.257	1.215	1.698	2.778	3.936	5.760	10.98	22.47	26.12	14.22	3.357	0.542	0.457	0.391	0.387	0.380	0.393	0.433
280.0	109.3	127.1	132.5	109.7	88.10	118.1	315.9	598.2	237.1	170.0	454.6	2358	3801	149.4	17.00	3.823	2.541	2.228	1.833	1.584	1.344	1.234	1.110	1.032	0.775	0.836	0.693	0.815	0.765	0.782	0.836	0.688	0.581	0.644	0.561	0.598	0.604	0.521	0.539	0.465	0.448	0.509	0.531	0.519	0.502	0.678	0.651	0.690	0.744	0.652	0.612	0.683	0.604	0.633	0.794	0.854	1.188	2.188	3.837	3.458	1.919	0.964	1.121	1.468	1.894	3.103	7.707	16.95	26.13	24.38	10.86	1.897	0.468	0.384	0.391	0.436	0.471
285.0	136.6	183.1	197.2	145.0	94.49	94.66	158.2	464.6	549.5	162.4	171.5	703.8	2896	3192	115.3	7.357	3.147	2.691	2.017	1.651	1.520	1.302	1.420	0.942	0.804	0.871	0.924	0.821	0.927	0.827	0.734	0.614	0.651	0.623	0.683	0.603	0.557	0.529	0.569	0.527	0.476	0.535	0.550	0.494	0.572	0.677	0.763	0.933	0.858	0.798	0.632	0.784	0.691	0.578	0.697	0.774	0.868	1.125	2.003	3.342	3.876	2.615	1.087	1.012	1.042	1.266	2.271	4.760	9.965	19.89	28.22	20.65	6.825	1.088	0.528	0.413	0.477
290.0	169.7	238.9	247.4	187.1	115.4	92.23	105.2	204.7	468.2	545.6	193.7	254.9	836.1	2210	2648	440.8	26.34	3.396	2.481	1.763	1.614	1.307	1.357	1.121	0.952	0.887	0.928	0.846	0.833	0.735	0.769	0.767	0.669	0.697	0.644	0.657	0.607	0.524	0.570	0.502	0.530	0.619	0.563	0.614	0.627	0.777	0.801	0.992	1.082	0.945	0.867	0.849	0.788	0.693	0.704	0.724	0.783	0.849	1.024	1.485	2.297	3.208	3.539	2.922	1.772	1.076	1.241	1.765	2.952	5.532	10.16	15.88	19.80	19.10	14.13	5.817	1.268
295.0	185.4	252.5	276.3	200.6	133.4	97.12	94.06	127.9	206.6	487.8	658.4	228.7	296.9	576.0	1260	3069	633.0	23.90	3.211	2.372	1.902	1.610	1.647	1.114	1.126	0.954	1.028	0.862	0.893	0.694	0.724	0.680	0.823	0.677	0.649	0.701	0.678	0.577	0.500	0.520	0.500	0.622	0.560	0.593	0.721	0.793	0.850	1.028	1.124	0.979	0.942	0.988	0.809	0.701	0.723	0.713	0.753	0.856	0.902	0.975	1.174	1.503	1.832	3.421	4.482	3.480	1.513	1.202	1.556	1.914	3.007	4.245	5.403	8.011	18.11	26.53	20.57
300.0	179.7	248.3	271.1	208.7	133.5	99.55	99.53	115.8	153.2	277.2	723.2	550.5	213.6	223.9	366.9	1755	3027	456.0	10.94	2.864	2.326	1.754	1.568	1.180	1.202	1.201	1.045	0.936	0.853	0.796	0.672	0.836	0.787	0.703	0.655	0.696	0.684	0.646	0.557	0.544	0.515	0.562	0.551	0.604	0.653	0.824	0.823	0.871	1.115	0.868	0.991	1.035	0.881	0.736	0.726	0.727	0.861	0.860	0.977	0.978	1.071	1.104	1.315	1.925	3.083	4.790	4.157	2.180	1.409	1.336	1.468	1.665	1.857	2.373	5.503	12.25	23.59
305.0	167.5	240.5	265.6	209.4	136.3	110.4	110.6	122.6	153.0	210.9	448.3	816.2	366.0	168.2	158.0	510.0	2249	2518	72.96	4.787	2.576	1.997	1.724	1.545	1.303	1.247	1.120	1.054	0.986	0.795	0.816	0.888	0.756	0.723	0.649	0.752	0.680	0.620	0.560	0.585	0.460	0.562	0.550	0.601	0.665	0.792	0.936	0.902	1.046	0.998	0.930	0.931	0.848	0.785	0.659	0.732	0.759	0.792	1.013	0.978	1.088	1.186	1.232	1.534	1.844	2.815	4.495	4.708	2.890	1.575	1.184	1.232	1.402	1.239	1.930	3.365	7.767
310.0	155.7	213.7	232.3	190.6	138.3	114.1	119.1	134.6	160.3	199.3	289.5	528.8	659.9	327.8	138.0	175.7	626.2	1708	2042	298.7	17.47	2.588	2.022	1.724	1.432	1.147	1.118	1.047	0.954	0.935	0.893	0.832	0.757	0.687	0.706	0.694	0.629	0.674	0.587	0.608	0.491	0.538	0.516	0.612	0.618	0.713	0.807	0.979	0.977	0.900	0.827	0.919	0.841	0.804	0.757	0.824	0.871	0.782	1.033	0.950	1.060	1.101	1.229	1.418	1.502	1.776	2.362	3.194	3.892	3.975	2.899	1.747	1.307	1.079	1.169	1.438	2.430
315.0	138.9	182.0	209.6	174.5	139.5	118.6	126.9	140.0	167.8	203.6	247.8	322.3	455.6	617.4	258.9	121.8	195.7	426.8	1033	2325	446.4	15.23	2.778	1.788	1.614	1.555	1.165	1.156	0.904	0.960	0.850	0.855	0.849	0.722	0.723	0.733	0.639	0.696	0.578	0.659	0.564	0.564	0.578	0.559	0.647	0.765	0.747	0.877	0.910	0.789	0.808	0.861	0.849	0.820	0.911	0.891	0.970	0.794	1.049	1.120	1.129	1.134	1.193	1.386	1.474	1.448	1.690	1.956	2.221	2.733	3.925	4.087	2.815	1.533	1.129	1.138	1.246
320.0	149.4	184.5	213.6	179.2	134.9	126.8	134.8	146.0	170.1	209.3	245.2	280.9	318.3	516.2	483.9	130.2	111.8	140.5	280.8	1412	2151	321.9	6.912	2.504	1.732	1.586	1.214	1.235	0.996	0.971	0.944	0.912	0.736	0.794	0.744	0.662	0.640	0.626	0.655	0.649	0.490	0.607	0.576	0.594	0.646	0.745	0.743	0.965	0.854	0.834	0.854	0.898	0.914	0.834	0.905	0.927	1.015	0.949	0.993	1.045	1.162	1.152	1.161	1.297	1.534	1.435	1.628	1.747	1.740	1.887	2.342	3.415	4.503	3.025	1.607	1.166	1.034
325.0	149.5	210.4	241.5	202.5	155.6	138.9	143.8	156.0	178.9	214.3	245.0	274.9	283.5	338.9	533.3	301.7	110.2	85.21	99.63	402.6	1727	1790	55.06	3.893	2.072	1.776	1.501	1.174	0.982	0.978	0.852	0.850	0.814	0.775	0.752	0.721	0.641	0.700	0.645	0.620	0.499	0.644	0.561	0.529	0.624	0.681	0.831	1.013	0.872	0.966	0.934	0.859	1.064	0.862	0.896	0.816	1.001	0.907	1.010	1.085	1.205	1.133	1.290	1.288	1.571	1.502	1.573	1.595	1.562	1.789	1.746	2.041	3.040	3.837	3.289	2.013	1.336
330.0	155.7	228.7	275.9	245.5	190.8	158.0	158.8	170.8	195.0	224.5	252.6	279.8	280.4	276.2	340.9	426.4	263.9	105.6	76.47	128.7	487.5	1338	1593	234.6	13.86	2.329	1.557	1.322	1.174	1.088	0.898	0.942	0.966	0.801	0.753	0.697	0.679	0.671	0.575	0.615	0.560	0.569	0.558	0.583	0.623	0.756	0.836	0.969	1.044	1.112	1.007	1.060	1.044	0.932	0.970	1.010	1.080	0.960	1.059	1.160	1.327	1.333	1.412	1.409	1.528	1.528	1.606	1.671	1.793	1.770	1.772	1.712	1.997	2.358	2.760	3.081	2.799
335.0	180.4	242.0	305.8	286.0	224.5	187.8	176.9	191.7	210.8	244.7	269.7	293.2	292.5	279.5	270.2	295.6	412.6	235.4	92.08	88.45	152.4	339.0	930.1	1871	350.6	11.78	2.325	1.660	1.398	1.288	1.159	0.952	0.919	0.775	0.809	0.683	0.738	0.649	0.503	0.616	0.562	0.570	0.530	0.641	0.639	0.791	0.914	0.969	1.118	1.166	1.075	1.267	1.184	1.127	1.264	1.175	1.089	1.072	1.130	1.188	1.338	1.327	1.508	1.526	1.640	1.642	1.598	1.690	1.961	1.705	1.822	1.630	1.783	1.886	1.900	2.039	2.566
340.0	179.7	254.0	323.4	312.1	257.8	213.9	199.7	212.3	232.7	258.2	283.6	301.4	305.0	285.4	264.4	245.0	338.4	384.2	161.6	98.88	94.66	120.4	266.6	1275	1714	55.30	5.235	2.213	1.621	1.360	1.131	0.940	0.918	0.871	0.815	0.703	0.649	0.632	0.564	0.607	0.665	0.692	0.613	0.658	0.693	0.774	0.917	1.111	1.323	1.175	1.125	1.426	1.322	1.181	1.266	1.106	1.175	1.316	1.221	1.340	1.504	1.397	1.632	1.562	1.640	1.629	1.857	1.723	1.932	1.723	1.870	1.879	1.865	1.830	1.697	1.761	1.804
345.0	180.5	270.8	344.5	337.6	298.4	243.2	225.6	240.2	260.6	276.2	299.7	317.7	316.6	297.3	276.4	250.2	265.8	383.5	297.4	135.5	99.94	85.86	105.0	385.7	1536	1353	45.62	3.303	1.822	1.507	1.202	1.004	0.976	0.884	0.805	0.725	0.700	0.658	0.615	0.597	0.647	0.597	0.629	0.617	0.773	0.751	0.875	1.110	1.343	1.266	1.216	1.441	1.311	1.323	1.295	1.297	1.308	1.430	1.466	1.424	1.523	1.475	1.638	1.629	1.786	1.843	1.810	1.761	1.753	1.910	1.748	1.785	1.910	1.787	1.854	1.767	1.689
350.0	184.7	265.8	356.7	363.6	329.0	286.0	269.4	276.7	302.0	314.7	327.7	331.7	332.3	316.0	297.0	275.2	263.3	293.3	359.6	275.0	151.1	110.8	92.11	136.0	463.3	1153	1236	198.9	10.83	1.992	1.390	1.250	1.203	0.932	0.764	0.722	0.673	0.704	0.632	0.590	0.581	0.596	0.596	0.614	0.674	0.807	0.893	1.099	1.276	1.230	1.319	1.482	1.493	1.488	1.478	1.405	1.514	1.503	1.546	1.720	1.798	1.659	1.793	1.852	1.768	1.868	1.904	1.964	1.890	1.985	1.954	2.006	1.932	2.002	2.056	1.952	1.868
355.0	185.1	277.1	382.2	400.6	364.7	329.6	316.9	315.8	340.5	345.7	354.9	355.3	350.2	337.0	322.7	306.7	291.8	285.6	300.3	372.6	281.9	163.4	125.0	111.0	154.5	305.1	839.5	1510	287.4	8.265	2.128	1.370	1.127	0.957	0.842	0.719	0.700	0.710	0.673	0.664	0.502	0.586	0.608	0.685	0.677	0.868	0.936	1.127	1.368	1.280	1.397	1.570	1.538	1.513	1.612	1.649	1.765	1.622	1.808	1.765	1.837	1.814	1.867	2.004	2.052	2.038	1.851	2.095	2.027	2.131	2.183	2.079	2.094	2.129	2.230	2.325	2.371
360.0	183.5	291.5	395.8	411.9	389.6	365.4	356.6	347.3	360.4	366.9	373.8	373.6	364.4	352.7	341.7	327.9	315.5	310.3	294.8	343.7	382.8	238.3	160.2	129.4	110.5	117.9	254.6	1163	1427	49.79	4.157	1.900	1.345	1.012	0.989	0.766	0.682	0.697	0.639	0.653	0.618	0.567	0.688	0.618	0.733	0.812	0.943	1.144	1.263	1.341	1.332	1.764	1.778	1.547	1.896	1.550	2.007	1.587	1.946	1.803	1.972	2.007	1.941	2.107	2.149	2.011	2.120	2.053	2.112	2.075	2.162	2.180	2.205	2.376	2.197	2.431	2.510
365.0	184.5	283.3	388.1	435.1	421.2	396.3	382.1	378.4	387.2	399.6	390.7	394.6	382.1	366.2	360.2	347.8	336.9	334.7	319.8	324.2	396.9	353.9	211.9	160.8	123.8	98.18	104.9	375.4	1445	1178	39.53	3.053	1.673	1.312	0.973	0.843	0.792	0.798	0.752	0.689	0.597	0.504	0.645	0.645	0.662	0.884	1.098	1.234	1.284	1.352	1.404	1.948	1.928	1.804	2.038	1.733	1.968	1.945	2.001	2.041	2.025	2.336	2.273	2.258	2.301	2.129	2.134	2.117	2.266	2.291	2.303	2.260	2.301	2.354	2.394	2.334	2.466
370.0	204.8	303.5	400.2	452.5	461.7	440.0	431.2	421.4	429.0	432.4	427.5	414.0	409.8	396.7	386.6	377.2	369.7	372.5	366.7	353.0	365.4	405.5	343.1	228.4	169.4	127.9	100.9	138.6	457.9	1133	897.1	174.7	9.713	2.034	1.228	0.926	0.826	0.835	0.783	0.694	0.660	0.587	0.609	0.649	0.687	0.859	0.996	1.168	1.414	1.366	1.523	1.873	2.038	1.960	2.046	2.035	2.157	2.142	2.098	2.191	2.281	2.437	2.385	2.367	2.424	2.345	2.301	2.338	2.203	2.386	2.411	2.393	2.460	2.548	2.560	2.488	2.526
375.0	213.5	329.4	434.2	479.3	501.2	497.5	468.7	464.4	459.5	454.7	461.7	445.9	442.9	428.4	407.4	405.1	402.7	405.6	406.3	399.1	386.9	384.1	422.7	353.1	233.8	176.3	138.7	119.4	161.1	307.7	799.7	1395	240.7	7.781	1.832	1.143	0.982	0.787	0.690	0.747	0.703	0.561	0.676	0.663	0.702	0.979	1.079	1.279	1.466	1.531	1.529	2.132	2.284	2.109	2.290	2.268	2.138	2.331	2.319	2.313	2.341	2.530	2.387	2.440	2.551	2.688	2.441	2.417	2.272	2.410	2.498	2.571	2.823	2.540	2.798	2.537	2.912
380.0	218.2	329.0	458.4	508.0	516.2	532.4	503.4	494.1	486.2	482.8	482.6	469.2	465.3	444.9	421.3	415.2	417.3	423.8	427.9	428.6	413.9	399.3	413.0	434.3	308.8	221.6	175.2	138.5	115.7	124.4	262.9	1134	1185	41.39	3.710	1.715	1.100	0.902	0.779	0.708	0.663	0.695	0.705	0.659	0.761	0.874	1.083	1.269	1.516	1.615	1.626	2.217	2.378	2.382	2.297	2.253	2.520	2.452	2.374	2.465	2.588	2.613	2.493	2.445	2.638	2.778	2.597	2.458	2.687	2.740	2.594	2.848	2.615	2.723	2.808	2.667	2.899
385.0	218.4	338.3	469.6	523.6	534.4	545.2	525.9	512.6	501.3	500.9	500.0	490.0	480.9	456.8	433.1	421.4	424.6	435.8	445.2	450.2	437.1	424.1	412.3	438.0	395.2	273.1	209.6	166.4	124.4	100.2	116.5	383.5	1221	881.3	31.84	2.525	1.434	0.999	0.847	0.690	0.728	0.684	0.739	0.786	0.827	0.933	1.063	1.286	1.624	1.537	1.647	2.285	2.471	2.413	2.485	2.493	2.680	2.560	2.536	2.778	2.489	2.659	2.582	2.578	2.724	2.809	2.680	2.571	2.790	2.689	2.649	2.650	2.749	2.927	2.934	2.649	2.979
390.0	220.2	356.5	465.8	547.3	563.6	571.1	547.3	539.0	524.3	521.4	512.4	505.4	486.9	466.8	438.7	428.7	434.3	446.6	457.3	464.5	460.7	450.8	431.5	421.8	423.6	369.1	266.8	202.9	154.6	118.1	98.23	136.9	386.9	858.9	681.6	136.3	7.704	1.464	1.102	0.857	0.740	0.732	0.797	0.771	0.848	0.959	1.170	1.356	1.669	1.522	1.781	2.240	2.405	2.469	2.501	2.630	2.633	2.726	2.707	2.667	2.639	2.624	2.717	2.756	2.720	2.701	2.725	2.740	2.693	2.840	2.787	2.782	2.669	2.975	2.802	2.910	3.038
395.0	233.1	355.2	489.3	552.2	588.0	591.4	577.0	560.3	560.9	529.8	531.6	508.6	497.8	469.8	444.0	432.7	435.0	447.3	465.1	471.0	477.8	469.4	453.3	433.7	407.7	410.5	358.7	255.0	192.4	151.8	118.8	99.92	126.5	228.0	594.3	1007	197.9	6.374	1.587	1.206	0.886	0.855	0.842	0.821	0.780	0.998	1.189	1.470	1.620	1.725	1.819	2.279	2.334	2.502	2.523	2.595	2.664	2.829	2.946	2.629	2.711	2.826	2.857	3.065	2.843	2.715	2.918	2.655	2.755	2.732	3.008	2.785	2.659	2.946	2.762	2.941	3.132
400.0	232.4	358.9	490.2	562.6	600.7	596.0	592.0	574.6	571.1	548.2	533.7	528.8	503.2	477.1	446.6	429.0	434.8	447.4	462.7	474.3	484.5	478.5	465.7	446.3	417.1	399.4	406.3	314.3	225.8	181.3	143.2	107.7	81.13	83.88	181.8	802.7	884.4	35.75	3.240	1.552	1.061	0.950	0.832	0.869	0.832	0.990	1.238	1.445	1.637	1.642	1.805	2.300	2.567	2.652	2.602	2.585	2.738	2.852	2.955	2.856	2.820	2.866	2.871	3.086	2.860	2.832	2.757	2.791	2.758	2.628	2.813	3.140	2.756	2.898	2.974	3.056	3.076
405.0	239.8	353.3	502.7	580.4	619.2	608.9	587.6	590.5	565.9	553.2	543.7	528.9	502.8	477.9	444.9	426.5	428.0	444.6	464.2	466.9	482.3	479.8	474.9	454.7	429.8	394.8	397.0	371.3	263.9	206.3	165.4	125.1	84.64	61.32	68.18	257.0	882.6	678.9	28.56	2.295	1.118	1.013	0.846	0.888	0.884	1.056	1.090	1.473	1.643	1.835	1.816	2.386	2.454	2.457	2.526	2.791	2.827	2.785	2.746	3.056	2.781	2.786	2.954	2.770	2.962	2.831	2.789	2.875	2.989	2.607	2.938	2.953	2.916	3.055	2.916	3.091	3.001
410.0	227.3	355.6	496.5	576.2	611.2	605.0	594.2	589.1	568.9	557.8	550.9	531.1	506.7	476.9	439.9	414.5	415.5	429.2	443.6	455.7	471.5	472.0	470.1	458.6	433.4	400.8	380.8	376.5	328.4	246.7	188.9	145.9	100.2	70.36	53.77	82.90	271.1	638.5	533.6	126.0	6.520	1.308	1.028	0.971	0.997	1.088	1.243	1.463	1.562	1.804	1.769	2.256	2.438	2.584	2.753	2.694	2.866	2.905	2.892	2.931	2.929	2.893	2.898	2.794	2.859	2.852	2.858	2.773	3.040	2.755	2.733	3.030	2.786	3.032	2.778	2.864	2.916
