Sample:	'1
File name:	c2025052205新塌河南支流.FD3
Run date:	'12:54:32, 05/23/2025
Operator:	Administrator
Comment:	'

Instrument
Model:	F-2700 FL Spectrophotometer
Serial number:	23B8-004
ROM Version:	4J14000 07

Instrument parameters
Measurement type:	3-D scan
Data mode:	Fluorescence
EX  Start WL:	220.0 nm
EX  End WL:	600.0 nm
EX Sampling interval:	5.0 nm
EM  Start WL:	230.0 nm
EM  End WL:	650.0 nm
EM Sampling interval:	5.0 nm
Scan speed:	12000 nm/min
EX Slit:	5.0 nm
EM Slit:	5.0 nm
PMT Voltage:	700 V
Response:	Auto 
Corrected spectra:	Off
Contour interval:	50.000

Peak integration
Integration method:	Rectangular
Sensitivity:	1
Threshold:	1.000

Peaks
No.	ApexEX/EM(nm)	Height(Data)
1	225.0/345.0	2128
2	225.0/355.0	2101
3	225.0/380.0	2015
4	225.0/615.0	82.05
5	225.0/630.0	80.57
6	255.0/280.0	621.5
7	255.0/555.0	200.5
8	260.0/570.0	160.5
9	265.0/585.0	146.4
10	270.0/300.0	1272
11	270.0/595.0	132.3
12	275.0/305.0	1485
13	275.0/345.0	1773
14	275.0/610.0	113.2
15	280.0/310.0	1386
16	280.0/625.0	96.48
17	285.0/635.0	71.65
18	505.0/275.0	3.476
19	515.0/280.0	3.626
20	520.0/285.0	3.967
21	525.0/435.0	7.160
22	530.0/290.0	4.490
23	530.0/440.0	7.169
24	540.0/295.0	6.634
25	545.0/300.0	7.607
26	555.0/305.0	7.686
27	560.0/345.0	8.544
28	565.0/360.0	8.557
29	575.0/355.0	8.712

Data points
	220.0	225.0	230.0	235.0	240.0	245.0	250.0	255.0	260.0	265.0	270.0	275.0	280.0	285.0	290.0	295.0	300.0	305.0	310.0	315.0	320.0	325.0	330.0	335.0	340.0	345.0	350.0	355.0	360.0	365.0	370.0	375.0	380.0	385.0	390.0	395.0	400.0	405.0	410.0	415.0	420.0	425.0	430.0	435.0	440.0	445.0	450.0	455.0	460.0	465.0	470.0	475.0	480.0	485.0	490.0	495.0	500.0	505.0	510.0	515.0	520.0	525.0	530.0	535.0	540.0	545.0	550.0	555.0	560.0	565.0	570.0	575.0	580.0	585.0	590.0	595.0	600.0
230.0	105.4	2490	5959	1939	75.61	11.67	9.409	7.884	6.782	6.751	6.077	5.719	5.184	4.413	4.028	3.315	2.899	2.747	2.581	2.281	1.948	1.993	1.853	1.735	1.467	1.560	1.302	1.242	1.244	1.268	1.207	1.113	0.989	0.997	0.859	0.782	0.799	0.740	0.665	0.667	0.756	0.840	0.807	0.670	0.570	0.598	3.025	13.25	21.49	15.15	5.170	1.065	0.408	0.373	0.376	0.367	0.396	0.372	0.362	0.372	0.375	0.329	0.350	0.353	0.373	0.335	0.339	0.321	0.350	0.321	0.365	0.353	0.363	0.348	0.332	0.337	0.344
235.0	157.5	671.2	3517	5898	2233	125.2	14.11	9.028	8.873	8.176	5.741	6.871	5.706	4.765	4.139	3.735	3.244	2.946	2.608	2.331	2.202	1.990	2.028	1.639	1.667	1.531	1.431	1.506	1.318	1.317	1.227	1.024	0.971	1.004	0.920	0.758	0.791	0.694	0.629	0.681	0.667	0.632	0.824	0.939	0.737	0.660	1.138	3.630	8.040	14.21	19.94	19.94	10.16	1.973	0.462	0.399	0.431	0.415	0.417	0.364	0.429	0.354	0.354	0.345	0.399	0.327	0.318	0.316	0.360	0.342	0.306	0.308	0.363	0.389	0.293	0.366	0.389
240.0	220.8	265.8	1015	4868	5422	542.8	69.14	11.34	10.27	8.078	7.610	6.885	5.926	5.437	4.310	3.550	3.290	3.159	2.837	2.697	2.326	1.914	1.895	1.681	1.809	1.594	1.488	1.458	1.435	1.271	1.145	1.024	0.873	1.014	1.048	0.818	0.874	0.769	0.722	0.692	0.613	0.543	0.662	0.841	0.841	0.913	0.869	1.200	2.195	4.251	10.41	25.09	29.23	20.05	7.893	1.325	0.476	0.440	0.492	0.364	0.408	0.386	0.401	0.311	0.354	0.405	0.347	0.364	0.355	0.361	0.379	0.291	0.312	0.370	0.339	0.357	0.327
245.0	154.5	262.2	306.6	1604	6442	6598	428.9	33.18	11.93	8.991	8.657	8.454	6.599	6.332	4.891	3.736	3.640	2.985	2.915	2.681	2.509	2.038	2.157	1.776	2.002	1.502	1.518	1.254	1.362	1.199	1.250	1.115	1.052	1.001	0.909	0.848	0.793	0.839	0.779	0.646	0.620	0.655	0.700	0.711	0.707	0.792	1.204	1.056	0.979	1.329	2.740	8.120	22.02	37.27	29.54	18.10	5.319	0.731	0.489	0.389	0.451	0.368	0.341	0.394	0.401	0.408	0.389	0.359	0.395	0.343	0.399	0.323	0.350	0.372	0.345	0.326	0.356
250.0	77.20	168.6	278.7	463.7	2004	6185	8360	1562	120.7	14.78	11.76	9.471	7.875	6.765	5.724	4.527	3.798	3.159	2.970	2.964	2.604	2.201	2.254	1.968	1.931	1.702	1.699	1.437	1.517	1.332	1.441	1.160	0.957	0.951	0.950	0.843	0.777	0.786	0.865	0.726	0.647	0.679	0.687	0.642	0.622	0.671	0.857	1.096	1.131	1.131	1.181	2.220	5.545	11.69	20.98	33.87	38.25	39.35	15.39	6.068	0.872	0.478	0.387	0.417	0.371	0.388	0.404	0.382	0.336	0.436	0.374	0.388	0.388	0.378	0.367	0.419	0.381
255.0	64.28	73.53	176.9	345.2	549.5	1524	5982	9999.9	2295	147.9	17.12	13.29	11.28	7.907	6.570	5.465	3.924	3.682	3.249	3.243	2.743	2.451	2.359	2.274	1.989	1.828	1.605	1.691	1.545	1.403	1.411	1.301	1.172	1.095	0.971	0.897	0.868	0.788	0.805	0.712	0.734	0.690	0.661	0.716	0.558	0.631	0.671	0.687	0.762	1.084	1.318	1.604	1.882	3.033	5.203	8.328	14.40	38.48	70.33	72.98	23.61	7.223	0.726	0.537	0.413	0.392	0.475	0.414	0.411	0.403	0.358	0.383	0.401	0.333	0.410	0.456	0.359
260.0	56.70	50.53	86.65	254.7	375.4	421.4	1730	9230	9999.9	1870	99.64	17.30	13.83	9.728	7.529	5.988	4.567	4.016	3.644	3.113	2.876	2.529	2.544	2.446	2.091	1.864	1.807	1.528	1.610	1.580	1.471	1.257	1.197	1.133	0.973	0.940	1.006	0.820	0.850	0.717	0.722	0.792	0.643	0.711	0.690	0.632	0.558	0.674	0.517	0.673	0.921	1.638	2.001	1.577	1.680	2.351	3.814	10.29	29.21	67.42	94.62	32.55	20.26	3.554	0.616	0.450	0.534	0.464	0.437	0.476	0.405	0.401	0.408	0.386	0.411	0.434	0.411
265.0	58.76	48.32	48.86	129.2	362.4	310.3	457.0	2988	9999.9	9999.9	1442	49.62	18.43	12.41	9.886	6.988	5.200	4.033	4.338	3.346	3.316	2.664	2.671	2.445	2.225	2.119	1.865	1.570	1.549	1.579	1.530	1.568	1.267	1.135	0.998	1.064	0.978	0.859	0.874	0.852	0.698	0.728	0.660	0.667	0.714	0.627	0.605	0.638	0.577	0.519	0.585	1.065	1.764	2.104	1.674	1.274	1.407	2.842	7.183	19.33	50.69	88.75	113.6	30.49	14.59	1.589	0.653	0.546	0.524	0.478	0.430	0.532	0.484	0.411	0.437	0.411	0.470
270.0	72.83	59.80	52.68	65.99	183.3	376.8	370.0	757.8	3303	9999.9	9999.9	5328	92.04	20.77	13.56	9.792	7.007	5.617	4.813	4.125	3.650	3.136	2.797	2.620	2.450	2.316	2.103	1.858	1.845	1.770	1.748	1.520	1.361	1.276	1.116	1.049	1.006	0.890	0.899	0.923	0.818	0.896	0.783	0.802	0.729	0.735	0.653	0.587	0.573	0.557	0.570	0.663	0.915	1.313	1.882	2.267	2.136	1.938	2.239	4.956	12.19	25.27	53.63	78.66	108.3	87.65	60.48	10.55	1.932	0.664	0.535	0.590	0.551	0.505	0.430	0.467	0.519
275.0	137.1	102.7	84.82	76.36	114.8	224.3	506.9	464.1	829.7	2462	9036	9999.9	7753	112.2	21.27	14.33	10.68	7.197	5.974	4.977	4.452	3.639	3.270	3.084	2.747	2.575	2.345	2.146	2.125	1.956	1.805	1.686	1.505	1.435	1.253	1.073	1.121	0.997	1.000	0.939	0.895	1.047	0.959	0.913	0.833	0.910	0.758	0.752	0.701	0.588	0.577	0.722	0.805	0.990	1.133	1.482	2.386	3.476	2.864	2.236	3.518	6.363	12.88	18.63	30.63	62.26	138.9	166.3	31.72	15.57	1.563	0.745	0.674	0.639	0.511	0.528	0.569
280.0	199.0	159.6	137.8	125.9	147.8	198.9	371.1	621.5	420.6	713.4	2558	9999.9	9999.9	1175	74.44	21.03	13.41	9.447	7.528	5.816	5.139	4.243	3.821	3.524	2.985	2.802	2.473	2.178	2.130	2.094	1.905	1.515	1.440	1.591	1.311	1.178	1.119	1.121	1.063	1.104	1.005	1.207	1.158	1.164	0.943	1.007	0.955	1.009	0.869	0.743	0.685	0.921	0.902	1.101	1.208	1.296	1.600	2.520	3.496	3.626	2.472	2.479	3.820	5.314	8.043	16.03	45.03	107.2	164.8	166.5	28.51	10.15	1.035	0.741	0.577	0.711	0.653
285.0	275.8	238.0	201.5	169.9	195.9	224.8	272.7	524.4	627.2	405.1	848.6	3263	9999.9	9999.9	914.9	46.33	18.72	12.62	9.363	6.540	5.704	4.363	4.173	3.687	3.203	2.998	2.778	2.730	2.111	2.450	2.162	1.738	1.574	1.612	1.467	1.319	1.198	1.176	1.116	1.187	1.172	1.253	1.131	1.196	1.138	1.251	1.097	1.043	1.129	1.074	0.856	1.050	1.185	1.360	1.397	1.288	1.500	1.678	2.233	3.362	3.967	3.088	2.501	2.609	3.312	5.382	11.66	27.46	62.86	139.7	189.1	149.7	23.24	4.715	0.816	0.688	0.802
290.0	424.8	420.4	345.8	274.5	269.1	281.6	289.0	351.2	633.8	779.2	685.2	1156	3389	9999.9	9999.9	3667	61.45	19.15	13.44	9.329	7.038	5.855	4.852	4.285	3.786	3.329	3.003	2.920	2.678	2.598	2.057	1.875	1.751	1.754	1.431	1.409	1.388	1.399	1.218	1.334	1.403	1.341	1.434	1.487	1.477	1.548	1.468	1.595	1.462	1.304	1.194	1.410	1.437	1.589	1.548	1.513	1.735	1.802	1.814	2.173	3.058	3.829	4.490	4.189	3.465	3.739	4.890	8.442	16.54	35.38	66.23	112.0	138.3	106.5	99.91	16.48	6.268
295.0	605.1	590.3	505.0	388.7	327.7	323.4	322.7	335.9	463.5	837.6	1123	877.3	1207	2549	7899	9999.9	5308	73.12	19.94	13.24	10.06	7.268	5.917	5.132	4.449	3.943	3.512	3.130	2.776	2.846	2.233	2.189	2.062	2.023	1.664	1.433	1.415	1.418	1.441	1.566	1.375	1.469	1.742	1.793	1.901	2.034	1.934	2.013	1.959	1.645	1.472	1.798	1.618	1.738	1.834	1.683	1.919	1.863	1.996	1.852	2.297	2.870	3.372	5.410	6.634	5.681	4.014	4.762	6.559	10.24	16.66	26.54	34.02	48.49	129.3	203.1	167.9
300.0	741.9	744.4	655.7	465.4	360.1	340.4	350.2	365.2	471.0	721.5	1272	1155	842.6	915.9	2155	9999.9	9999.9	3883	53.71	17.98	12.32	9.185	6.882	6.169	5.187	4.636	3.606	3.517	3.012	2.717	2.640	2.587	2.106	1.903	1.892	1.599	1.435	1.507	1.694	1.682	1.792	1.638	1.899	2.052	2.136	2.235	2.372	2.502	2.436	1.908	1.678	1.798	1.765	1.840	1.993	1.888	2.060	1.887	2.020	2.207	2.410	2.724	3.211	4.146	5.749	7.607	6.309	5.165	4.728	5.015	6.144	8.023	9.448	12.50	34.99	89.63	185.5
305.0	877.9	930.9	790.8	544.2	388.5	359.3	384.0	424.4	526.6	727.0	1089	1485	982.0	653.1	749.7	2902	9999.9	9999.9	591.1	34.97	15.92	11.67	8.296	7.215	5.579	5.060	4.166	3.636	3.415	2.938	2.819	2.628	2.053	2.164	1.904	1.580	1.619	1.665	1.795	1.866	1.926	2.114	2.108	2.354	2.477	2.596	2.675	2.927	2.786	2.309	1.976	2.083	1.979	1.837	1.869	1.973	1.991	2.137	2.309	2.441	2.688	2.876	3.352	4.146	4.726	6.126	7.223	7.686	6.161	4.769	4.013	4.373	4.475	4.607	9.332	21.85	54.50
310.0	1033	1081	959.7	607.7	415.3	376.4	411.3	482.5	622.6	812.8	1060	1355	1386	873.7	558.3	862.3	3022	9999.9	9999.9	2535	44.83	16.81	11.84	9.033	6.750	5.512	4.523	4.051	3.769	3.330	3.097	2.814	2.487	2.120	1.873	1.730	1.816	1.769	1.742	1.951	2.045	2.306	2.293	2.740	2.786	2.967	2.996	3.275	3.233	2.587	2.144	2.172	2.124	1.912	1.859	2.083	2.216	2.381	2.604	2.759	2.988	3.401	3.920	4.347	4.725	5.585	5.896	6.855	7.273	6.884	5.732	4.450	3.748	3.560	3.866	6.582	13.60
315.0	1253	1301	1118	687.0	453.2	401.5	463.6	546.3	720.4	926.2	1144	1295	1363	1319	736.0	492.1	842.8	2383	7796	9999.9	3898	52.71	17.13	11.95	8.777	6.703	5.598	4.819	4.395	3.986	3.572	2.803	2.490	2.323	2.070	1.960	1.770	1.895	1.883	1.930	2.153	2.536	2.509	2.919	2.975	3.405	3.450	3.581	3.591	2.966	2.409	2.357	2.165	2.127	2.052	2.067	2.263	2.449	3.019	2.977	3.373	3.905	4.380	5.099	5.034	5.743	6.035	6.330	6.645	6.850	7.196	7.280	5.615	4.173	3.253	3.561	4.690
320.0	1377	1467	1223	786.9	498.0	432.6	482.8	608.6	791.3	1019	1248	1370	1352	1345	1039	501.4	399.7	659.4	1996	9999.9	9999.9	2996	39.36	16.14	11.43	8.021	6.639	5.747	4.772	4.168	3.910	3.160	2.770	2.342	2.180	2.000	1.741	1.747	2.021	1.942	2.320	2.726	2.755	3.197	3.188	3.639	3.747	4.211	3.871	3.402	2.592	2.498	2.386	2.176	2.192	2.250	2.435	2.646	2.946	3.393	3.715	4.239	5.032	5.306	5.315	6.058	6.323	6.548	6.849	6.679	6.820	7.044	7.021	5.966	4.052	3.122	3.187
325.0	1528	1664	1404	909.0	549.9	463.3	535.6	666.2	874.3	1106	1344	1465	1428	1286	1193	700.6	360.9	309.4	552.1	2843	9999.9	9999.9	455.9	26.61	14.56	10.29	7.369	6.443	5.554	4.507	3.980	3.402	3.073	2.707	2.295	2.058	2.125	2.042	1.950	2.126	2.332	2.585	3.071	3.415	3.769	4.164	4.422	4.800	4.466	3.728	2.953	2.793	2.553	2.201	2.295	2.369	2.544	2.866	3.364	3.352	4.151	4.654	5.257	5.849	5.745	6.426	6.761	6.738	6.978	7.221	7.022	6.418	6.806	7.119	5.927	4.348	3.168
330.0	1692	1865	1625	1055	645.3	533.5	596.5	743.5	960.4	1209	1462	1585	1555	1354	1141	911.8	557.0	314.0	279.9	741.4	3021	9999.9	9999.9	1887	37.04	15.65	10.38	8.227	6.526	5.363	4.646	3.922	3.346	2.796	2.582	2.172	2.113	2.043	1.888	2.203	2.437	2.696	3.106	3.632	4.194	4.630	4.699	5.176	4.979	4.158	3.423	3.215	2.807	2.582	2.475	2.500	2.968	3.078	3.649	3.919	4.452	4.925	5.750	6.131	6.327	6.968	7.131	7.259	7.457	7.699	7.446	6.963	6.507	6.395	6.054	5.821	4.854
335.0	1738	1966	1747	1138	739.2	609.5	676.3	815.1	1025	1306	1541	1696	1649	1462	1177	895.8	788.7	497.1	298.7	327.7	787.1	2373	8158	9999.9	3218	44.91	15.69	10.88	7.788	6.355	5.628	4.566	3.766	3.062	2.558	2.249	2.276	2.130	2.260	2.186	2.473	2.737	3.322	3.745	4.667	4.989	5.055	5.546	5.428	4.398	3.684	3.544	3.139	3.032	2.802	2.827	3.101	3.458	3.882	4.101	4.645	5.069	5.796	6.532	6.914	7.376	7.511	7.740	7.675	8.132	8.027	7.531	6.918	6.480	5.926	5.371	5.312
340.0	1824	2040	1856	1244	811.7	689.1	728.7	868.2	1086	1349	1595	1743	1713	1522	1241	915.7	785.7	695.8	400.7	287.9	336.4	647.3	2126	9999.9	9999.9	2513	34.72	13.77	9.983	7.630	6.228	5.142	3.810	3.391	3.149	2.478	2.218	2.088	2.229	2.519	2.570	2.896	3.519	3.514	4.566	5.057	5.474	5.853	5.788	5.015	3.833	3.963	3.528	3.052	3.109	3.206	3.631	3.868	4.290	4.359	4.679	5.661	6.146	6.702	6.898	7.685	7.651	7.911	8.224	8.366	8.106	7.782	7.519	7.019	6.140	5.351	4.962
345.0	1850	2128	1919	1302	871.4	764.6	792.8	921.0	1131	1378	1635	1773	1736	1560	1302	977.1	778.8	761.9	594.4	360.8	293.8	309.9	598.3	2991	9999.9	9999.9	395.7	22.73	12.65	9.222	7.224	5.320	4.164	3.813	3.185	2.437	2.342	2.287	2.286	2.626	2.489	2.933	3.664	3.915	4.633	5.016	5.397	5.967	5.755	4.987	4.046	4.262	3.584	3.446	3.311	3.268	3.960	3.861	4.280	4.633	5.020	5.567	6.112	6.844	7.192	7.878	7.837	8.100	8.544	8.398	8.249	7.850	7.446	7.070	6.665	5.609	5.339
350.0	1869	2079	1896	1364	987.7	873.4	876.9	979.9	1171	1404	1640	1760	1746	1589	1353	1068	864.1	775.5	749.0	576.6	410.3	330.6	332.2	813.4	3228	9999.9	9999.9	1652	32.07	12.81	9.167	6.892	5.213	4.292	3.365	2.893	2.513	2.393	2.411	2.445	2.607	2.935	3.640	3.841	4.402	5.204	5.559	5.872	5.608	4.999	4.177	4.377	4.145	3.795	3.756	3.600	3.984	4.118	4.549	4.821	5.167	5.723	6.532	6.948	7.351	7.765	8.028	8.087	8.507	8.422	8.129	7.962	7.610	7.493	6.790	6.138	5.940
355.0	1812	2101	1857	1430	1104	985.1	992.2	1059	1226	1426	1650	1760	1741	1605	1404	1157	983.5	864.8	803.3	789.0	609.3	451.0	367.6	398.3	866.1	2405	8417	9999.9	2797	36.90	13.27	9.151	6.486	4.920	3.851	3.123	2.824	2.616	2.591	2.422	2.715	3.095	3.605	4.029	4.496	4.988	5.280	5.707	5.491	4.985	4.335	4.651	4.507	4.032	4.168	4.105	4.165	4.673	4.747	5.176	5.679	6.037	6.613	6.904	7.181	7.600	7.802	8.254	8.181	8.368	8.469	8.712	7.884	7.754	6.849	6.617	6.389
360.0	1840	2090	1876	1477	1207	1078	1071	1125	1281	1459	1653	1759	1744	1609	1443	1217	1063	951.8	884.8	841.7	810.2	582.3	450.2	366.2	387.4	665.4	2252	9999.9	9999.9	2137	26.33	11.22	8.259	6.024	4.609	3.478	3.279	2.886	2.497	2.646	2.910	3.020	3.642	4.115	4.463	5.146	5.204	5.770	5.661	5.125	4.519	4.902	4.859	4.544	4.620	4.550	4.677	4.779	4.963	5.239	5.890	6.324	6.491	7.154	7.239	7.898	7.710	8.004	8.336	8.557	8.208	8.510	8.122	7.960	7.177	7.034	7.034
365.0	1810	2057	1893	1556	1299	1159	1150	1164	1305	1483	1657	1749	1728	1622	1467	1265	1136	1046	974.7	896.1	885.3	764.8	556.7	416.6	330.9	316.0	615.0	3129	9999.9	9999.9	352.5	18.42	10.26	7.065	5.122	4.180	3.241	3.009	2.730	2.765	2.864	3.048	3.693	4.275	4.656	4.967	5.198	5.591	5.628	5.098	4.644	5.043	5.098	4.794	5.012	4.758	4.930	4.948	5.293	5.299	5.931	6.466	6.816	7.146	7.517	7.771	7.331	7.843	8.064	8.534	8.064	8.492	8.222	7.726	7.719	7.511	7.264
370.0	1821	2005	1906	1621	1381	1262	1235	1247	1352	1500	1655	1718	1701	1615	1479	1316	1208	1142	1079	1008	939.8	891.2	748.8	540.5	399.3	304.7	298.0	807.5	3341	9999.9	9999.9	1480	26.87	10.18	6.911	5.080	3.980	3.365	3.080	2.966	2.989	3.357	3.732	4.203	4.593	5.112	5.202	5.836	5.482	5.242	4.740	5.324	5.347	5.107	5.442	5.051	5.384	5.345	5.818	5.725	6.114	6.580	6.983	7.234	7.435	7.959	7.506	7.820	7.948	8.032	8.150	8.126	8.036	8.086	7.922	7.754	7.945
375.0	1843	1996	1934	1665	1471	1383	1297	1320	1383	1509	1631	1696	1673	1593	1471	1343	1259	1214	1172	1108	1027	939.3	887.6	716.7	502.7	372.8	286.6	332.9	846.1	2408	8933	9999.9	2381	30.33	10.29	6.844	4.875	3.732	3.641	3.319	2.880	3.292	4.148	4.218	4.918	5.322	5.232	5.849	5.944	5.243	4.780	5.440	5.705	5.582	5.912	5.765	5.807	6.001	6.136	5.987	6.340	6.176	6.978	7.243	7.512	7.622	7.860	7.839	7.957	7.808	8.052	8.345	7.757	8.339	8.042	7.642	8.112
380.0	1809	2015	1961	1725	1526	1439	1375	1362	1404	1510	1623	1661	1628	1573	1465	1352	1281	1249	1211	1165	1086	989.4	913.0	827.6	610.6	438.9	329.0	265.5	321.2	629.1	2413	9999.9	9999.9	344.2	21.46	9.055	6.040	4.520	4.043	3.649	3.333	3.601	4.067	4.324	4.816	5.412	5.040	5.912	5.693	5.138	4.876	5.668	5.888	5.617	6.078	5.841	6.052	6.158	6.211	5.968	6.361	6.480	7.162	7.367	7.572	7.447	7.810	7.653	7.755	7.747	7.738	7.962	8.072	8.188	8.125	7.997	8.133
385.0	1684	1962	1947	1697	1560	1470	1410	1386	1416	1506	1601	1637	1600	1547	1450	1345	1294	1263	1237	1196	1124	1041	939.3	864.4	734.1	514.1	385.2	291.5	241.8	262.9	625.4	3128	9999.9	9999.9	284.8	14.20	7.737	5.692	4.433	3.634	3.531	3.685	3.782	4.230	4.854	5.238	5.321	5.687	5.678	5.438	5.141	5.768	6.110	6.050	6.246	5.477	6.250	6.422	6.189	6.234	6.159	6.777	6.981	7.051	7.495	7.689	7.612	7.609	7.547	7.533	7.526	7.888	8.000	8.042	7.894	7.983	8.458
390.0	1693	1938	1915	1761	1598	1505	1453	1424	1429	1503	1578	1593	1560	1507	1422	1326	1278	1266	1240	1208	1152	1081	989.8	882.4	803.3	659.2	487.5	367.4	285.3	232.7	265.3	786.9	3173	9999.9	9999.9	1171	21.75	8.233	5.684	4.385	3.838	3.991	4.090	4.419	5.049	5.235	5.016	5.686	5.993	5.406	4.998	5.947	6.167	5.905	6.399	5.926	6.542	6.726	6.527	6.536	6.319	6.862	6.822	7.110	7.304	7.479	7.514	7.289	7.491	7.595	7.452	7.698	7.873	8.009	7.829	7.523	8.255
395.0	1666	1873	1915	1800	1654	1535	1493	1453	1465	1498	1546	1556	1517	1475	1388	1288	1256	1237	1221	1208	1166	1100	1028	929.5	835.4	748.6	629.2	468.4	368.4	288.2	237.1	300.7	794.2	2377	7111	9999.9	1959	25.90	8.504	5.835	4.817	4.287	4.504	4.800	4.773	5.559	4.992	5.624	5.790	5.060	5.180	5.941	6.216	6.219	6.027	6.082	6.578	6.855	6.681	6.737	6.819	6.835	6.895	6.967	7.404	7.520	7.192	7.551	7.477	7.416	7.450	7.629	7.759	7.785	7.622	7.831	7.938
400.0	1610	1857	1880	1795	1649	1566	1508	1466	1461	1477	1526	1521	1494	1434	1355	1263	1228	1205	1205	1190	1158	1118	1042	960.1	857.9	771.7	710.2	560.4	437.4	346.1	268.9	224.8	286.0	606.4	1888	8845	9999.9	296.6	18.54	7.400	5.686	4.882	4.659	4.755	4.878	5.511	5.056	6.097	5.518	5.373	5.259	5.884	6.538	6.345	6.446	5.960	6.449	6.731	6.700	6.859	6.620	6.548	6.741	6.607	7.018	7.312	7.277	7.460	7.180	7.348	7.128	7.334	7.627	7.531	7.451	7.641	7.941
405.0	1621	1831	1864	1763	1661	1578	1531	1488	1471	1509	1518	1509	1461	1414	1335	1240	1200	1172	1169	1163	1137	1109	1047	980.8	888.1	796.9	738.3	650.7	508.4	402.7	316.1	242.5	200.9	229.6	487.6	2573	9999.9	9248	257.3	12.48	6.980	5.494	5.138	4.664	4.870	5.360	4.830	5.949	5.770	5.329	5.041	6.017	6.914	6.209	6.373	6.129	6.873	6.503	6.580	6.674	6.774	6.903	7.097	7.154	7.014	6.979	6.668	6.911	7.002	7.374	7.139	7.500	7.634	7.277	7.344	7.370	7.803
410.0	1568	1787	1805	1734	1656	1593	1546	1503	1483	1490	1508	1487	1433	1374	1288	1190	1152	1127	1117	1116	1098	1078	1040	989.6	911.3	830.1	754.9	701.6	618.8	490.8	386.7	296.5	223.6	178.4	196.8	636.8	2842	7785	8429	1092	19.68	7.448	6.140	5.272	5.148	5.429	4.993	5.801	5.626	5.366	5.171	6.060	6.705	6.173	6.642	6.331	6.982	6.684	6.681	6.913	6.690	6.886	6.878	6.854	7.329	6.922	7.041	6.805	6.833	7.076	7.134	7.124	7.097	7.169	6.818	7.085	7.260
415.0	1577	1690	1770	1702	1641	1564	1535	1517	1492	1487	1492	1457	1398	1328	1239	1144	1096	1071	1056	1055	1044	1038	1009	979.2	924.1	852.8	784.0	721.2	670.6	592.2	458.5	352.5	268.5	199.7	159.4	223.3	688.7	1831	5121	9598	1765	24.38	8.123	6.442	5.855	5.892	5.212	5.754	5.734	5.464	5.034	6.247	6.481	6.382	6.453	6.447	6.850	7.248	6.843	6.926	6.840	7.106	6.978	6.925	7.001	6.665	6.991	6.938	6.856	6.929	7.059	6.771	6.749	6.776	6.728	6.797	7.070
420.0	1430	1620	1687	1661	1605	1565	1541	1506	1473	1460	1477	1449	1369	1279	1197	1094	1044	1020	997.1	999.9	1003	990.2	979.4	960.2	910.8	856.2	791.0	734.0	680.8	643.1	523.1	396.1	302.5	228.1	169.2	145.6	220.9	454.5	1327	6506	8787	276.2	18.33	7.392	6.125	6.065	5.376	5.773	5.613	5.182	4.928	6.015	6.325	6.421	6.348	6.321	6.854	6.716	6.917	6.761	6.808	7.074	6.991	7.154	7.131	6.598	6.846	6.532	6.309	6.466	6.535	6.767	6.627	6.801	6.637	6.550	6.565
