Sample:	'1
File name:	T2025042701新河东村01.FD3
Run date:	'09:17:23, 04/29/2025
Operator:	Administrator
Comment:	'

Instrument
Model:	F-2700 FL Spectrophotometer
Serial number:	23B8-004
ROM Version:	4J14000 07

Instrument parameters
Measurement type:	3-D scan
Data mode:	Fluorescence
EX  Start WL:	220.0 nm
EX  End WL:	600.0 nm
EX Sampling interval:	5.0 nm
EM  Start WL:	230.0 nm
EM  End WL:	650.0 nm
EM Sampling interval:	5.0 nm
Scan speed:	12000 nm/min
EX Slit:	5.0 nm
EM Slit:	5.0 nm
PMT Voltage:	700 V
Response:	Auto 
Corrected spectra:	Off
Contour interval:	50.000

Peak integration
Integration method:	Rectangular
Sensitivity:	1
Threshold:	1.000

Peaks
No.	ApexEX/EM(nm)	Height(Data)
1	225.0/575.0	57.56
2	225.0/585.0	56.07
3	225.0/610.0	54.84
4	225.0/625.0	57.16
5	230.0/340.0	1759
6	230.0/565.0	55.82
7	230.0/590.0	54.83
8	230.0/600.0	55.10
9	230.0/615.0	53.87
10	230.0/635.0	49.93
11	235.0/510.0	265.4
12	240.0/525.0	235.5
13	245.0/535.0	196.0
14	250.0/550.0	159.0
15	255.0/280.0	574.9
16	255.0/560.0	135.0
17	260.0/290.0	580.6
18	260.0/575.0	111.4
19	265.0/585.0	100.7
20	270.0/300.0	1175
21	270.0/600.0	104.3
22	275.0/310.0	1408
23	275.0/335.0	1587
24	275.0/615.0	99.82
25	280.0/315.0	1509
26	280.0/625.0	93.11
27	285.0/320.0	1487
28	285.0/635.0	75.61
29	315.0/355.0	443.3
30	320.0/365.0	426.0
31	325.0/370.0	393.1
32	330.0/375.0	384.2
33	335.0/380.0	367.4
34	350.0/400.0	319.4
35	410.0/480.0	58.67
36	425.0/500.0	36.48
37	440.0/520.0	21.71
38	455.0/340.0	5.562
39	455.0/540.0	12.28
40	460.0/345.0	5.515
41	505.0/275.0	3.347
42	510.0/280.0	3.318
43	520.0/285.0	3.705
44	530.0/290.0	3.827
45	540.0/295.0	5.465
46	545.0/300.0	6.631
47	550.0/305.0	7.195
48	560.0/310.0	7.923
49	565.0/340.0	8.318
50	570.0/315.0	8.445
51	580.0/320.0	8.073

Data points
	220.0	225.0	230.0	235.0	240.0	245.0	250.0	255.0	260.0	265.0	270.0	275.0	280.0	285.0	290.0	295.0	300.0	305.0	310.0	315.0	320.0	325.0	330.0	335.0	340.0	345.0	350.0	355.0	360.0	365.0	370.0	375.0	380.0	385.0	390.0	395.0	400.0	405.0	410.0	415.0	420.0	425.0	430.0	435.0	440.0	445.0	450.0	455.0	460.0	465.0	470.0	475.0	480.0	485.0	490.0	495.0	500.0	505.0	510.0	515.0	520.0	525.0	530.0	535.0	540.0	545.0	550.0	555.0	560.0	565.0	570.0	575.0	580.0	585.0	590.0	595.0	600.0
230.0	52.49	1894	5249	1858	64.90	7.792	5.480	5.042	4.415	4.512	4.433	3.746	3.566	3.146	2.915	2.465	2.196	2.328	1.987	1.949	1.541	1.404	1.241	1.221	1.325	1.265	1.002	0.968	0.847	0.801	0.902	0.752	0.787	0.694	0.598	0.605	0.576	0.493	0.466	0.467	0.445	0.504	0.510	0.419	0.372	0.421	1.688	8.781	17.06	13.82	5.862	1.149	0.315	0.243	0.275	0.214	0.206	0.213	0.231	0.197	0.166	0.178	0.135	0.148	0.127	0.109	0.112	0.097	0.128	0.108	0.098	0.097	0.078	0.072	0.071	0.071	0.066
235.0	92.08	525.8	3585	6273	2319	113.7	10.15	6.401	5.250	5.339	4.882	4.605	3.418	3.877	3.175	2.792	2.546	2.289	2.059	1.862	1.595	1.748	1.524	1.441	1.375	1.471	1.018	1.019	0.760	0.798	0.869	0.628	0.794	0.641	0.724	0.608	0.584	0.453	0.563	0.442	0.462	0.422	0.504	0.531	0.475	0.475	0.715	2.424	6.430	12.62	20.30	21.37	11.49	2.627	0.421	0.237	0.205	0.256	0.238	0.172	0.128	0.186	0.126	0.159	0.215	0.101	0.124	0.104	0.086	0.097	0.142	0.117	0.086	0.047	0.066	0.058	0.077
240.0	142.6	205.5	1080	5990	7650	514.6	53.93	8.600	7.161	6.540	5.620	5.335	4.324	4.356	3.198	2.878	2.672	2.351	2.279	1.989	1.568	1.750	1.543	1.253	1.439	1.558	1.110	0.948	0.963	0.817	0.823	0.705	0.830	0.658	0.722	0.646	0.613	0.607	0.543	0.431	0.533	0.425	0.408	0.489	0.679	0.682	0.675	0.894	1.772	3.681	10.66	27.26	28.75	22.42	9.512	1.416	0.249	0.229	0.249	0.194	0.150	0.166	0.181	0.180	0.177	0.090	0.147	0.106	0.127	0.101	0.131	0.083	0.058	0.091	0.094	0.063	0.088
245.0	118.8	211.6	308.8	2098	8398	7705	395.1	23.12	9.925	8.620	6.850	6.210	4.513	4.248	3.342	2.769	2.963	2.626	2.432	2.377	1.631	1.530	1.463	1.523	1.445	1.731	1.180	1.053	0.990	0.946	0.980	0.767	0.780	0.794	0.603	0.658	0.580	0.595	0.541	0.490	0.466	0.472	0.405	0.421	0.518	0.792	0.921	0.825	0.827	1.086	2.714	8.741	22.17	43.18	45.52	19.93	6.578	0.637	0.311	0.268	0.186	0.242	0.223	0.201	0.128	0.165	0.216	0.107	0.170	0.135	0.155	0.078	0.085	0.094	0.111	0.074	0.072
250.0	48.94	162.7	270.7	566.5	2703	8136	9999.9	1455	99.30	14.06	10.02	8.363	5.997	5.052	3.986	3.986	3.207	3.041	2.666	2.421	1.815	1.677	1.481	1.581	1.471	1.763	1.246	1.127	1.233	0.922	0.966	0.783	0.847	0.737	0.707	0.627	0.669	0.594	0.572	0.469	0.501	0.555	0.445	0.394	0.476	0.538	0.655	0.885	1.140	0.964	1.166	2.379	5.468	13.44	26.08	38.48	41.41	45.78	15.60	6.314	0.710	0.308	0.265	0.232	0.251	0.142	0.186	0.172	0.194	0.120	0.140	0.118	0.126	0.145	0.131	0.102	0.071
255.0	30.88	62.61	207.3	382.8	691.6	2061	8281	9999.9	2107	115.4	16.74	12.02	8.351	6.409	5.308	4.955	3.720	3.562	3.280	2.662	2.079	1.830	1.606	2.003	1.593	1.906	1.175	1.145	1.285	1.229	1.225	0.871	0.955	0.857	0.822	0.617	0.707	0.635	0.651	0.574	0.544	0.523	0.550	0.474	0.543	0.521	0.532	0.506	0.762	0.979	1.541	1.623	1.737	3.361	6.168	9.223	15.70	44.32	79.29	81.74	24.03	7.302	0.612	0.313	0.344	0.226	0.194	0.214	0.144	0.152	0.160	0.141	0.153	0.117	0.147	0.160	0.122
260.0	32.51	37.53	92.32	321.1	400.5	515.5	2517	9999.9	9999.9	1626	64.93	16.14	11.19	8.262	6.939	5.423	3.857	3.817	3.411	3.019	2.333	1.856	1.700	2.038	1.595	1.924	1.452	1.309	1.247	1.140	1.069	0.977	1.011	0.864	0.791	0.668	0.727	0.640	0.621	0.475	0.643	0.585	0.548	0.516	0.600	0.555	0.446	0.399	0.523	0.605	0.962	1.708	1.899	1.687	1.774	2.419	3.977	11.68	33.84	77.02	103.8	31.94	19.06	3.095	0.398	0.378	0.260	0.242	0.226	0.214	0.180	0.153	0.188	0.136	0.170	0.199	0.204
265.0	37.44	31.02	39.77	157.6	408.8	303.9	616.6	3777	9999.9	9999.9	1158	31.08	15.98	11.57	8.925	6.498	5.091	4.528	3.719	3.554	2.643	2.163	2.037	1.899	1.819	1.952	1.591	1.302	1.276	1.224	1.133	1.106	1.134	0.863	0.929	0.678	0.791	0.734	0.616	0.549	0.646	0.680	0.619	0.707	0.563	0.589	0.539	0.521	0.425	0.407	0.528	1.004	1.833	2.301	1.653	1.096	1.330	3.011	8.217	21.79	56.62	104.4	125.8	29.63	13.31	1.194	0.382	0.362	0.281	0.336	0.259	0.233	0.190	0.190	0.183	0.201	0.158
270.0	58.39	49.10	43.78	65.69	209.2	407.7	351.6	917.8	4028	9999.9	9999.9	4286	71.73	18.39	13.24	8.974	6.623	5.727	4.320	3.907	3.160	2.613	2.480	2.310	2.132	2.176	1.705	1.548	1.477	1.542	1.411	1.312	1.184	1.057	0.997	0.905	0.838	0.774	0.653	0.598	0.689	0.761	0.642	0.682	0.541	0.644	0.632	0.632	0.517	0.449	0.471	0.548	0.841	1.357	1.883	2.147	1.978	1.631	2.324	5.344	13.49	30.45	62.22	90.14	118.7	94.92	18.77	9.035	1.115	0.381	0.295	0.319	0.233	0.237	0.198	0.188	0.208
275.0	102.0	107.6	85.19	64.12	76.72	209.9	522.8	425.2	961.9	2667	9999.9	9999.9	1285	79.20	21.22	13.28	9.433	7.548	5.971	4.710	3.911	3.089	2.824	2.638	2.606	2.564	1.797	1.793	1.745	1.653	1.487	1.350	1.372	1.206	1.227	1.052	0.940	0.929	0.735	0.664	0.708	0.724	0.717	0.748	0.710	0.858	0.699	0.728	0.654	0.600	0.593	0.575	0.642	0.719	0.828	1.245	2.425	3.347	2.250	1.927	3.586	7.220	14.48	21.16	35.55	80.85	160.0	161.2	29.35	10.99	0.801	0.508	0.316	0.239	0.262	0.236	0.238
280.0	155.2	180.3	142.6	89.99	55.77	94.79	363.3	574.9	365.0	686.2	3262	9999.9	9999.9	986.4	49.47	18.11	12.09	10.21	6.944	4.966	4.583	3.792	3.174	3.222	2.903	2.841	2.151	1.850	1.890	1.685	1.865	1.395	1.588	1.371	1.232	1.058	1.189	1.010	0.865	0.640	0.889	0.911	0.764	0.935	0.857	1.008	0.934	0.843	0.749	0.714	0.679	0.617	0.571	0.593	0.604	0.731	1.234	2.447	3.318	3.049	1.786	2.217	3.838	5.474	8.631	20.35	58.93	132.1	183.2	154.5	24.02	5.153	0.708	0.400	0.406	0.304	0.292
285.0	215.8	262.5	219.2	125.5	73.11	71.81	168.0	556.9	365.1	290.5	868.7	4411	9999.9	9999.9	671.4	29.25	17.12	12.28	9.089	6.714	5.350	4.334	3.656	3.353	2.976	3.145	2.512	2.209	1.906	1.578	1.822	1.628	1.622	1.621	1.467	1.316	1.170	1.043	0.997	0.871	0.915	0.979	0.861	1.000	1.134	1.203	1.037	1.246	0.953	0.855	0.658	0.685	0.614	0.574	0.580	0.643	0.732	1.131	2.015	3.343	3.705	2.382	1.731	1.978	2.674	5.402	14.24	34.78	82.60	178.2	205.8	33.83	17.11	1.779	0.522	0.510	0.402
290.0	326.5	383.7	342.8	209.1	116.8	91.75	122.5	281.6	580.6	531.7	448.8	1232	4665	9999.9	9999.9	2754	49.75	20.15	13.33	9.534	7.063	5.499	4.551	4.066	3.405	3.586	2.721	2.335	2.402	2.080	2.077	1.848	1.708	1.722	1.495	1.328	1.355	1.239	1.124	0.988	1.060	1.047	1.081	1.170	1.309	1.478	1.360	1.513	1.358	1.274	1.126	0.947	0.812	0.727	0.731	0.730	0.795	0.920	1.144	1.626	2.653	3.748	3.827	3.112	2.255	2.498	4.512	9.136	20.00	46.75	85.67	113.9	160.4	121.9	87.66	12.47	2.481
295.0	417.7	548.1	494.5	325.5	173.8	136.1	156.7	228.2	371.8	802.3	807.7	664.6	1365	2794	9999.9	9999.9	3770	55.37	19.53	13.39	9.525	7.058	5.630	5.010	4.223	4.407	3.232	2.658	2.619	2.545	2.369	2.289	2.088	1.826	1.626	1.594	1.568	1.432	1.458	1.226	1.554	1.290	1.176	1.396	1.481	1.622	1.901	1.867	1.915	1.758	1.445	1.332	1.139	1.038	0.966	0.967	1.160	1.071	1.165	1.452	1.630	2.322	3.029	4.938	5.465	3.848	3.493	4.041	6.406	12.18	20.69	26.93	43.14	81.02	184.4	224.4	35.10
300.0	496.1	655.2	642.9	415.2	236.2	188.1	211.0	263.2	356.6	655.0	1175	845.4	760.8	955.9	3302	9999.9	9999.9	614.3	37.26	18.99	12.18	8.732	7.264	5.754	4.516	4.911	3.544	3.016	2.963	2.798	2.571	2.181	1.953	1.931	1.735	1.795	1.850	1.749	1.501	1.436	1.388	1.267	1.327	1.494	1.665	2.052	2.062	2.365	2.318	2.055	1.724	1.634	1.346	1.213	1.247	1.220	1.447	1.371	1.654	1.683	1.743	2.090	2.585	3.618	5.461	6.631	5.136	4.119	4.115	5.433	6.915	7.991	11.35	20.45	57.00	140.9	213.6
305.0	590.7	790.1	774.5	509.1	292.1	239.2	281.7	348.5	460.6	640.0	1108	1344	852.1	674.0	1053	4443	9999.9	9999.9	438.0	27.94	16.61	11.49	8.387	7.083	5.468	5.550	3.838	3.526	3.306	2.968	2.616	2.393	1.905	2.089	1.893	1.864	2.009	1.713	1.688	1.514	1.446	1.429	1.428	1.515	1.973	2.369	2.330	2.674	2.789	2.294	1.876	1.812	1.509	1.380	1.391	1.383	1.657	1.633	1.960	2.149	2.315	2.475	3.022	3.545	4.457	5.806	7.195	6.944	5.309	4.701	4.767	4.438	4.799	6.513	14.40	35.59	82.11
310.0	699.2	897.9	924.3	600.6	364.6	319.7	361.1	452.7	591.1	763.0	1036	1408	1380	862.9	676.2	1234	4644	9999.9	9999.9	2050	38.42	16.74	11.42	8.851	6.923	6.779	4.865	3.995	3.619	3.583	2.965	2.809	2.340	2.259	2.068	1.864	2.117	1.826	1.759	1.722	1.545	1.506	1.625	1.692	2.050	2.446	2.776	3.249	3.147	2.563	2.343	2.119	1.886	1.724	1.627	1.688	2.070	2.132	2.341	2.458	2.714	3.105	3.741	4.163	4.623	5.143	6.119	7.141	7.923	7.803	6.130	4.734	4.278	4.246	5.310	9.594	19.73
315.0	773.7	1047	1070	691.1	434.9	377.0	442.3	550.5	717.4	905.7	1150	1337	1509	1282	778.1	575.1	1204	2663	9999.9	9999.9	2981	41.06	16.97	12.53	9.474	8.530	5.654	4.581	4.291	3.891	3.639	2.949	2.591	2.476	2.300	2.160	2.279	1.925	1.817	1.881	1.627	1.701	1.766	1.992	2.323	2.718	3.354	3.729	3.462	2.953	2.660	2.342	2.246	2.126	1.947	1.898	2.156	2.619	2.884	2.948	3.281	3.606	4.263	4.707	5.095	5.505	6.145	6.233	7.021	7.814	8.445	7.384	5.612	4.471	3.946	4.167	6.095
320.0	857.8	1167	1225	775.6	501.3	429.9	506.5	622.1	802.4	996.4	1245	1414	1448	1487	1048	502.1	480.8	729.0	3198	9999.9	9999.9	463.0	29.13	16.64	11.94	10.16	6.469	5.323	4.784	4.434	3.906	3.113	2.700	2.744	2.574	2.219	2.252	2.031	2.075	1.873	1.810	1.812	2.005	1.981	2.607	3.229	3.354	4.066	4.069	3.370	2.803	2.673	2.460	2.083	2.228	2.103	2.426	2.687	2.952	3.214	3.538	4.108	5.091	5.047	5.977	6.073	6.673	6.477	7.091	7.334	7.419	8.040	8.073	6.115	4.533	3.414	3.289
325.0	933.9	1339	1399	889.3	558.2	480.1	540.3	660.3	874.5	1075	1333	1495	1485	1401	1294	637.4	365.0	317.7	821.6	4411	9999.9	9999.9	348.5	23.99	14.97	12.60	7.683	6.988	5.463	4.854	4.152	3.438	3.039	2.963	2.714	2.353	2.200	2.182	2.203	1.811	1.858	1.890	2.046	2.158	2.706	3.614	3.980	4.596	4.561	3.756	3.059	2.850	2.698	2.412	2.354	2.362	2.639	2.729	3.126	3.484	3.857	4.475	5.273	5.297	5.975	6.425	7.198	6.988	7.467	7.835	7.221	7.161	8.060	7.714	6.057	4.056	3.097
330.0	1010	1503	1609	1058	642.7	538.2	588.1	701.8	915.0	1135	1401	1563	1551	1361	1201	872.1	482.8	262.0	306.1	1091	4370	9999.9	9999.9	1703	33.55	18.40	10.96	8.279	6.708	5.858	4.867	3.925	3.418	3.044	2.848	2.514	2.437	2.223	2.246	1.915	1.890	2.105	2.089	2.225	2.883	3.592	4.155	5.192	4.969	4.394	3.684	3.455	2.904	2.701	2.598	2.698	2.823	3.092	3.248	3.626	4.078	4.647	5.389	5.710	6.170	7.148	7.454	7.295	7.611	8.045	7.733	7.269	7.018	6.947	6.411	5.743	4.673
335.0	1044	1581	1736	1190	741.3	602.0	642.9	736.4	946.3	1171	1417	1587	1568	1372	1130	817.8	701.2	366.1	228.7	359.6	1055	2576	9999.9	9999.9	2691	41.29	15.95	11.50	8.541	7.000	5.661	4.927	4.103	3.416	2.930	2.527	2.760	2.271	2.104	2.283	2.118	2.214	2.211	2.299	3.137	3.848	4.351	5.526	5.319	4.905	3.938	3.903	3.351	3.138	2.838	2.938	3.072	3.312	3.524	3.729	4.247	4.931	5.568	5.949	6.432	7.173	7.256	7.287	7.738	8.299	8.042	7.171	6.952	6.657	5.432	5.042	4.921
340.0	1039	1605	1759	1251	802.3	643.2	667.2	750.1	938.5	1156	1395	1551	1543	1370	1111	753.3	675.7	522.6	256.1	217.5	329.5	646.8	3122	9999.9	9999.9	408.2	26.91	14.66	10.73	8.618	6.393	5.256	4.553	3.783	3.163	2.812	2.658	2.478	2.262	2.108	2.303	2.014	2.202	2.280	3.061	3.748	4.273	5.562	5.334	4.724	4.123	4.353	3.419	3.223	2.983	3.033	3.347	3.608	3.802	3.799	4.170	4.848	5.359	5.710	6.246	6.642	7.146	7.156	7.424	8.318	7.685	6.897	6.744	6.437	5.502	4.601	4.023
345.0	1050	1567	1750	1277	844.5	673.4	672.9	754.7	923.4	1115	1345	1482	1479	1318	1090	734.5	575.0	577.3	370.4	209.0	185.1	227.6	768.5	4343	9999.9	9999.9	316.4	19.84	12.89	10.69	7.396	5.649	5.067	3.817	3.430	2.944	2.958	2.444	2.330	2.324	2.134	2.149	2.098	2.426	3.013	3.649	4.437	5.245	5.515	4.757	4.151	4.459	3.474	3.133	2.930	3.254	3.335	3.221	3.589	3.819	4.198	4.694	5.125	5.331	6.231	6.370	6.971	6.916	7.545	7.856	7.590	6.880	6.830	6.235	5.355	4.643	4.189
350.0	949.7	1404	1606	1252	875.1	705.4	684.3	745.8	884.4	1056	1248	1368	1383	1237	1032	721.2	539.6	479.9	467.8	325.7	191.3	159.4	254.4	1049	4581	9999.9	9999.9	1509	29.24	14.49	9.888	7.156	5.771	4.626	3.786	3.147	3.029	2.479	2.440	1.999	2.118	2.165	2.094	2.388	2.866	3.516	4.116	4.850	4.941	4.596	3.956	4.249	3.791	3.230	3.135	3.180	3.370	3.394	3.531	3.792	3.981	4.594	5.016	5.281	5.675	6.086	6.468	6.424	6.846	7.135	6.812	6.690	6.541	5.952	5.135	4.490	4.209
355.0	869.0	1312	1459	1186	885.0	729.0	716.7	754.9	863.1	988.6	1150	1255	1262	1143	981.3	713.2	551.7	446.8	410.6	443.3	294.6	178.5	164.6	315.9	1084	2684	9999.9	9999.9	2406	34.19	13.87	9.537	7.449	5.622	4.318	3.419	3.273	2.616	2.702	2.148	2.039	2.061	2.091	2.342	2.712	3.239	3.774	4.435	4.642	4.078	3.898	4.157	3.746	3.428	3.308	3.331	3.385	3.474	3.510	3.723	3.956	4.350	4.769	4.779	5.566	5.542	5.701	5.894	6.642	6.452	6.408	5.887	6.017	5.612	4.797	4.423	4.230
360.0	799.1	1187	1368	1159	898.4	760.9	726.5	755.7	855.2	947.4	1087	1165	1165	1069	934.3	703.0	559.7	456.6	392.8	415.5	408.4	236.9	167.9	172.6	317.7	664.6	3041	9999.9	9999.9	384.0	25.54	12.43	9.131	6.546	4.812	3.776	3.606	3.069	2.682	2.196	2.197	2.103	2.137	2.180	2.658	3.235	3.448	4.036	4.305	4.044	3.794	4.221	3.610	3.607	3.377	3.412	3.609	3.452	3.686	4.016	4.061	4.453	4.540	4.672	4.924	5.370	5.717	5.450	5.944	5.871	6.114	5.689	5.937	5.265	4.772	4.180	4.261
365.0	761.6	1080	1261	1116	894.8	780.2	743.1	757.9	829.5	911.7	1036	1094	1093	1014	888.2	689.8	565.2	476.0	409.4	381.4	426.0	339.9	201.8	158.1	162.2	220.6	737.1	4087	9999.9	9999.9	309.4	18.28	11.15	7.998	5.566	4.301	3.827	3.361	2.648	2.315	2.114	2.192	2.110	2.240	2.709	2.930	3.467	3.986	4.262	3.770	3.646	3.830	3.638	3.565	3.446	3.518	3.467	3.345	3.829	3.827	4.170	4.228	4.331	4.696	4.833	5.053	5.346	5.147	5.360	5.635	5.651	5.496	5.624	5.192	4.648	4.520	4.370
370.0	718.3	995.7	1154	1045	886.7	785.0	740.6	760.7	809.9	876.7	965.0	1016	1006	937.2	829.2	678.1	573.7	495.2	435.4	391.2	378.4	393.1	311.5	199.2	154.6	140.5	230.7	975.1	4202	9999.9	9999.9	1395	26.37	11.69	7.819	5.631	4.761	3.625	3.084	2.573	2.377	2.432	2.119	2.395	2.492	2.871	3.091	3.630	3.804	3.510	3.562	3.861	3.645	3.719	3.524	3.394	3.422	3.444	3.574	3.541	4.140	4.063	4.245	4.354	4.547	4.777	4.870	4.889	4.902	5.006	5.266	5.080	5.129	4.753	4.470	4.258	4.164
375.0	640.7	884.3	1062	992.9	883.4	796.0	766.8	757.2	798.8	837.9	901.8	932.0	927.6	859.1	780.2	648.9	575.0	512.1	461.6	419.7	378.9	353.6	384.2	299.0	187.6	148.7	138.6	283.8	987.6	2584	9999.9	9999.9	2243	29.32	10.74	7.549	5.588	4.446	3.503	3.038	2.758	2.544	2.198	2.596	2.679	2.724	2.918	3.360	3.558	3.304	3.347	3.751	3.658	3.703	3.437	3.617	3.689	3.633	3.578	3.999	4.209	3.873	3.927	4.448	4.433	4.346	4.376	4.434	4.591	4.819	4.817	4.619	4.754	4.614	4.231	4.273	4.087
380.0	593.8	858.4	1005	951.6	860.8	801.8	760.6	750.2	784.7	809.4	862.9	880.9	874.2	826.7	740.6	631.8	573.4	517.4	476.5	433.2	395.8	354.8	357.9	367.4	244.5	166.5	133.6	142.1	281.7	628.7	3033	9999.9	9999.9	325.7	20.55	9.502	6.911	5.381	4.023	3.252	2.818	2.665	2.449	2.444	2.714	2.709	2.867	3.238	3.317	3.234	3.364	3.627	3.724	3.706	3.640	3.642	3.582	3.565	3.699	3.688	3.840	3.939	4.005	4.265	4.054	4.226	4.664	4.562	4.170	4.794	4.383	4.395	4.387	4.568	4.016	4.234	4.111
385.0	566.8	788.8	920.7	914.9	860.8	783.2	759.7	746.0	780.9	790.8	836.3	837.7	826.2	781.4	710.7	616.4	568.6	521.2	487.7	445.0	404.4	367.6	343.3	364.3	319.8	203.0	150.3	127.7	137.8	197.6	729.8	3860	9999.9	9999.9	266.3	14.23	9.271	6.105	4.782	3.742	3.096	2.898	2.495	2.516	2.556	2.766	2.967	3.406	3.300	3.097	3.322	3.630	3.614	3.675	3.360	3.731	3.593	3.697	3.657	3.544	3.822	3.851	3.838	3.931	4.012	3.870	4.005	4.272	3.937	4.434	4.330	4.203	4.187	4.254	4.156	4.134	4.065
390.0	539.8	746.1	871.4	892.7	850.0	788.1	753.2	738.3	756.1	767.0	787.1	795.9	772.5	734.8	674.0	598.6	554.6	518.2	487.7	453.8	421.1	383.6	350.2	332.6	339.6	289.0	194.8	148.5	124.9	118.2	219.8	913.0	3744	9999.9	9999.9	1135	22.18	9.044	6.324	4.563	3.669	3.389	2.707	2.681	2.845	2.685	2.905	3.257	3.163	2.960	3.027	3.442	3.468	3.584	3.461	3.571	3.621	3.680	3.769	3.540	3.763	3.787	3.791	3.768	3.858	4.001	3.864	4.035	3.835	4.139	4.355	4.087	3.999	4.051	4.017	4.154	3.922
395.0	510.5	683.4	816.4	867.4	817.8	789.2	752.6	726.9	734.9	740.0	746.5	747.0	726.9	691.8	640.9	572.7	544.3	506.2	485.6	458.3	425.5	398.3	364.9	335.5	314.9	324.3	276.0	185.4	144.5	120.5	121.2	256.6	873.1	2451	9657	9999.9	2012	26.26	9.071	6.026	5.024	3.917	3.247	3.068	3.048	2.928	2.968	3.280	2.940	2.961	3.043	3.395	3.159	3.445	3.339	3.371	3.780	3.583	3.767	3.594	3.597	3.733	3.733	3.532	3.706	3.798	3.813	3.565	3.553	3.767	3.874	4.009	3.769	3.908	3.858	3.884	3.821
400.0	484.0	662.6	799.4	839.6	803.4	778.6	757.4	724.2	718.3	711.6	726.7	724.6	699.3	666.8	620.9	558.5	526.6	498.2	477.8	453.8	427.5	403.4	375.4	345.4	313.6	304.5	319.4	237.0	170.0	136.2	112.8	120.2	238.6	581.6	2645	9999.9	9999.9	1552	19.87	7.832	6.174	4.594	3.684	3.326	3.222	2.915	2.805	3.091	2.943	3.160	2.981	3.323	3.277	3.627	3.618	3.290	3.617	3.465	3.606	3.556	3.761	3.565	3.674	3.719	3.706	3.649	3.696	3.547	3.570	3.664	3.594	3.747	3.839	3.979	3.405	3.710	3.742
405.0	461.8	643.8	771.1	809.7	784.2	769.9	734.5	719.6	717.9	702.0	706.8	697.0	680.4	644.6	596.4	543.2	509.6	489.9	467.0	450.5	431.4	406.1	383.4	356.8	323.0	296.4	307.9	291.9	202.3	152.8	120.3	97.70	104.7	166.3	623.0	3141	9999.9	9999.9	255.3	13.18	6.836	5.310	4.126	3.422	3.114	3.020	2.793	2.966	2.982	2.877	3.077	3.301	3.195	3.505	3.466	3.436	3.725	3.519	3.728	3.484	3.438	3.690	3.715	3.338	3.332	3.326	3.334	3.432	3.575	3.747	3.342	3.555	3.635	3.536	3.405	3.510	3.508
410.0	431.6	624.6	739.0	774.1	761.7	752.9	731.2	717.1	698.3	689.6	687.4	674.1	645.3	619.8	571.4	526.6	495.3	471.7	453.6	439.2	420.0	399.3	383.1	359.4	332.9	302.9	285.6	291.0	263.5	188.8	137.8	104.8	83.92	82.83	172.2	730.6	3176	9999.9	9999.9	3177	20.38	7.407	5.244	4.182	3.634	3.388	2.903	3.325	3.006	2.846	2.958	3.340	3.313	3.375	3.345	3.272	3.387	3.578	3.703	3.518	3.591	3.475	3.466	3.421	3.379	3.270	3.294	3.378	3.315	3.363	3.284	3.460	3.430	3.267	3.263	3.424	3.347
